#   1 NUMBER                 Running object number                                     
#   2 MAG_AUTO               Kron-like elliptical aperture magnitude                    [mag]
#   3 X_IMAGE                Object position along x                                    [pixel]
#   4 Y_IMAGE                Object position along y                                    [pixel]
#   5 X_WORLD                Barycenter position along world x axis                     [deg]
#   6 Y_WORLD                Barycenter position along world y axis                     [deg]
#   7 A_WORLD                Profile RMS along major axis (world units)                 [deg]
#   8 B_WORLD                Profile RMS along minor axis (world units)                 [deg]
#   9 THETA_WORLD            Position angle (CCW/world-x)                               [deg]
#  10 FWHM_WORLD             FWHM assuming a gaussian core                              [deg]
#  11 ELONGATION             A_IMAGE/B_IMAGE                                           
#  12 ELLIPTICITY            1 - B_IMAGE/A_IMAGE                                       
         1 -14.3558    204.2815     36.8681   4.3729046940e+01   3.0232167319e+01     2.107094     1.413986  36.80  0.008528769    1.903    0.475
         2 -14.0587    219.9347     21.4794   3.8201572331e+01   2.8496884703e+01      1.08268    0.8870666  52.32  0.002682716    1.398    0.285
         3 -10.1618     53.3418      4.6314   6.4385178733e+01   6.7183205752e+01    0.1554662    0.1465438 -42.15  0.000714051    1.635    0.388
         4 -10.4920      2.3733      3.5750   8.8708292256e+01   7.3720482523e+01    0.2770347   0.07234403 -40.10  0.001261983    2.887    0.654
         5 -12.1484    243.0182      2.2937   3.2086220245e+01   2.5598253022e+01    0.6092658    0.2352706  76.61  0.002973048    2.537    0.606
         6 -10.5964     47.7173      2.3210   6.5364099198e+01   6.8333997123e+01    0.2172852    0.1604084  13.25 0.0004652929    1.076    0.071
         7  -9.9447     56.8868      1.4850   6.1470606352e+01   6.6879100919e+01    0.1711381    0.1068098  44.23   0.00100808    1.529    0.346
         8  -9.6196    197.6783    223.0115   8.8449677768e+01  -1.3996982798e-01    0.1740143    0.1469445 -10.06 0.0004580494    1.131    0.116
         9 -15.3415    123.1873    229.9596   1.0437245660e+02   1.0305235021e+01     10.58947     1.279397  38.85   0.02825306    6.242    0.840
        10 -13.7657      5.7310    187.9891   1.2429863752e+02   3.3400145018e+01     1.390121    0.6619159 -68.96  0.002485992    1.766    0.434
        11 -13.8472     23.8078    225.2475   1.2327727041e+02   2.3969565197e+01     1.148643    0.4785931  71.96  0.005751496    2.566    0.610
        12 -15.4703     53.0510    247.1903   1.1953280064e+02   1.6608034717e+01     4.045356    0.9124314  31.87   0.01271046    6.322    0.842
        13  -9.8158     66.4825    194.4735   1.1195486991e+02   2.5609505779e+01    0.2499719    0.1784711  50.99 0.0008286733    1.337    0.252
        14 -11.2718    192.5163    193.6723   8.4133225426e+01   5.5146953003e+00    0.6311392    0.3606955 -63.49  0.002186884    4.506    0.778
        15  -9.5106    152.5957    198.2818   9.3359313355e+01   1.1534460598e+01    0.2573221    0.1350232 -52.83  0.001133548    2.155    0.536
        16 -10.2218    110.9589    195.7974   1.0216681051e+02   1.8935716328e+01    0.4836375    0.2293243 -73.69  0.001658611    3.977    0.749
        17 -10.5730    208.8680    197.1888   8.1588828599e+01   2.1825940756e+00    0.1902645    0.1796507  -8.67 0.0005196292    1.245    0.197
        18  -8.8605    159.6490    196.8302   9.1581809867e+01   1.0603102085e+01    0.1802096    0.1300965 -55.95 0.0003688411    1.622    0.383
        19  -9.5124     71.9864    188.1582   1.0994400546e+02   2.6308283635e+01    0.2020207    0.1544386  71.87 0.0005673174    1.292    0.226
        20  -9.0178     80.9577    184.4613   1.0738112841e+02   2.5924920077e+01     0.196373    0.0955643  56.17 0.0008084897    2.467    0.595
        21  -8.9817     69.5926    183.7551   1.0992599255e+02   2.7626415878e+01    0.1759555      0.11687 -81.44 0.0003157258    1.524    0.344
        22  -8.9056     91.2917    182.6960   1.0470516728e+02   2.4837226028e+01    0.1385185    0.1000476  73.33 0.0003431943    1.573    0.364
        23 -10.2589    144.9436    180.5450   9.1820195757e+01   1.6442653100e+01     0.329277    0.2094468 -52.69  0.001545485    1.663    0.399
        24  -9.7842     99.2733    180.9368   1.0254844095e+02   2.4028325570e+01    0.2267849    0.1964441  38.70 0.0006399389    1.183    0.155
        25 -13.8843     86.0873    227.9625   1.1159107992e+02   1.6030628976e+01     1.183981    0.5873657 -61.97  0.006197564    2.122    0.529
        26 -12.1354     64.1602    177.3363   1.1035859380e+02   2.9811190727e+01     0.430642    0.3341635 -25.75  0.001914833    1.782    0.439
        27 -12.0986     69.0581    172.2075   1.0848607505e+02   3.0384115107e+01    0.3567341    0.3130535  19.55 0.0006457793    1.378    0.274
        28  -8.9560    150.1875    178.3970   9.0217486247e+01   1.5948879394e+01    0.1916728    0.1326386  48.75 0.0002599438    1.538    0.350
        29  -8.7081    131.2259    214.3442   1.0053945123e+02   1.1967669286e+01    0.1230449   0.09818967 -19.75  0.000196278    1.543    0.352
        30 -13.6104     65.8821    158.5632   1.0726304935e+02   3.4062924066e+01    0.5721643    0.3967573 -51.93  0.001391324    1.400    0.286
        31 -13.2680     77.0868    159.9191   1.0461017922e+02   3.2232539954e+01      1.54927    0.8591012  67.63  0.003122264    2.747    0.636
        32 -14.3849     68.3059    144.3273   1.0427852117e+02   3.7227188457e+01      4.62822     1.954126  60.55  0.002819586    6.627    0.849
        33 -10.6562    138.8362    170.4888   9.1281787448e+01   1.9682972003e+01    0.3808893    0.2548699  58.50  0.001721017    1.859    0.462
        34 -13.8752     57.0973    129.3300   1.0471740336e+02   4.2340083339e+01     2.654045    0.9909086 -71.68  0.008293281    3.943    0.746
        35 -10.4136    230.5723    166.7769   7.1322928005e+01   3.6064373730e+00    0.2016262    0.1172872 -43.65 0.0009567168    1.794    0.443
        36  -8.9041    106.6865    210.2858   1.0519011913e+02   1.6580151914e+01    0.1322943   0.09302366  65.89 0.0003865184    1.580    0.367
        37  -9.6084    157.8544    160.3714   8.4757052815e+01   1.8297793184e+01    0.2805034    0.2107048 -64.03  0.001322208    1.654    0.395
        38  -9.1698    167.5269    157.5220   8.1942697761e+01   1.7021271538e+01    0.1504157    0.1413193 -12.46 0.0001966307    1.005    0.005
        39 -10.6343    134.1312    146.8605   8.7430789102e+01   2.5812635289e+01    0.7036546    0.1990585 -51.35  0.001985313    3.832    0.739
        40 -10.6076    133.0000    140.4850   8.6255434123e+01   2.7475012499e+01    0.5972203    0.1988547 -50.66  0.001849291    3.101    0.677
        41 -12.3069     54.9997    145.1484   1.0802129706e+02   3.8681568223e+01    0.4872988    0.4240527 -63.42  0.002937575    1.060    0.057
        42 -10.1499    174.6485    148.5199   7.8319640913e+01   1.7461687160e+01      0.36575    0.2621684 -66.15  0.001612409    1.975    0.494
        43  -8.3830    110.3423    148.6854   9.3886149369e+01   2.9724520754e+01    0.1536145    0.1169747  78.31 0.0007047652    1.707    0.414
        44 -11.1333     28.4285    143.8741   1.1491551509e+02   4.1728946939e+01     0.254245    0.2022858 -66.51  0.001587583    1.092    0.084
        45 -10.9041    100.5313    140.5990   9.4779422656e+01   3.3318945227e+01     0.597604    0.3654137 -25.46  0.002374772    2.439    0.590
        46 -12.3513     87.4501    140.7837   9.8375817287e+01   3.5367500403e+01    0.2936551    0.2476765 -41.12 0.0004937489    1.191    0.160
        47  -9.5797     28.6273    136.2526   1.1385828940e+02   4.3569782553e+01    0.1806373   0.09775492 -61.09 0.0001172136    1.502    0.334
        48 -10.9824     62.2061    199.3443   1.1344183237e+02   2.5075984631e+01    0.4402874    0.2151803 -57.03  0.001152479    2.042    0.510
        49 -11.3483     44.4092    134.2067   1.0918433610e+02   4.2556224894e+01    0.4556107    0.1831291  43.31  0.001884677    2.828    0.646
        50 -11.4391     44.2275    129.7665   1.0850727827e+02   4.3671299300e+01    0.4020196    0.2673227   9.27  0.002071904    2.049    0.512
        51  -9.6398     37.8747    133.1548   1.1085320543e+02   4.3475448672e+01    0.1924289    0.1605614  89.97 0.0002752343    1.179    0.152
        52 -10.2437    110.1525    130.8515   8.9985517565e+01   3.3978017980e+01    0.3205526    0.2669256  13.11 0.0007635655    1.379    0.275
        53 -10.2248    105.9942    131.0105   9.1158862903e+01   3.4677693863e+01    0.3701453    0.2948084 -64.03  0.001657987    1.307    0.235
        54 -10.9183    135.8413    127.3454   8.2355430708e+01   2.9880303900e+01    0.6572757    0.1653212 -49.96   0.00164693    4.601    0.783
        55 -10.3221     32.3776    130.0580   1.1193049102e+02   4.4753425139e+01    0.1948888    0.1391288 -70.24  0.000428793    1.170    0.146
        56  -9.6544    160.5064    127.9979   7.6530001746e+01   2.4638367206e+01     0.227753    0.1333374 -62.07 0.0008106006    2.614    0.617
        57 -10.8332     97.3618    127.0982   9.2653536210e+01   3.7092069856e+01    0.3119926    0.2454507 -28.75 0.0007310855    1.375    0.273
        58  -9.6813     79.5112    128.4711   9.8056688730e+01   3.9567153188e+01    0.1466559    0.1334608 -59.38 0.0008097552    1.024    0.024
        59  -9.9741    116.7458    124.8152   8.6736804556e+01   3.4179754107e+01    0.2595258    0.1651877 -11.91 0.0009456083    2.723    0.633
        60 -11.4653     66.4010    127.2340   1.0160618874e+02   4.1692172484e+01    0.5669095    0.3967043 -57.66  0.002916164    1.259    0.205
        61  -9.9216    107.0062    119.4945   8.8096108003e+01   3.7214013175e+01    0.2471785    0.1953459 -34.09   0.00121003    1.256    0.204
        62  -8.7777     85.4512    119.4330   9.4299850718e+01   4.0863479177e+01    0.1474863    0.1361128 -61.30 0.0001461969    1.076    0.071
        63 -10.4560     39.8740    113.2867   1.0688027971e+02   4.8163846297e+01    0.2262619    0.1659446 -72.95 0.0004659639    1.286    0.222
        64  -9.4685    168.0406    112.9765   7.0914822504e+01   2.6112446336e+01    0.2564654    0.1965457 -75.56   0.00113777    1.826    0.452
        65  -9.7190    135.0000    113.0058   7.8830380024e+01   3.3222509527e+01    0.2673461   0.08626315 -43.80   0.00080365    2.951    0.661
        66 -10.1047    205.1828    110.4097   6.2785420508e+01   1.8494186647e+01     0.335088    0.2330242  32.22  0.001135398    1.679    0.404
        67 -11.2187     17.8406    110.1270   1.1314797280e+02   5.0788447502e+01     0.235498    0.1872088 -68.03  0.001368293    1.043    0.042
        68 -10.1438     33.1581    109.0074   1.0818144516e+02   4.9835143623e+01    0.2397481    0.1679355 -82.68 0.0008068796    1.518    0.341
        69 -12.7808     85.5245    155.9222   1.0175251129e+02   3.1982584936e+01     1.209558    0.7339118 -51.37  0.001683978    1.563    0.360
        70 -10.2629     29.0222    106.9947   1.0912075681e+02   5.0681212174e+01    0.2093547    0.1664914 -56.81 0.0005244526    1.036    0.035
        71  -9.7850    134.5599    104.8154   7.6684072283e+01   3.5077830193e+01     0.401031    0.1469072 -44.71  0.001304041    2.637    0.621
        72  -9.6605     45.0749    105.0632   1.0358372190e+02   4.9634320539e+01     0.204295    0.1573951  77.03 0.0006313492    1.650    0.394
        73 -10.4378    250.0000    101.9844   5.3668789640e+01   1.0872286787e+01    0.2368561   0.06654589 -35.39 0.0008083073    2.983    0.665
        74 -11.6097    241.0042     98.9775   5.4225049318e+01   1.3083170619e+01    0.3496843    0.2006673 -63.14 0.0008401675    2.681    0.627
        75 -10.4376     38.9699    101.8750   1.0490219019e+02   5.1017821925e+01    0.3303223    0.1472835  42.10   0.00141783    2.802    0.643
        76  -9.3123     33.0052     96.8174   1.0582595904e+02   5.2780675222e+01    0.2044694    0.1396849  59.70  0.001069681    2.000    0.500
        77 -10.5236     53.0671     90.8008   9.7570430447e+01   5.2122912248e+01    0.3180896    0.1716966 -49.17  0.001022635    1.550    0.355
        78  -9.8438     41.6499     91.9188   1.0178443427e+02   5.3116132617e+01    0.2065574    0.1703878 -24.77 0.0004301756    1.242    0.195
        79 -10.6896    249.7294     87.6197   5.0418353130e+01   1.3177496678e+01    0.2468156    0.1341851 -48.98  0.000716166    1.755    0.430
        80 -10.0522     73.3903     83.8134   8.8676660380e+01   5.0966477010e+01    0.2388674    0.2146592  73.27 0.0006752457    1.456    0.313
        81  -8.8877     36.6483     83.2748   1.0145652616e+02   5.5610702798e+01    0.1228588    0.1012184  73.66 0.0003767782    1.639    0.390
        82  -9.2480    159.7876     81.8102   6.3959377383e+01   3.3970715506e+01    0.2078957    0.1805432 -65.29 0.0006216438    1.298    0.230
        83 -11.2689      2.3034     78.5087   1.1290667007e+02   5.9148390755e+01    0.5524012   0.07580651 -63.72  0.001848005    3.927    0.745
        84  -8.7810    184.3411     77.3239   5.7779374709e+01   2.9002435566e+01    0.1541779    0.1155528  15.63 0.0007050926    1.728    0.421
        85 -10.4067     13.5027     59.8186   1.0435412903e+02   6.2659206255e+01    0.2207305    0.1754628 -42.16 0.0004103972    1.046    0.044
        86 -13.2930    196.0825     42.9333   4.6395034226e+01   3.1371567116e+01    0.9426906    0.6609135 -43.18  0.002117858    1.361    0.265
        87 -16.5068      8.8906    239.4379   1.2665742668e+02   2.2700265562e+01     10.30597     1.494035 -75.85   0.03764725    5.762    0.826
        88 -12.5246    213.8650     27.9154   4.0370545212e+01   2.9120222334e+01    0.4732289    0.3717643  43.08  0.001116196    1.519    0.342
        89  -9.9521    134.3553    248.3714   1.0450750231e+02   5.4897938167e+00    0.2590422      0.11798 -59.55  0.001244713    2.967    0.663
        90  -9.8990    141.6954     39.2140   5.4338179896e+01   4.4919749176e+01    0.2244273    0.2045933 -66.52 0.0004553585    1.227    0.185
        91  -8.4775    115.6400     31.2732   5.7288330846e+01   5.1956163626e+01    0.1326161    0.1090606 -77.08 0.0004667717    1.654    0.395
        92 -15.0220      9.6747    207.5360   1.2478274193e+02   2.8898041482e+01     1.454538     1.069056 -46.90  0.003694087    1.901    0.474
        93 -10.0088    189.8214     15.1277   3.9688352773e+01   3.6083409566e+01     0.203619    0.1620894 -67.22 0.0007629615    1.227    0.185
        94 -10.7781    137.9972     43.9679   5.6708302656e+01   4.5162709188e+01    0.2926974    0.2459841 -84.27  0.000433988    1.458    0.314
        95 -10.2560    172.5777    242.8141   9.6422812195e+01   6.7219384050e-01    0.3859687    0.2197898 -62.10  0.001482439    3.377    0.704
        96 -13.3143     37.4266    204.5690   1.1913998236e+02   2.6811933625e+01    0.4449772    0.3918763 -55.85  0.001503116    1.411    0.291
        97 -15.2359     46.2221    194.9124   1.1641915723e+02   2.7949243516e+01     2.422156     1.461999  74.06   0.01103108    1.684    0.406
        98  -8.8845     43.2686    236.6729   1.2052363602e+02   1.9682360706e+01    0.1162655   0.06662202  68.10 0.0003098773    1.575    0.365
