#   1 NUMBER                 Running object number                                     
#   2 MAG_AUTO               Kron-like elliptical aperture magnitude                    [mag]
#   3 X_IMAGE                Object position along x                                    [pixel]
#   4 Y_IMAGE                Object position along y                                    [pixel]
#   5 X_WORLD                Barycenter position along world x axis                     [deg]
#   6 Y_WORLD                Barycenter position along world y axis                     [deg]
#   7 A_WORLD                Profile RMS along major axis (world units)                 [deg]
#   8 B_WORLD                Profile RMS along minor axis (world units)                 [deg]
#   9 THETA_WORLD            Position angle (CCW/world-x)                               [deg]
#  10 FWHM_WORLD             FWHM assuming a gaussian core                              [deg]
#  11 ELONGATION             A_IMAGE/B_IMAGE                                           
#  12 ELLIPTICITY            1 - B_IMAGE/A_IMAGE                                       
         1 -13.3735    224.9658      7.1156   3.4902073630e+01   2.7424467142e+01      1.35448    0.9801537  55.73  0.006075741    1.642    0.391
         2 -14.3370    197.9499     37.4904   4.5249919274e+01   3.0335285781e+01     2.905062     1.705709  26.43   0.01212398    2.803    0.643
         3 -11.5660     47.2463      9.9919   7.0011927276e+01   7.0860659796e+01    0.3806244    0.2473449   7.43  0.001872945    1.979    0.495
         4 -11.0917    192.8537    194.5848   8.2344293862e+01   7.6832833440e+00    0.8146539     0.474204 -61.30  0.003132359    5.435    0.816
         5 -19.1113     12.3946    170.6689   1.2092047212e+02   3.7597190347e+01     17.29704     4.254582 -85.20    0.0626862    4.217    0.763
         6  -8.9518     87.3689    203.9535   1.0566609218e+02   2.2093850217e+01    0.3026931    0.1991165  89.97  0.001720675    1.905    0.475
         7  -8.7741     96.3255    202.4559   1.0349818301e+02   2.1124173285e+01    0.1909027    0.1176186 -63.72  0.001064998    1.920    0.479
         8  -9.4190     82.3864    194.7648   1.0583662187e+02   2.4537252329e+01    0.2418773    0.2222887  16.00  0.001271938    1.291    0.225
         9  -8.9932     79.6090    192.2809   1.0622086575e+02   2.5408259004e+01    0.2267402    0.1434128  53.52 0.0006676571    1.424    0.298
        10  -9.0363    133.3017    194.6472   9.4317113745e+01   1.6979517509e+01    0.1278073   0.09397721  63.83 0.0007038825    1.702    0.412
        11  -9.4191    168.3715    233.4269   9.2570642452e+01   6.0064662603e+00    0.2275638    0.1606146  41.39  0.001544138    1.397    0.284
        12 -10.5840    149.6983    187.9408   8.9789668100e+01   1.5505478982e+01    0.3339028    0.2683456  83.44  0.001646145    1.866    0.464
        13 -15.3677     71.8562    148.3644   1.0277612567e+02   3.6023837694e+01     11.18582     4.791456  69.13   0.01129562    7.788    0.872
        14  -9.9902    207.8130    191.3963   7.9131481140e+01   5.8800842331e+00    0.1752207   0.09499119  26.35 0.0008505795    1.725    0.420
        15  -9.3045     92.5000    184.5123   1.0226542653e+02   2.5136141380e+01    0.2582833    0.1139013  35.64 0.0007184479    1.971    0.493
        16 -10.5692     98.8979    181.0287   1.0028236529e+02   2.4880062359e+01    0.3867528    0.2357127  26.42  0.001558517    1.740    0.425
        17 -10.5663    120.1540    194.2683   9.7152881890e+01   1.9092270056e+01    0.2542363     0.214014  84.45 0.0005617648    1.450    0.310
        18 -11.2207    112.1756    205.6460   1.0036880427e+02   1.8264393437e+01    0.2862009    0.2475068 -85.99 0.0005396388    1.390    0.281
        19 -11.4281     52.6909    167.6555   1.1034425298e+02   3.4128225553e+01    0.6093481    0.2498249 -51.01  0.002532147    3.069    0.674
        20 -11.0703     51.7615    171.6982   1.1098116769e+02   3.3340406210e+01    0.4015124    0.2711227  51.34 0.0005789687    1.276    0.216
        21 -11.5659     47.5426    172.4533   1.1213395813e+02   3.3671239483e+01    0.4262037    0.3340675  57.23  0.001589518    1.079    0.073
        22 -10.1245    188.2090    176.6371   8.0118933906e+01   1.0995865905e+01    0.3428916    0.3308809 -75.65  0.002078929    1.455    0.313
        23  -9.4691    146.6786    172.1445   8.7827844434e+01   1.8756458707e+01    0.3455656    0.1967694 -61.34 0.0009166712    2.612    0.617
        24  -9.7739    238.4717    175.4888   7.1287856098e+01   3.4550430821e+00    0.1185663   0.09243776  -0.30 6.458625e-05    1.016    0.016
        25  -9.7337     84.1902    173.9292   1.0296619690e+02   2.8536286695e+01    0.2107888    0.1820091  32.17 0.0003130099    1.187    0.157
        26  -8.7210    194.2937    171.9342   7.8122010701e+01   1.0700627272e+01    0.1793319    0.1512665  -9.32 0.0007789773    1.116    0.104
        27 -11.4304    163.9142    213.3896   9.0716281273e+01   9.3540178046e+00    0.3386785    0.2453921  29.88  0.002192642    1.117    0.105
        28  -9.1460    185.8151    170.0925   7.9380953171e+01   1.2389056225e+01    0.1846737    0.1741278  27.43 0.0006215759    1.217    0.178
        29 -10.0686    137.5390    169.0360   8.9338749984e+01   2.0904976428e+01    0.3438678    0.2018045  40.52  0.001399931    1.532    0.347
        30 -10.0712    240.0332    169.4936   6.9956161200e+01   3.9649348287e+00    0.1649638    0.1052684  33.63 -0.0001021027    1.551    0.355
        31 -10.0156    230.5474    167.1979   7.1004934631e+01   5.6433872455e+00    0.2288467    0.1034239 -36.11  0.001149022    2.164    0.538
        32  -8.7799    149.0016    176.3202   8.8035525303e+01   1.7617801473e+01    0.1864484    0.1560319  32.16 0.0007035573    1.056    0.053
        33  -9.9412     57.3585    159.0126   1.0817276676e+02   3.5511030538e+01    0.1838984    0.1590739  85.34 0.0004459585    1.105    0.095
        34 -12.8694    107.9612    203.7442   1.0106337575e+02   1.9216713301e+01    0.9965963    0.5355912 -32.51 0.0004696022    3.368    0.703
        35 -11.5813     93.0204    151.7724   9.7467468859e+01   3.2015163760e+01    0.6920412    0.5615407   0.43   0.00368013    1.624    0.384
        36 -10.8524    133.8486    145.4943   8.5834272077e+01   2.6162062835e+01     1.110171     0.315783 -54.79  0.002954126    5.603    0.822
        37  -9.2245    187.5030    151.4872   7.5444472976e+01   1.5033748012e+01    0.1353661    0.1198275   7.02 -7.525668e-05    1.021    0.021
        38  -9.2800    112.6495    151.0654   9.2187280343e+01   2.8862569075e+01    0.2537583    0.1801072  51.17 0.0006244013    1.375    0.273
        39  -9.4606    174.7869    149.2069   7.7486917465e+01   1.7741347104e+01    0.2379466    0.1922933  34.82 0.0007584201    1.177    0.150
        40  -9.5869    143.6260    145.4514   8.3503893458e+01   2.4320037242e+01    0.2759921    0.1303255 -59.58 0.0009561964    3.425    0.708
        41 -10.4398    105.3131    138.0851   9.1703436701e+01   3.2992438693e+01    0.5497071    0.3275721 -32.80  0.002276217    2.395    0.582
        42 -10.3833    106.0125    130.8276   9.0064162831e+01   3.4493667585e+01    0.3507322    0.3257075  85.38  0.001231179    1.098    0.089
        43 -11.6847     92.9977    137.7356   9.5051200757e+01   3.5202749697e+01    0.2678977    0.2622507 -22.68 0.0004027657    1.147    0.128
        44 -10.6817    113.9422    129.3711   8.7589679301e+01   3.3341721131e+01    0.5353712    0.3766949  52.98  0.001664551    1.445    0.308
        45 -11.4256    119.4626    123.7916   8.4881263319e+01   3.3497555041e+01    0.6840139    0.3814159 -30.90  0.002598319    2.615    0.618
        46 -10.6623    135.7136    128.9545   8.1875131533e+01   2.9170559015e+01    0.5032875    0.1693187 -49.48  0.001641117    3.255    0.693
        47  -9.4395    160.6880    128.3805   7.5947185836e+01   2.4213900010e+01    0.2924131    0.2425868 -54.64  0.001550434    1.346    0.257
        48  -8.4357     96.2779    128.4110   9.2323054976e+01   3.6791625924e+01    0.1946797    0.1319381  49.24 0.0003860012    1.445    0.308
        49 -10.3250    100.8230    125.0473   9.0321569894e+01   3.6754005071e+01    0.2958651    0.2554555   0.29 0.0008484999    1.419    0.295
        50  -9.4133    109.0580    118.2568   8.6477958435e+01   3.6753451755e+01    0.2341372    0.2118091 -56.59 0.0003353842    1.130    0.115
        51 -10.0577    231.3105    113.7861   5.9970063093e+01   1.2746079662e+01    0.2737881    0.2270786 -17.73 0.0007377218    1.057    0.054
        52  -9.9850    134.5468    104.7712   7.6300740972e+01   3.4393861163e+01    0.7563197    0.1959248 -49.39  0.001934305    4.862    0.794
        53  -8.8769    167.9664    112.9774   7.0735617898e+01   2.5525139792e+01    0.2425307    0.1856739 -79.29   0.00113977    1.871    0.466
        54 -11.6816    117.4781    109.0662   8.1914309045e+01   3.7112693371e+01    0.7687355    0.5255445  72.90  0.003245009    2.056    0.514
        55  -9.6099    205.2688    110.1975   6.3140640562e+01   1.8218402172e+01    0.3122796    0.1876766  42.62  0.001239965    1.757    0.431
        56  -8.2726    224.3920    206.5224   7.8822320800e+01   1.7003528015e+00    0.1136334   0.08559019   5.96 -6.565358e-05    1.035    0.034
        57  -8.8048     63.1446     99.1235   9.6753668876e+01   4.9279838871e+01    0.2043769    0.1648094  68.25 0.0005646278    1.318    0.241
        58 -12.0060    186.1441    209.8353   8.5991505378e+01   6.6050676753e+00     0.611064    0.3811533   4.61  0.003492988    1.858    0.462
        59  -8.9889     93.0931    205.8353   1.0458759371e+02   2.0955590309e+01    0.1895354    0.1394326  50.56 0.0004449287    1.173    0.148
        60  -8.5825    184.5901     77.1944   5.8213606939e+01   2.7898247672e+01    0.1999214    0.1372741 -20.61 0.0004421452    1.599    0.375
        61 -11.5664    202.9150    199.2914   8.1304643035e+01   5.5655487829e+00    0.6316352    0.1572304  33.54  0.002224243    4.253    0.765
        62  -9.1249     63.4154     69.8461   8.8977827678e+01   5.6317434099e+01    0.2285217    0.1988574  54.28 0.0004469403    1.224    0.183
        63  -9.9114    248.5268    249.1360   8.1357946493e+01  -5.4539686377e+00    0.2157089   0.09447634  19.30  0.001354842    1.978    0.494
        64 -12.7821    182.0852     51.5703   5.1345033554e+01   3.2338727933e+01     0.828677    0.6922908  13.08 0.0007907401    1.451    0.311
        65  -8.6673     77.0199    213.2384   1.0884498455e+02   2.1754420105e+01    0.1729676    0.1268209  43.55 0.0004932171    1.088    0.081
        66  -9.6714    189.8274     15.1127   3.9715149402e+01   3.4882158315e+01    0.2201875    0.1668817 -58.78 0.0006854525    1.214    0.176
        67  -8.2522     88.6623    241.3181   1.0880904675e+02   1.5518346470e+01    0.1201367   0.06516293  53.90 0.0002884755    1.705    0.413
