#   1 NUMBER                 Running object number                                     
#   2 MAG_AUTO               Kron-like elliptical aperture magnitude                    [mag]
#   3 X_IMAGE                Object position along x                                    [pixel]
#   4 Y_IMAGE                Object position along y                                    [pixel]
#   5 X_WORLD                Barycenter position along world x axis                     [deg]
#   6 Y_WORLD                Barycenter position along world y axis                     [deg]
#   7 A_WORLD                Profile RMS along major axis (world units)                 [deg]
#   8 B_WORLD                Profile RMS along minor axis (world units)                 [deg]
#   9 THETA_WORLD            Position angle (CCW/world-x)                               [deg]
#  10 FWHM_WORLD             FWHM assuming a gaussian core                              [deg]
#  11 ELONGATION             A_IMAGE/B_IMAGE                                           
#  12 ELLIPTICITY            1 - B_IMAGE/A_IMAGE                                       
         1 -10.4347    110.2281     40.6916   2.2672874087e+01   5.2786835772e+01    0.9183671    0.6636279 -19.59  0.004431208    1.633    0.388
         2 -11.3201     78.8279     35.6129   3.0108537748e+01   6.0904750545e+01    0.8239621    0.5589751 -30.59  0.004099539    1.536    0.349
         3 -10.6074     59.9742     22.9861   3.1369635898e+01   6.6744605982e+01    0.4182554    0.1934673 -32.77  0.001830891    2.230    0.551
         4 -12.3226    105.5084     20.4623   1.5621840375e+01   5.6717448209e+01    0.4289653    0.3541349   0.70 0.0005150331    1.417    0.294
         5 -11.9171    104.2706     13.4847   1.2927148108e+01   5.7802542985e+01    0.5193229     0.374969  -1.27  0.002712238    1.707    0.414
         6 -12.2045     48.8633     13.0196   3.0861583881e+01   7.0266175260e+01    0.6837025    0.2636485  48.47  0.002900973    2.516    0.603
         7 -11.9145     36.0883     19.3299   4.1376031828e+01   7.1512555827e+01    0.8046457    0.5431878 -30.09  0.004165973    1.423    0.297
         8 -10.4615      2.0352      2.1110   5.6043174015e+01   7.8441358677e+01    0.2442588    0.1439826 -29.41  0.001244167    1.485    0.326
         9 -10.1908      1.1632      8.4529   6.0644837783e+01   7.7375748937e+01     0.349196   0.08689126 -56.49   0.00136873    3.630    0.724
        10 -11.8352     26.2340     28.7669   5.2354582872e+01   7.1168450786e+01    0.5731655    0.4217218 -40.51  0.003172959    1.238    0.192
        11 -11.7925     20.2762     21.9154   5.2878843065e+01   7.3148108662e+01     0.702829    0.3900961 -30.52  0.001700537    1.799    0.444
        12 -11.1607      6.9245     10.4865   5.6805369795e+01   7.6554881258e+01    0.5640701    0.4667827  22.34  0.003455922    1.361    0.265
        13 -11.0894      8.2005     20.5881   6.0971974396e+01   7.4536218560e+01    0.6267358    0.2876952 -16.48  0.001434669    3.020    0.669
        14 -11.1548     12.8453      8.1613   5.0547151558e+01   7.6390700495e+01    0.6928897    0.2180211 -50.80  0.002803824    3.487    0.713
        15 -12.1126     23.0682     10.9020   4.4630526211e+01   7.4720587072e+01    0.5386984    0.3644054  -2.22  0.002345871    1.577    0.366
        16 -10.8040     68.0895     19.1084   2.6067627409e+01   6.5618705053e+01    0.4159804    0.3540924  88.78  0.002403157    1.509    0.337
        17 -12.0626    164.8864     18.0113   4.9995522485e+00   4.1811534408e+01    0.5494429    0.3062156  46.03    0.0024985    2.241    0.554
        18 -11.3639     86.1859     14.0970   1.7655111639e+01   6.2142461562e+01    0.7894661    0.4651971  17.77  0.003489421    2.419    0.587
        19 -10.4383     89.3901      8.5322   1.4142436397e+01   6.1955690907e+01    0.3391847    0.2226409 -31.16  0.001037665    1.630    0.386
        20 -11.6432    227.9425     15.1989   3.5885473566e+02   2.7417532012e+01    0.4347512    0.2350284 -72.30  0.001370516    1.720    0.419
        21 -11.1776    127.0151     16.7128   9.8588280526e+00   5.1674181024e+01    0.6512616    0.4549847 -17.10  0.001960007    1.689    0.408
        22 -10.8588    132.8142     15.3965   8.4290310012e+00   5.0321298624e+01    0.3593858    0.3116378  67.46  0.001395917    1.105    0.095
        23 -10.7051    137.0494     14.5068   7.4685468920e+00   4.9323036809e+01    0.3862913    0.2354375  79.36 0.0009980429    1.564    0.360
        24 -10.2796    147.1199     16.1611   6.6193333155e+00   4.6549322129e+01     0.777719    0.1915031  48.30  0.001985756    6.368    0.843
        25  -9.9362    156.7357      7.9930   2.8014643652e+00   4.4941214034e+01    0.2499942    0.1926945  27.68  0.001374805    1.733    0.423
        26 -10.5617    152.4732      7.8660   3.2310105562e+00   4.6038025960e+01    0.3690889    0.3142109  -9.87  0.001487786    1.452    0.312
        27  -9.9857    218.3006     13.5596   3.5910155777e+02   2.9669887408e+01    0.2836899    0.1516352 -45.21  0.001422133    1.497    0.332
        28 -11.4012    192.5089      8.4807   3.5968094762e+02   3.6092992698e+01    0.4886656     0.230497 -26.42  0.002289237    2.271    0.560
        29 -11.7877    212.2142      9.1325   3.5844548718e+02   3.1502812053e+01    0.5582181    0.3567731 -14.96  0.002845413    2.171    0.539
        30 -10.3627    218.5564      3.5662   3.5673619886e+02   3.0706648754e+01    0.2536587     0.198902 -78.26 0.0007764391    1.139    0.122
        31 -10.3996    223.6162      2.8088   3.5628193826e+02   2.9698816339e+01    0.2442547    0.1801029 -74.75 0.0005407491    1.146    0.127
        32 -10.3769    120.5683     11.7026   9.0496756990e+00   5.3855369320e+01    0.3131575    0.1495282  68.12 0.0008696612    1.886    0.470
        33 -10.3095    164.7690      4.8101   1.0084907590e+00   4.3228417832e+01    0.3648015    0.2283006  30.19  0.001746871    2.444    0.591
        34 -10.9207    169.1480      9.6302   2.0280727654e+00   4.1651164884e+01    0.4302293    0.2446473  58.46  0.001503718    1.819    0.450
        35 -10.0639    163.6703      9.9600   2.6781253645e+00   4.2989346768e+01    0.2472467    0.2082202 -41.42 0.0008550393    1.233    0.189
        36  -9.9532     64.3014      2.1348   1.8082761971e+01   6.8342057557e+01    0.2010527     0.163787  23.75  0.001234054    1.180    0.153
        37 -10.5714     64.3125     10.1548   2.2647596600e+01   6.7515025667e+01    0.2748834    0.1892669  57.71 0.0004151402    1.441    0.306
        38 -10.4519     62.8003      6.4981   2.1132465290e+01   6.8235451858e+01    0.3970262    0.2350944  61.55  0.002027386    1.741    0.426
        39 -10.0675    145.8153      8.0062   4.0558699428e+00   4.7726841792e+01     0.436436    0.2570439  22.24  0.001280709    2.771    0.639
        40  -9.6541     78.0017      7.5241   1.6715680775e+01   6.4743177296e+01     0.237314    0.1893815 -86.56 0.0007455591    1.513    0.339
        41 -10.4057     73.8407      3.6259   1.5885490541e+01   6.6071072676e+01    0.6586643    0.2276362  54.01  0.002715358    2.365    0.577
        42 -11.6215    184.6212      6.1714   3.5967845514e+02   3.8214350609e+01    0.4127619    0.2177351 -60.24  0.002053072    1.717    0.418
        43  -9.7671    231.6915      6.2996   3.5663342077e+02   2.7629909135e+01    0.1765498    0.1309664 -76.01 0.0003807699    1.176    0.150
        44 -10.8806    233.5722      2.6112   3.5572365428e+02   2.7638039096e+01     0.373219    0.1528858 -54.11  0.001926018    1.863    0.463
        45 -10.2630    176.4049      5.6309   2.0494766118e-01   4.0264626255e+01    0.3162094    0.1819388 -75.14 0.0008824438    1.642    0.391
        46 -11.4803    137.8564      4.1829   3.7263219649e+00   5.0128279588e+01    0.5470715    0.2241932  68.27 0.0004250557    2.103    0.525
        47 -11.6618    133.1384      2.5542   3.7459828962e+00   5.1483667035e+01    0.4810781    0.2952629  67.88  0.002481482    1.446    0.308
        48 -11.0021    113.7452      2.8099   6.6594465237e+00   5.6420609105e+01    0.5549186    0.3104351 -87.32  0.001857505    2.025    0.506
        49  -9.7421    245.9010      1.4018   3.5488799375e+02   2.5296960097e+01    0.1537003   0.09667679 -87.45 0.0003676639    1.510    0.338
        50 -10.8932    206.4146      2.2932   3.5714829100e+02   3.3526273077e+01    0.5149846    0.1944292 -86.56   0.00216584    2.838    0.648
        51 -10.1007    105.0880      1.8265   7.7409577209e+00   5.8688421568e+01    0.3043999    0.1729832  84.15  0.001010973    1.860    0.462
        52 -10.4115    122.0726      5.6989   6.4773426576e+00   5.4043191420e+01    0.2542048    0.1697651 -22.37 0.0009440556    1.680    0.405
        53  -9.5416    152.2028      1.4163   1.1821836519e+00   4.6713240279e+01    0.2373052    0.1128831  72.67 0.0005994801    1.856    0.461
        54 -10.4746    243.0367      4.0427   3.5557295126e+02   2.5577956851e+01    0.2713518    0.1214236 -68.45  0.001435998    1.997    0.499
        55  -8.9245     29.2678      1.6485   3.4198481759e+01   7.5138043085e+01    0.1075667   0.09567097 -54.70 0.0006989958    1.624    0.384
        56 -10.6415     41.5167      3.8642   2.8756914758e+01   7.2764645618e+01    0.3533923    0.2112357  19.47  0.001829406    1.927    0.481
        57 -11.9379     16.5434     12.8787   5.0571339804e+01   7.5184502015e+01    0.9052734     0.336713 -33.76  0.003739754    3.057    0.673
        58  -9.7232     43.1011    116.0635   6.9240912963e+01   4.8061577302e+01    0.2994596    0.2067426  61.27 0.0007061093    1.550    0.355
        59 -12.3624      2.6087    111.7254   8.3365980851e+01   5.2691946858e+01    0.6472672    0.3759627  51.68  0.002591277    1.770    0.435
        60 -11.3509      4.3606    105.6595   8.2139613549e+01   5.4198606689e+01    0.4147258    0.3771779  40.47  0.002609884    1.260    0.206
        61  -9.6784     78.8935    115.0770   5.6518997611e+01   4.3172255795e+01    0.2337373    0.2255638 -66.24 0.0007168486    1.063    0.059
        62 -11.5889     21.8289     93.4999   7.3594725150e+01   5.6238616666e+01    0.8508803    0.4166589  50.06  0.003641332    2.383    0.580
        63  -9.9328     30.6174     96.5045   7.0519462004e+01   5.4658021491e+01    0.3334487      0.21915  75.68   0.00108179    1.761    0.432
        64 -10.7688     35.5831    102.8526   6.9714077099e+01   5.2460584436e+01    0.5186388    0.3026444  -5.76  0.001870406    2.683    0.627
        65 -10.8665     26.6835     85.6675   7.0075351588e+01   5.7881178518e+01    0.5470324    0.5072649 -49.48  0.002172065    1.089    0.082
        66 -10.5260     19.3188     86.1366   7.3377820717e+01   5.8373655018e+01    0.3847172    0.2746768  -6.83  0.002047397    1.705    0.414
        67  -9.6975     28.6110    100.7440   7.2080246661e+01   5.3717331056e+01    0.2478879    0.1613973 -83.10 0.0003429466    1.496    0.332
        68 -11.9569     25.8069    105.7381   7.3986841456e+01   5.2632556341e+01    0.8939957    0.5794792 -66.05  0.003667084    1.339    0.253
        69 -11.4455     21.8349    114.3036   7.6691186137e+01   5.0667410133e+01    0.5520336      0.30613   1.06  0.002416076    2.601    0.616
        70 -11.3509     28.1856    113.0314   7.4191103088e+01   5.0448888864e+01    0.3303646    0.3024515 -47.03 0.0008879224    1.192    0.161
        71  -8.9474     57.6406    114.3234   6.3704707162e+01   4.6669449394e+01    0.1636398    0.1088011  68.07 0.0007043578    1.775    0.437
        72  -9.4313     13.6490    114.3574   7.9662128699e+01   5.1289195911e+01     0.265417     0.148014 -24.21  0.001178027    2.541    0.606
        73  -9.9106     49.1427    112.0540   6.6322344930e+01   4.8411124669e+01    0.3077718    0.2059762  37.28 0.0009290893    1.561    0.360
        74 -10.9526     15.3888    109.6888   7.8475500511e+01   5.2414033586e+01    0.4466499    0.3215756   8.81   0.00182436    1.708    0.415
        75 -11.5453     79.5040    108.2218   5.4690694809e+01   4.4850273935e+01    0.6623468    0.3674864  36.90  0.001196307    1.878    0.467
        76 -10.3669     86.6088    103.7134   5.1146365193e+01   4.4724239810e+01    0.4954157    0.2560036  47.66  0.001427187    2.054    0.513
        77  -9.2817     45.5595    105.7312   6.6425933133e+01   5.0556526778e+01    0.2598232    0.1283529 -61.29 0.0002683531    1.793    0.442
        78 -10.9917     51.8469     99.9053   6.2791695928e+01   5.1306815274e+01    0.5712091    0.3379908 -37.74  0.001096606    1.998    0.500
        79  -9.4401     47.3117    102.6720   6.5135917286e+01   5.1158588648e+01    0.2566587    0.1950205 -80.85  0.001039896    1.307    0.235
        80 -11.0679     17.1955    100.5662   7.6572362409e+01   5.4720509133e+01    0.3759279    0.2270865 -78.19  0.000455022    1.469    0.319
        81 -11.8064      9.0077     96.8714   7.9332792498e+01   5.6252810487e+01    0.5178142    0.4286216   0.34 0.0005513983    1.458    0.314
        82 -11.6094      6.5513     88.2827   7.9217333433e+01   5.8648982542e+01     0.625923    0.4051376   3.30   0.00334702    1.892    0.471
        83 -10.6548    244.9594    100.5778   1.6443860992e+01   1.2136573702e+01    0.3294763     0.200477 -79.66  0.001520924    2.999    0.667
        84 -12.1567     67.4847     95.0625   5.5655211857e+01   5.0258339048e+01    0.5398472    0.4295243  35.08  0.001165402    1.334    0.250
        85 -11.5887     79.0314     93.7943   5.1090327427e+01   4.8601469905e+01    0.9645127    0.6851963 -54.51  0.004437957    1.347    0.258
        86 -12.5121     75.9496     79.6416   4.8031161630e+01   5.2602173187e+01    0.8405726    0.5909081  72.15   0.00364735    1.977    0.494
        87  -9.2522    210.1253     98.4765   2.0653481080e+01   1.9036821622e+01     0.179292     0.140986  57.65 0.0004229641    1.453    0.312
        88  -9.9331     67.2257     81.6364   5.1991423575e+01   5.3656751410e+01     0.474839    0.3224234 -28.65  0.002098184    1.829    0.453
        89  -9.8839    121.5809     93.3135   3.7494955238e+01   3.9930625950e+01    0.3705945     0.190724 -50.62  0.001067846    1.951    0.487
        90  -9.9214     51.0444     91.4838   6.1137285007e+01   5.3620677128e+01    0.4035346     0.222262  26.36  0.001550809    2.047    0.512
        91  -9.9630     52.0506     87.1698   5.9642563350e+01   5.4594711093e+01    0.2523517    0.1952521 -59.33 0.0003505039    1.195    0.163
        92 -11.5577     44.8742     84.4270   6.1935383699e+01   5.6241408804e+01    0.6130247    0.4832356  32.76   0.00177708    1.369    0.269
        93  -9.9284     37.2587     85.9700   6.5561317124e+01   5.6741354463e+01    0.2880872    0.2101467  24.58 0.0007279132    1.520    0.342
        94 -12.0197     42.5793     91.0611   6.4488892538e+01   5.4805121755e+01    0.5349236    0.4204932  72.62  0.000466922    1.428    0.300
        95 -10.6554     35.7557     92.8821   6.7702951470e+01   5.5096127286e+01    0.4587919    0.2777668 -85.10 0.0007633952    1.866    0.464
        96 -12.0605    126.0247     94.5543   3.6650200691e+01   3.8646690664e+01    0.2947722    0.2724309 -55.45 0.0001464681    1.051    0.049
        97  -9.9125    240.4287     92.7164   1.5278216333e+01   1.4159285747e+01    0.2706851   0.09908027 -39.92  0.001150436    2.132    0.531
        98 -11.0179     98.2337     90.9894   4.3764459132e+01   4.5547468658e+01    0.2713234    0.2289958  47.74 0.0002623308    1.211    0.174
        99  -9.9596     67.0383     88.4387   5.4032666844e+01   5.2007655000e+01    0.2901255    0.1983558 -41.87 0.0006189126    1.503    0.335
       100  -9.0347    112.2369     88.6077   3.8749145880e+01   4.3080629511e+01    0.3724074    0.1472786  53.90  0.001162707    3.000    0.667
       101 -10.3553     90.3646     85.9926   4.4858162023e+01   4.8329955206e+01    0.4135168     0.306589 -67.50  0.001886101    1.497    0.332
       102  -9.2110    103.8628     87.2120   4.0849176408e+01   4.5232145212e+01    0.2163844    0.1920124  -3.97  0.001054673    1.352    0.260
       103 -10.3780    143.2762     84.3381   2.9350128679e+01   3.6767752988e+01    0.2720022     0.241128 -63.36 0.0004893674    1.093    0.085
       104  -9.8007    113.4181     83.1996   3.6743077526e+01   4.4011200724e+01    0.3278656    0.2561758 -81.99  0.001325831    1.543    0.352
       105 -10.0630    110.4963     82.4891   3.7374527175e+01   4.4826000562e+01    0.3028279    0.2054036  62.70 0.0009367825    1.679    0.404
       106  -9.5154    103.2501     80.0094   3.8783583919e+01   4.6980794159e+01    0.2248817    0.1981315 -53.32 0.0004794098    1.112    0.101
       107 -11.3450     52.9864     74.7626   5.5782256101e+01   5.7560989734e+01    0.7216671    0.3676986 -63.80  0.002906749    2.129    0.530
       108  -9.8763     46.8370     75.6148   5.8716442468e+01   5.8205830550e+01    0.3690211    0.2509415 -50.15 0.0009436594    1.351    0.260
       109  -9.2858     92.4734     71.5067   3.9453593369e+01   5.1163607001e+01    0.2808011    0.2258031 -59.35 0.0009482863    1.293    0.227
       110 -10.8858     89.3075     77.6809   4.2595362485e+01   5.0460518005e+01     0.540415    0.3378644  51.78  0.002185815    1.708    0.415
       111 -10.5974     94.5417     76.2718   4.0363943402e+01   4.9685124418e+01    0.4241956    0.3381333  52.97  0.001073645    1.290    0.225
       112  -9.7926    249.3532     77.2964   1.0932288470e+01   1.4880013379e+01    0.1158163   0.09539677   0.35 0.0007034009    1.690    0.408
       113  -9.5645      2.9081     77.7694   7.9347082042e+01   6.1548816185e+01    0.3165374    0.1060102  15.01   0.00126419    3.401    0.706
       114 -10.5535      2.0632     71.4222   7.8786121165e+01   6.3198473542e+01    0.4319672    0.1950793 -64.04  0.002052679    1.739    0.425
       115  -8.8731    181.9739     76.2290   1.9437631669e+01   2.9065526722e+01    0.1795913    0.1227885  63.48 0.0003280961    1.559    0.358
       116 -10.9524     14.0578     74.6213   7.3623005084e+01   6.1721721459e+01    0.3721897    0.2581044 -84.16  0.001880524    1.436    0.303
       117  -9.7585    103.2986     74.5135   3.6972045394e+01   4.8161054628e+01    0.3096439    0.2615703  76.48  0.001522033    1.308    0.236
       118 -11.2589     27.2305     73.1694   6.7058113128e+01   6.1034428326e+01    0.5291767    0.3511015  -5.91  0.001468939    1.877    0.467
       119 -10.7273     35.0133     71.8582   6.3052463280e+01   6.0570404593e+01     0.527235    0.2294115  46.79  0.002007922    2.974    0.664
       120  -9.8114     41.1248     72.8509   6.0496624497e+01   5.9615516199e+01       0.3129    0.2483783  -0.44 0.0009102147    1.456    0.313
       121 -11.3385     40.6081     68.9889   5.9619154800e+01   6.0623323504e+01    0.3464378    0.2754989  17.95 0.0005893692    1.379    0.275
       122 -10.7812     81.0032     72.3039   4.3759027886e+01   5.3332419414e+01    0.4412378    0.2471034 -50.34  0.001834454    1.760    0.432
       123  -9.4963     66.1146     74.4661   5.0208970440e+01   5.5562635331e+01    0.2174501    0.1489323  34.46  0.001011912    1.542    0.352
       124  -9.4005    154.2127     72.5742   2.3474764688e+01   3.6379879132e+01    0.2130788    0.1414028  46.63 0.0006660154    1.656    0.396
       125  -8.7724     19.6472     71.7028   7.0344463991e+01   6.2055032746e+01    0.1456413   0.08810522 -36.95 0.0007034834    1.691    0.409
       126  -9.6780     86.2857     69.9825   4.1062353743e+01   5.2785107027e+01    0.2218761    0.2043123 -44.85  0.001172266    1.068    0.063
       127 -10.6762    122.9054     68.7551   2.9465591139e+01   4.4765663741e+01    0.4536669    0.2748851  52.99  0.001285951    1.653    0.395
       128  -9.8507     14.2045     67.4470   7.2085980196e+01   6.3519211760e+01    0.3569452    0.1357186  14.46  0.001438722    3.103    0.678
       129  -9.6604     91.7694     57.4942   3.4647754235e+01   5.4188740283e+01     0.381879    0.2633176 -78.09  0.001374669    2.250    0.556
       130 -10.3238     88.1625     55.6381   3.5162007035e+01   5.5335300909e+01     0.577181    0.2101786 -34.68  0.001805255    3.447    0.710
       131 -11.1538     92.6678     62.5869   3.6237519980e+01   5.2984111411e+01    0.4074712    0.3213978  67.32 0.0006297458    1.433    0.302
       132 -10.5510     58.0655     77.5072   5.4454221352e+01   5.6134785916e+01     0.291851    0.2128387 -55.94 0.0005566531    1.296    0.228
       133 -10.8593     13.7802     56.7842   6.9804967276e+01   6.6158593782e+01    0.4442687    0.1953014 -41.30  0.001177957    2.148    0.534
       134 -12.3434      6.0186     61.9320   7.5118030211e+01   6.5374243231e+01    0.6191152    0.4214991  -9.06   0.00314454    1.672    0.402
       135 -10.7145      9.5036     56.5151   7.2072751533e+01   6.6499130143e+01    0.2702089    0.2425793  48.98  0.001471252    1.310    0.236
       136 -10.1539    201.9140     64.9336   1.3509314010e+01   2.6370745512e+01    0.2176307    0.1774644 -62.47 0.0004434093    1.109    0.098
       137 -10.2547    158.9840     62.9795   1.9669033199e+01   3.6902270852e+01     0.320037    0.2041361  52.95 0.0004494196    1.641    0.390
       138  -9.7647    105.2233     63.4550   3.2579875220e+01   4.9986929211e+01     0.284093    0.1476962  47.87  0.001119535    1.926    0.481
       139  -9.7687     84.6856     62.0551   3.8799550483e+01   5.4793192852e+01    0.3247814    0.2401414 -50.08  0.001034983    1.365    0.267
       140  -9.7771     57.9901     62.1193   4.9451901279e+01   5.9749591733e+01    0.2727509    0.2239089 -69.81  0.001431987    1.378    0.275
       141 -10.0041     51.1217     56.6300   5.0571039048e+01   6.2046779243e+01    0.3566139    0.2234881 -36.22  0.001681945    1.641    0.391
       142 -11.7819     46.4293     59.3013   5.3745053921e+01   6.2135928692e+01    0.7764955    0.3628029  46.29  0.003093454    2.643    0.622
       143 -10.9285     43.0000     61.4240   5.6109879042e+01   6.2115430184e+01    0.3774679    0.2006962 -59.96   0.00165786    1.889    0.471
       144 -11.0540     40.7215     57.0140   5.5725300472e+01   6.3426356119e+01    0.3513903    0.2351624  42.54  0.001516321    1.677    0.404
       145  -9.2223     65.2629     61.3148   4.6047057006e+01   5.8694833724e+01    0.3324121    0.1881615 -57.29  0.001403175    1.960    0.490
       146  -9.5619     66.2786     56.3039   4.3740671968e+01   5.9581227260e+01    0.3846943    0.2045164 -27.85 0.0009936285    2.747    0.636
       147  -8.9362    150.9993     61.0337   2.0592656304e+01   3.9224719063e+01    0.1813736    0.1670064 -66.81 0.0004121268    1.019    0.019
       148 -10.0523    113.7520     60.7302   2.9167338749e+01   4.8498591639e+01    0.2991831     0.266461   4.36 0.0008602067    1.332    0.249
       149 -10.8926    118.5089     56.0111   2.6228831249e+01   4.8204641346e+01    0.8481936    0.4851844 -73.10  0.002839891    3.349    0.701
       150  -9.8656    124.7488     56.4764   2.4828806217e+01   4.6583845565e+01    0.2723506    0.2401123 -36.03 0.0007406623    1.180    0.153
       151  -9.3278     33.9071     57.0000   5.9165141488e+01   6.4260983211e+01    0.2746527   0.09665719  32.38 0.0008841523    2.901    0.655
       152 -10.6385     31.0031     53.4961   5.9515920868e+01   6.5392580046e+01    0.4383499    0.2283637  21.34  0.001459059    2.145    0.534
       153 -10.1045     27.6753     59.6846   6.3220317663e+01   6.4295696912e+01    0.7409505    0.3453442  34.25  0.003302248    2.302    0.566
       154 -10.8190     25.5432     55.6272   6.3116257301e+01   6.5461680654e+01    0.4407629    0.2770016 -28.45  0.001031553    1.715    0.417
       155  -9.2871    135.8908     58.6527   2.2977889182e+01   4.3424015530e+01      0.25601     0.211693 -21.11 0.0007124657    1.406    0.289
       156 -11.8807     76.3264     53.0137   3.8429253462e+01   5.8320856652e+01    0.4876405    0.4078654 -16.66 0.0008831269    1.310    0.237
       157 -11.4857     72.8451     47.5221   3.7542670202e+01   6.0073292558e+01    0.9715782    0.3544878 -51.63   0.00166736    3.781    0.736
       158  -9.4464     80.2757     58.0820   3.8915310676e+01   5.6511830423e+01    0.2395585    0.1132943 -26.65 0.0007006626    4.102    0.756
       159 -10.1877    156.7706     54.8717   1.7597913292e+01   3.8803166124e+01    0.5191332     0.319567 -73.86  0.002165701    2.076    0.518
       160 -10.8826    154.9478     49.1441   1.6135343403e+01   4.0169859256e+01    0.3013267    0.2153216 -25.34   0.00043596    1.598    0.374
       161  -8.8460    219.9785     55.7438   9.0812046016e+00   2.3818383138e+01     0.146262    0.1119486  77.48 0.0001811095    1.414    0.293
       162  -9.8041    100.8412     55.1422   3.0866294277e+01   5.2583374577e+01    0.2362134    0.2040252 -81.32 0.0007945697    1.295    0.228
       163 -10.9944     60.8804     48.8126   4.3067432563e+01   6.2080214149e+01    0.8760185    0.3219739 -42.55   0.00320095    2.686    0.628
       164  -9.7598     55.4904     50.4768   4.6171306615e+01   6.2666298899e+01    0.2338227    0.2062992  16.26  3.90146e-05    1.155    0.134
       165  -9.8520     52.0200     48.4576   4.6975303891e+01   6.3647410777e+01    0.2366401     0.222015 -28.24 0.0007327737    1.036    0.035
       166 -10.7294     46.8887     48.7096   4.9562619009e+01   6.4387579113e+01    0.5302358    0.3388996 -16.08      0.00241    2.133    0.531
       167 -11.8112     43.0449     44.2255   4.9673966273e+01   6.5882750283e+01    0.6307306    0.4107055  34.75  0.000820939    1.598    0.374
       168  -8.6420     93.5327     52.4805   3.2145823307e+01   5.4743795233e+01    0.1472404    0.1437706  19.26 0.0008090638    1.044    0.042
       169  -9.9378     10.8735     51.6435   7.0089563800e+01   6.7575862358e+01     0.221691    0.1649948 -70.96 0.0003209526    1.299    0.230
       170 -10.0086    243.9331     51.2927   5.7631427582e+00   1.9596280826e+01    0.1700007     0.140539 -66.14 0.0005620604    1.139    0.122
       171  -8.9742    239.8445     51.1366   6.0841876418e+00   2.0412713620e+01    0.2025936    0.1502282  65.88 0.0005672745    1.601    0.375
       172  -9.6426    145.0537     50.3598   1.8343729575e+01   4.2490020235e+01    0.2390156    0.2044871 -22.29  0.000417303    1.338    0.253
       173  -9.9444    122.5082     44.5302   2.1109898635e+01   4.9129728061e+01    0.2679227    0.2436204  70.54 0.0005971674    1.059    0.056
       174  -9.4678    114.0103     37.5008   2.0488846471e+01   5.2330636072e+01    0.2966234    0.1372209  58.58 0.0003323832    2.046    0.511
       175  -8.6473    172.5034    242.5244   5.5303235585e+01   5.6523365870e-01    0.1179625   0.09486622  18.82 -1.187955e-05    1.028    0.027
       176 -12.0607    117.1856     45.3077   2.2671306967e+01   5.0338218086e+01    0.8763669    0.6449504   7.07  0.004002988    1.957    0.489
       177 -10.7760    120.1634     40.7996   2.0280344762e+01   5.0294891375e+01    0.2637578    0.1908338  52.69 0.0004130715    1.354    0.262
       178 -11.6100    119.0358     37.0152   1.9120175817e+01   5.1140075596e+01    0.5124857    0.3796532 -60.93  0.001084551    1.472    0.321
       179  -9.4700    189.0790     49.6880   1.1157071805e+01   3.1671996806e+01    0.1898162    0.1668691 -76.62  0.000346682    1.066    0.062
       180 -10.3467     96.8061     65.8540   3.6052497245e+01   5.1411674021e+01    0.3733632    0.2892788 -22.70 0.0002791192    1.522    0.343
       181  -9.8324     82.7030     47.2259   3.3724795714e+01   5.8085675842e+01    0.3388036    0.2054809 -25.74  0.001455501    2.005    0.501
       182  -9.3575      1.8938     48.8219   7.4582085497e+01   6.8730118956e+01    0.1622302    0.1433378  63.12 0.0009369674    1.350    0.259
       183 -10.0264     13.4034     46.2007   6.7073258896e+01   6.8669129242e+01    0.3254395    0.1669582 -33.81  0.001196155    1.964    0.491
       184 -10.2526     17.9417     40.7379   6.2526775225e+01   6.9535165292e+01    0.3232653    0.1669006 -49.38 0.0007624978    1.638    0.389
       185 -11.0668     20.9277     45.9683   6.2568714376e+01   6.8108996164e+01    0.4089758    0.3706282 -48.27  0.001356716    1.088    0.081
       186 -10.6154     31.2680     44.5621   5.6146796172e+01   6.7347728158e+01    0.4151393    0.3093635  12.31  0.001706604    1.430    0.301
       187 -10.7226     26.1539     42.9456   5.8441493902e+01   6.8264688864e+01    0.4763117    0.3321024 -74.58   0.00211766    1.838    0.456
       188 -10.2870     23.3290     37.4394   5.7972418999e+01   6.9735584126e+01     0.779759    0.2241332  38.95  0.002721189    4.275    0.766
       189 -10.0160    146.0347     44.6978   1.6301504761e+01   4.3117619564e+01    0.4843716    0.2056049 -48.88  0.001780142    2.486    0.598
       190  -8.8574    136.6499     46.2687   1.8644911042e+01   4.5272975587e+01    0.1549074     0.109865 -76.24 0.0003964272    1.623    0.384
       191 -10.0555    199.9834     45.0493   8.5980176379e+00   2.9790980321e+01    0.3193728    0.1940766  85.32  0.001390419    1.785    0.440
       192  -9.6285    140.1583     43.7805   1.7102489866e+01   4.4758300247e+01     0.230596    0.1903642 -82.62 0.0006699197    1.213    0.176
       193 -10.2779    156.2179     42.4497   1.3812071643e+01   4.0853896576e+01    0.2992042    0.2647969 -79.34  0.001067621    1.038    0.037
       194 -10.7716     98.2117     41.5256   2.6328755016e+01   5.5556346497e+01    0.3327633    0.2546302  74.16    0.0003883    1.470    0.320
       195  -9.5671     91.3423     41.7809   2.8545962330e+01   5.7111601597e+01    0.2747518    0.1987544  83.76  0.001266683    1.886    0.470
       196 -10.0443     56.8150     41.9672   4.1974710169e+01   6.4129176840e+01    0.2876206    0.1931623  44.11  0.001196887    1.555    0.357
       197 -10.4027    131.7058    240.9506   6.3200754646e+01   6.3222126813e+00    0.1653432    0.1466838  30.89 0.0008462038    1.088    0.081
       198 -10.4405      9.5232     30.4764   6.4185335518e+01   7.2414247346e+01    0.5418876    0.3307485  -4.53  0.003003532    1.790    0.441
       199 -10.1440      2.7681     39.1864   7.1585270374e+01   7.0914388256e+01    0.3338273    0.1586046  35.81  0.001630331    2.537    0.606
       200 -10.6592      4.4356     35.8209   6.9492605750e+01   7.1580027033e+01    0.3602676    0.3356797 -24.56  0.002419599    1.146    0.127
       201 -10.9936     60.8400     36.3832   3.7627158819e+01   6.4420059019e+01    0.4702988     0.321675 -11.66  0.001164237    1.870    0.465
       202 -10.2739     68.5002     32.5424   3.2599155877e+01   6.3568440531e+01    0.5277097    0.3760753  65.36  0.002640845    1.772    0.436
       203 -10.5169     76.1822    240.1129   7.4766607760e+01   1.3952373652e+01    0.2253638    0.1640991 -53.98  0.001421199    1.738    0.425
       204 -12.2333     58.1530     29.8915   3.5699392871e+01   6.6024034406e+01    0.3909801    0.3057594  -8.88  0.001122322    1.375    0.273
       205 -11.6361     49.1902     30.3108   4.0156538150e+01   6.7558172242e+01    0.6897274    0.3561629  38.24  0.002208077    1.936    0.484
       206 -10.8482    175.4601     34.3029   8.5716573267e+00   3.7150621731e+01    0.5691831    0.2602139 -59.04   0.00186674    2.457    0.593
       207 -10.6914    176.7393     29.4141   6.9994167256e+00   3.7472457311e+01    0.3960537    0.2276435  51.81  0.001174501    1.998    0.499
       208 -10.5610    153.0535     35.9631   1.2253723855e+01   4.2579825599e+01    0.2883706    0.1950376  61.26 0.0003513132    1.450    0.310
       209 -10.1105     97.9664     28.2476   2.0837545609e+01   5.7585645427e+01    0.5628058    0.3137107 -51.95  0.001502655    2.195    0.544
       210 -10.4154    147.3106    239.0667   5.9795017609e+01   4.4766791186e+00    0.2205924    0.1489129  47.80  0.001316853    1.572    0.364
       211  -8.8511     15.6704    233.6623   8.7038341498e+01   2.2175949946e+01    0.1006464   0.08752608 -44.04 0.0007051952    1.734    0.423
       212 -12.5437    104.7400     32.6459   2.0882737500e+01   5.5327431636e+01    0.7204995    0.3892017  42.21  0.003058207    2.012    0.503
       213 -12.2213    113.7629     24.8727   1.5579517402e+01   5.4110641796e+01    0.8129094    0.3506372  60.46  0.002358886    2.098    0.523
       214  -9.8569    240.5501     32.3041   1.8385947637e+00   2.2764334821e+01    0.1941857    0.1423716  53.33  0.001194576    1.851    0.460
       215  -9.8743    216.9943     32.0413   3.6343839592e+00   2.7719739746e+01    0.2000176     0.158563 -59.03 0.0003158027    1.011    0.011
       216 -10.6039    188.5687     27.7066   5.2080710935e+00   3.4805821892e+01     0.422017    0.3567295  10.38  0.001630587    1.677    0.404
       217 -10.2962    183.1006     31.4174   6.8314297832e+00   3.5654014016e+01    0.3671449    0.1909987 -43.33  0.001085315    1.701    0.412
       218 -10.9482    182.9938     25.4117   5.1594249907e+00   3.6439733421e+01    0.3636735    0.2634701 -77.07 0.0009913155    1.272    0.214
       219 -10.8135     68.0675    240.4336   7.6506831800e+01   1.4920587044e+01    0.2264678    0.1837783 -28.95  0.001460897    1.826    0.452
       220  -9.8083     68.3925    226.1954   7.5290775246e+01   1.7659788441e+01    0.1718589    0.1098095  85.24  0.000955209    1.729    0.422
       221  -9.4655    164.4846    211.9113   5.2466599998e+01   6.4905880013e+00    0.1761765    0.1248615 -42.05 0.0006205874    1.530    0.346
       222 -10.3758      9.0113    211.2983   8.7558096818e+01   2.7485052300e+01    0.1771417    0.1320032  55.97  0.001177002    1.089    0.081
       223  -8.9498    171.5051    208.5365   5.0504766956e+01   6.0140855006e+00    0.1289601    0.1112869  11.14 0.0006188283    1.017    0.016
       224  -9.7470     39.8443    207.0371   8.0309804905e+01   2.5238508295e+01    0.2310139    0.1113971  66.02  0.001089759    2.030    0.507
       225  -9.8813     13.9718     22.7131   5.7710750418e+01   7.3631208865e+01    0.2092767    0.1864178 -26.91 0.0003831797    1.098    0.090
       226 -11.0244      4.9611    201.6752   8.8077086120e+01   2.9979460376e+01    0.7180036   0.06935921 -65.53  0.001979518    7.720    0.870
       227  -9.4964     78.7789    203.8281   7.0730735387e+01   2.0992465907e+01     0.195258    0.1372931  58.45 0.0007388269    1.319    0.242
       228  -9.1880    232.7484    190.9895   3.6259836201e+01   3.6472067379e-02    0.1583147   0.08790382 -33.34 0.0008884084    1.580    0.367
       229  -9.4973     15.5074    189.9576   8.5049331578e+01   3.1716804049e+01    0.1945503     0.108545 -88.60  0.001030851    1.600    0.375
       230 -10.1216    135.3629     30.5914   1.3438647526e+01   4.7852376715e+01    0.3660659    0.2391421  53.07  0.001762254    1.532    0.347
       231 -12.5321    125.6233     27.5986   1.4182967199e+01   5.0745040065e+01     0.486338    0.3591689 -75.39 0.0008311435    1.474    0.322
       232  -9.0480     86.3175     30.3037   2.5178960940e+01   6.0043333891e+01    0.1453274    0.1052532  23.72 0.0007025946    1.625    0.385
       233  -9.7056    197.1370     28.8386   4.6476120285e+00   3.2630454539e+01    0.1663127    0.1601418  68.73 0.0005384308    1.291    0.225
       234 -10.5889    230.1473     27.1554   1.4371182193e+00   2.5527261788e+01    0.2609988    0.1900591  70.60 0.0009669727    1.548    0.354
       235 -10.4794    201.1981     24.6018   3.1630702956e+00   3.2213058680e+01    0.2119219    0.1399696  46.85  0.001003388    2.032    0.508
       236 -10.0718    150.5023     27.5133   9.8992129891e+00   4.4345741343e+01    0.3170258    0.1921236  35.35  0.001341917    2.340    0.573
       237 -10.6928    144.3157     25.5558   1.0190333351e+01   4.6182079018e+01    0.5160147    0.2747568 -88.10  0.002096715    2.332    0.571
       238 -10.5498    147.7289     22.4513   8.6337315659e+00   4.5676834498e+01     0.373623    0.1174209  65.09  0.001331229    2.792    0.642
       239  -9.5644    206.5019     25.9754   3.0442490438e+00   3.0827221621e+01    0.1937931    0.1155749 -36.58 0.0004703551    1.532    0.347
       240  -9.8161    155.5360     24.5224   8.2095487310e+00   4.3424322858e+01    0.2564529    0.1991998 -79.39 0.0008215439    1.212    0.175
       241  -9.9350    155.3185     21.3208   7.2136770775e+00   4.3861725099e+01    0.3220086    0.1994479  45.18  0.001125453    1.929    0.482
       242 -10.8521    135.5277     22.1405   1.0413083701e+01   4.8862240800e+01    0.6346689     0.309599  70.90  0.002702457    1.957    0.489
       243  -9.4165    169.8737     23.4315   6.0532878249e+00   3.9923740253e+01    0.3396604    0.1197234  68.36  0.001298975    2.624    0.619
       244  -8.7036     85.9745     23.7320   2.2276825454e+01   6.1029083166e+01    0.1636933    0.1148032  54.64 0.0002018815    1.340    0.254
       245  -8.9692    223.6603     22.2707   7.7913190369e-01   2.7493266227e+01    0.1350079   0.07382989 -62.32 0.0002798584    1.605    0.377
       246 -11.0008    179.1098     20.7477   4.2510303556e+00   3.7951902478e+01    0.5690314    0.2409186  51.70  0.002297143    2.847    0.649
       247 -12.3548      4.9742    183.7677   8.7309963490e+01   3.4119270453e+01    0.6388485    0.4209161  84.62  0.002803419    1.265    0.210
       248 -10.0529    216.4812     20.0916   7.8928338212e-01   2.9309890783e+01    0.2257171    0.1581229 -75.81 0.0004056421    1.270    0.212
       249  -9.3679     28.1466    175.8445   8.0912786329e+01   3.3892916514e+01    0.1749431    0.1514253 -65.58 0.0005429319    1.309    0.236
       250  -9.6607     74.7859     19.5016   2.3858667270e+01   6.4114371466e+01    0.2474302    0.1917078  15.07 0.0008292171    1.419    0.295
       251  -9.7620     46.4691     20.0144   3.6088597965e+01   6.9701700468e+01    0.2406578    0.1848016  57.97  0.001359054    1.659    0.397
       252 -11.3165    158.5602     29.3264   9.3150504608e+00   4.2052924138e+01    0.5557297    0.2727527  75.79   0.00221282    2.078    0.519
       253  -9.9958     16.0333    174.1874   8.3985884018e+01   3.5477515332e+01    0.3237201    0.1393652  76.56  0.001393568    2.295    0.564
       254  -8.7760    139.3285    183.3086   5.3281876900e+01   1.5924664527e+01    0.1431342    0.1090522  -5.13  0.000254078    1.660    0.398
       255  -9.4353    190.4852    170.5409   3.9959942485e+01   9.6672478024e+00    0.1357183    0.1215618  -9.56 0.0001870088    1.012    0.012
       256 -10.0911    211.0868     16.2705   2.6148859134e-01   3.0952998989e+01    0.2228257    0.1506181 -48.14 0.0002483154    1.232    0.188
       257  -9.1939    199.0293     17.4909   1.5133555374e+00   3.3563874596e+01      0.18439    0.1180769  79.86 0.0004765644    1.506    0.336
       258 -11.5893      8.9613    166.8665   8.5409850963e+01   3.7911360891e+01    0.7119564    0.1912198  33.44  0.002858555    3.001    0.667
       259 -12.6409     13.1328    159.8858   8.3826945083e+01   3.9326219399e+01    0.7219537    0.3805914 -64.47  0.002217865    1.818    0.450
       260 -10.6848     18.4644    165.0046   8.2710979087e+01   3.7555446661e+01    0.3696287    0.2240979 -56.57  0.001906586    1.803    0.445
       261 -10.3082    237.8533     16.3975   3.5851235948e+02   2.5234520356e+01    0.2414043    0.1373049  85.43 0.0009517261    1.782    0.439
       262 -11.2586    186.5149     15.1352   1.9682905921e+00   3.6796056146e+01    0.2439727    0.1986911 -74.73 0.0003508044    1.044    0.043
       263 -10.6831    205.1449    163.3694   3.5797458723e+01   8.4989860852e+00    0.2775783     0.221704  -7.59 0.0007776725    1.247    0.198
       264 -10.1561     29.1105    160.8297   7.9394085383e+01   3.7598416247e+01    0.2269316    0.1618483  67.06 0.0008474811    1.251    0.201
       265 -10.1965     31.4831    157.1062   7.8364079310e+01   3.8320627545e+01    0.3624535     0.166368  81.55  0.001438898    2.456    0.593
       266  -9.0813    104.4886    155.5105   5.7089386213e+01   2.8335881928e+01    0.1528542    0.1426744  72.20 0.0008103046    1.030    0.029
       267 -10.1076     49.9285    146.0266   7.1542782738e+01   3.9145913923e+01     1.109768    0.2373436 -53.35   0.00306984    4.675    0.786
       268  -9.4380    114.4060     12.8147   1.0600122516e+01   5.5315776019e+01     0.184098    0.1343534  -0.84  0.000947052    1.719    0.418
       269 -10.5377     46.5185    145.4942   7.2525836577e+01   3.9706002590e+01     1.057202    0.2024526 -59.60  0.003118523    3.970    0.748
       270 -12.8228     22.9069    148.6572   8.0100437456e+01   4.1374656916e+01    0.5875663    0.3253964 -44.60  0.001607067    2.257    0.557
       271 -10.6963     16.7310    147.9827   8.1891513689e+01   4.2099432035e+01    0.3135823    0.2065791 -79.33 0.0006133751    1.319    0.242
       272 -10.8356      4.3528    153.6011   8.5891993560e+01   4.1624504148e+01    0.2780011    0.1179847  41.04  0.001194873    2.127    0.530
       273  -9.2058     61.4679    152.3316   6.8924030627e+01   3.5961924863e+01    0.2576692     0.133662  32.26  0.001082447    1.963    0.491
       274  -8.9083     55.6639    152.7123   7.0709526387e+01   3.6641020260e+01     0.141554    0.1112239 -33.35 0.0007018266    1.631    0.387
       275 -10.6835     10.2336    126.4677   8.2073137805e+01   4.8296618824e+01    0.4598712    0.2461571 -88.35  0.001907587    1.664    0.399
       276 -12.0115      4.2134    142.7026   8.5245032201e+01   4.4443068538e+01    0.7920752    0.3731444  55.47  0.002847403    1.990    0.497
       277 -10.2248      3.0579    147.4877   8.5892962486e+01   4.3285451744e+01    0.2141166    0.1529747 -88.00 0.0009297126    1.162    0.140
       278  -8.5621    104.2541    147.2801   5.5589964385e+01   3.0411820139e+01    0.1435363    0.1200309 -24.02 0.0006844994    1.467    0.318
       279 -10.5804     33.0576    144.4671   7.6574788225e+01   4.1490100201e+01    0.2772827    0.2407176  70.16 0.0007480417    1.071    0.067
       280 -10.5793     40.6370    138.7571   7.3491597944e+01   4.2198724214e+01    0.4365837    0.2514654 -73.81  0.001598692    1.586    0.369
       281 -11.2567     80.3971    138.7733   6.0944445750e+01   3.6694059707e+01    0.2852905    0.2438567  57.58 0.0003254827    1.147    0.128
       282 -11.7450     22.4529    136.2837   7.9036425732e+01   4.4699498509e+01    0.6663027     0.390565  51.17  0.002177341    1.669    0.401
       283 -11.0498     30.0581    132.6792   7.6159582749e+01   4.4955187334e+01    0.4034857    0.3457302  -8.92  0.001299574    1.487    0.327
       284  -9.4570     32.0668    137.5237   7.6087045503e+01   4.3450303899e+01    0.1950774     0.139148  30.09 0.0004490041    1.524    0.344
       285  -8.8936     26.5216    127.4793   7.6708578372e+01   4.6696163126e+01    0.1427006    0.1230195 -88.21 9.568544e-05    1.001    0.001
       286 -11.6785    164.3327     27.6624   8.0172397609e+00   4.0798002524e+01    0.4419858    0.2775586 -59.24  0.000536242    1.554    0.356
       287  -9.4512     22.9580    126.7615   7.7828948038e+01   4.7211331672e+01    0.1853848    0.1671437  85.91 0.0003282806    1.063    0.060
       288  -9.7036     33.1423    125.9090   7.4253495884e+01   4.6476727517e+01    0.2297002    0.1740287  76.18 0.0009730315    1.274    0.215
       289  -9.6524      2.1680    125.7211   8.4679536417e+01   4.9022087751e+01    0.2508284    0.1521957  84.81  0.001306523    1.431    0.301
       290 -11.1110    104.4424    122.5332   5.0203807192e+01   3.6576166664e+01    0.3973692    0.3492213  62.65  0.001011036    1.153    0.133
       291  -9.2132     67.5416    123.5327   6.2127074677e+01   4.2758118964e+01    0.1545691    0.1408561  89.74 1.340135e-05    1.034    0.033
       292  -8.9443     18.9370    123.7602   7.8857657877e+01   4.8359391865e+01    0.1568578    0.1197132  21.41 0.0005144666    1.530    0.346
       293 -11.5323    244.5302    118.6465   2.0338251096e+01   9.3895269686e+00    0.5345734    0.1823065 -40.12  0.002245929    2.330    0.571
       294  -9.8742     55.9631    121.9043   6.5748661212e+01   4.4858041172e+01    0.2633463     0.198808  47.78 0.0007964009    1.350    0.259
       295  -9.1125     50.1685    122.2489   6.7812000581e+01   4.5524672183e+01    0.2579706    0.1409167 -32.28 0.0009564852    2.828    0.646
       296 -11.3909     12.2596    135.8842   8.2247754283e+01   4.5647669769e+01      0.71003    0.3391327 -57.10  0.003240886    2.032    0.508
       297  -9.5692     44.5486    120.0430   6.9399779322e+01   4.6812415019e+01    0.2405151     0.188269  68.97 0.0005123364    1.296    0.228
