#   1 NUMBER                 Running object number                                     
#   2 MAG_AUTO               Kron-like elliptical aperture magnitude                    [mag]
#   3 X_IMAGE                Object position along x                                    [pixel]
#   4 Y_IMAGE                Object position along y                                    [pixel]
#   5 X_WORLD                Barycenter position along world x axis                     [deg]
#   6 Y_WORLD                Barycenter position along world y axis                     [deg]
#   7 A_WORLD                Profile RMS along major axis (world units)                 [deg]
#   8 B_WORLD                Profile RMS along minor axis (world units)                 [deg]
#   9 THETA_WORLD            Position angle (CCW/world-x)                               [deg]
#  10 FWHM_WORLD             FWHM assuming a gaussian core                              [deg]
#  11 ELONGATION             A_IMAGE/B_IMAGE                                           
#  12 ELLIPTICITY            1 - B_IMAGE/A_IMAGE                                       
         1 -12.7883      2.0102     81.7369   2.9223291130e+02   6.8248368838e+00     0.161213          nan -62.16  0.004495528   20.878    0.952
         2 -14.0830      6.0860     15.1809   2.9178706874e+02   7.5740441915e+00    0.1757001    0.0467677 -55.88   0.01237048    3.226    0.690
         3 -14.0108    189.5818     22.3327   2.8968871054e+02   6.4288021568e+00    0.1051532   0.04920327 -48.65  0.007925796    2.114    0.527
         4 -13.7393    195.9038     17.2662   2.8958460100e+02   6.4507469872e+00   0.08136411   0.04800337 -68.23  0.005809608    1.793    0.442
         5 -14.0268    202.3040      9.6469   2.8946421890e+02   6.5017931596e+00   0.08140643   0.05094454   0.53  0.001368858    2.123    0.529
         6  -9.2470    102.0045     88.0210   2.9110380129e+02   6.1747308846e+00  0.009587403  0.007537258  63.73            0    1.443    0.307
         7 -10.6007    205.1334    249.8351   2.9087177794e+02   3.6975927462e+00   0.01171925  0.008831319  38.39 0.0007276954    1.334    0.250
         8  -9.3629    184.0076    250.2280   2.9111955990e+02   3.8153865448e+00   0.01028548  0.006657309 -41.97 0.0005849428    1.610    0.379
         9 -11.2632    145.8383    240.7066   2.9150639487e+02   4.1469298372e+00   0.01885579   0.01168869  38.86 0.0006582668    1.615    0.381
        10 -11.2831    142.8891    248.0731   2.9158463369e+02   4.0783869481e+00   0.02947862   0.01612237 -85.17  0.002030866    2.774    0.640
        11 -11.5476    150.3512    248.1729   2.9149847285e+02   4.0340622559e+00   0.02657324   0.01485723  33.00  0.002384704    1.748    0.428
        12 -10.5395    152.5457    244.0457   2.9144833491e+02   4.0693228660e+00   0.01379168   0.01006413  88.60  0.001211863    1.660    0.398
        13 -11.0462    133.9756    249.4660   2.9169657951e+02   4.1137475603e+00   0.02446765   0.01242256  43.29    0.0022003    2.066    0.516
        14 -12.3808    112.4869    248.3699   2.9193993859e+02   4.2506937236e+00   0.06966123   0.02289392  30.26  0.005273688    2.843    0.648
        15 -11.7226     96.4097    239.2267   2.9207247198e+02   4.4498453221e+00     0.028774   0.01997238 -55.35  0.002144112    1.401    0.286
        16 -10.7053    122.6947    250.0657   2.9183133152e+02   4.1719936117e+00   0.02295368   0.01501684  15.91  0.002328203    1.673    0.402
        17 -11.7771    100.1522    247.5764   2.9207867845e+02   4.3311715133e+00   0.03818381   0.02098812  38.25  0.003640395    1.806    0.446
        18 -10.6505    101.5597    242.3720   2.9203129950e+02   4.3835380438e+00   0.02051613   0.01039101 -75.74  0.001706762    2.546    0.607
        19 -10.9032    108.2613    241.8603   2.9195029466e+02   4.3507719813e+00   0.02536906    0.0129241 -62.69  0.002156889    1.948    0.487
        20 -10.2655    104.4945    238.0077   2.9197115168e+02   4.4173169866e+00   0.01270375   0.01091267  -6.01 0.0008160113    1.250    0.200
        21 -10.7795    121.4880    244.8466   2.9181425316e+02   4.2396268262e+00    0.0254513    0.0111868  50.40  0.001952889    2.983    0.665
        22 -12.4054    126.2235    240.9857   2.9173615786e+02   4.2571236609e+00   0.02622132   0.02139399 -54.22  0.001979691    1.202    0.168
        23 -11.5162     88.2369    249.2003   2.9222695196e+02   4.3810950876e+00   0.04230624   0.02541614 -52.29  0.002140393    1.613    0.380
        24 -10.8375     81.5460    246.8070   2.9229054109e+02   4.4475376473e+00   0.02444101   0.01543239 -81.61  0.002154047    1.957    0.489
        25 -10.1345     83.7910    242.1854   2.9223690367e+02   4.4883071331e+00   0.01921831   0.01259818 -25.58  0.001885764    1.877    0.467
        26 -10.1926     83.2738    238.3782   2.9222024858e+02   4.5355531401e+00   0.01972206  0.008742932  25.06  0.001660867    2.318    0.569
        27 -11.4103     86.4624    237.4222   2.9217745375e+02   4.5282608917e+00   0.02918302   0.01806488  14.86  0.002855699    1.820    0.451
        28 -10.0879     74.6524    250.6049   2.9239334474e+02   4.4431639413e+00   0.01522045  0.008268283  22.60  0.001408771    1.931    0.482
        29 -13.8751     46.0204    246.3244   2.9270101362e+02   4.6580273491e+00   0.06591353    0.0448447  19.37  0.006911778    1.546    0.353
        30 -13.5268     47.5669    228.5249   2.9257713937e+02   4.8560800832e+00    0.0718652   0.03433315  11.50  0.005612294    2.983    0.665
        31 -15.0223     56.8086    217.1211   2.9240167162e+02   4.9353961839e+00     0.156105    0.1325411 -71.00   0.01839954    1.206    0.171
        32 -11.0140    121.6183    232.7576   2.9174065101e+02   4.3793793030e+00   0.01807446   0.01444201 -39.27 0.0009752525    1.281    0.220
        33  -9.7171     92.4836    231.6662   2.9207310065e+02   4.5604084298e+00   0.01729559  0.007065929 -55.65   0.00143644    2.275    0.560
        34 -10.6909     92.9624    226.2639   2.9203533331e+02   4.6204458566e+00   0.02275848   0.01325085  44.33  0.002194721    1.805    0.446
        35  -9.7413     93.6454    217.3412   2.9197419276e+02   4.7202282741e+00   0.01714438   0.01086227 -84.85  0.001626939    2.026    0.506
        36 -12.0966    110.1637    230.0839   2.9185796083e+02   4.4766655835e+00   0.04107639   0.02082749  29.44  0.002692343    1.934    0.483
        37 -11.0398     98.4716    231.5628   2.9200281110e+02   4.5270261071e+00   0.02092949   0.01622749 -49.31  0.001223006    1.271    0.213
        38 -11.4311     98.9192    223.1184   2.9194726303e+02   4.6226040468e+00    0.0212344    0.0167656  34.42 0.0002889639    1.265    0.210
        39 -10.6069    110.4907    222.3589   2.9180808638e+02   4.5645686227e+00   0.01743538   0.01337257 -47.84  0.001020609    1.291    0.225
        40 -11.4678    105.1002    219.6049   2.9185438557e+02   4.6277339258e+00   0.02210954   0.01168848 -62.95  0.000512207    1.883    0.469
        41  -9.3170    162.2857    232.6766   2.9126723054e+02   4.1450552883e+00   0.00679163  0.005028618  65.69 0.0003244069    1.600    0.375
        42 -10.5983    156.7235    231.5604   2.9132523627e+02   4.1902208125e+00   0.01192224   0.01133495 -50.86 0.0002945698    1.039    0.037
        43 -12.6631    142.3005    229.4658   2.9148045219e+02   4.2980229947e+00   0.06458455   0.02244439 -61.41  0.004937445    2.767    0.639
        44 -10.0321    141.5524    212.8654   2.9139004246e+02   4.4952674535e+00   0.01997185    0.0146831  58.86  0.001996178    1.553    0.356
        45 -10.5276    137.5752    214.7975   2.9144784736e+02   4.4958280781e+00   0.01925975   0.01277431  81.33  0.001532239    2.044    0.511
        46 -11.4650    141.9980    221.9608   2.9143916992e+02   4.3869906576e+00   0.01053206  0.009679509  33.53 0.0003420511    1.095    0.087
        47 -11.4656    142.3112    218.6963   2.9141603498e+02   4.4231153784e+00   0.01447515   0.01214736  52.25 0.0003022467    1.256    0.204
        48 -10.2614    180.9861    229.6922   2.9103201417e+02   4.0714430878e+00   0.01276458   0.01154662  67.70 0.0008963924    1.179    0.152
        49  -9.2433    184.6432    228.6805   2.9098346210e+02   4.0620118575e+00   0.00953702  0.006887131  -1.24 0.0006668858    1.644    0.392
        50 -10.5688     85.0320    229.9301   2.9214946591e+02   4.6236182887e+00   0.02057969   0.01462643  -2.34   0.00126597    1.696    0.410
        51  -9.8079     71.8806    230.0806   2.9230341155e+02   4.6977738503e+00   0.01903062   0.01190395  87.65  0.001744583    2.243    0.554
        52 -10.3356     78.7369    229.4851   2.9222007196e+02   4.6651300522e+00   0.01629377   0.01091314  -7.89  0.001595577    1.926    0.481
        53 -10.4667    190.9056    228.1693   2.9090762301e+02   4.0316690286e+00   0.01051612  0.009340345 -65.02 0.0002909391    1.128    0.114
        54 -11.3113    223.4751    244.6684   2.9062787610e+02   3.6513050125e+00   0.01434648  0.009960805  26.15  0.001520469    1.450    0.310
        55 -10.8175    165.3094    227.3246   2.9120011205e+02   4.1897345423e+00   0.01892825    0.0119297 -88.74  0.001359849    2.142    0.533
        56 -11.1976    136.2909    227.7732   2.9154024518e+02   4.3524591206e+00   0.01424883   0.01137823  49.50 0.0007709723    1.317    0.241
        57 -10.7140    132.6577    224.2635   2.9156155926e+02   4.4142646062e+00   0.01290858   0.01136398 -26.65 0.0007451877    1.180    0.153
        58 -10.7222    117.1142    224.5257   2.9174394629e+02   4.5010980007e+00   0.01674035   0.01247861   4.92  0.000658454    1.515    0.340
        59  -8.8661    220.1673    223.4167   2.9053921256e+02   3.9172569389e+00  0.008657853  0.005987641  40.44 0.0002807086    1.463    0.317
        60  -9.3567    155.7726    223.5715   2.9128858893e+02   4.2885533619e+00  0.009032757  0.005947181  40.09 0.0002871223    1.533    0.348
        61 -10.5032    150.0477    222.3954   2.9134814122e+02   4.3353571963e+00   0.01203132  0.009011134 -53.07 0.0003094935    1.305    0.234
        62  -9.8077    149.5482    218.5447   2.9133095541e+02   4.3829940857e+00   0.01325554   0.01046245 -66.89 0.0001037441    1.284    0.221
        63 -10.4538     89.1716    219.2514   2.9203764838e+02   4.7238608419e+00   0.02257009   0.01002468 -46.59  0.001879546    2.305    0.566
        64 -10.7370     88.3051    213.0596   2.9201081904e+02   4.8008467951e+00   0.01486043   0.01212664 -63.75 0.0003916079    1.224    0.183
        65  -9.7116    164.2084    220.8677   2.9117434357e+02   4.2711310568e+00   0.01553085  0.007331752 -45.80  0.001335615    2.188    0.543
        66 -11.0050    245.9854    218.5653   2.9021034540e+02   3.8238290080e+00    0.0180489  0.009302758  10.49  0.001484861    2.651    0.623
        67 -10.1838    177.5042    219.4873   2.9101150864e+02   4.2101650438e+00   0.01154563   0.00869976 -50.78 0.0006502909    1.303    0.232
        68  -9.5989    134.1481    218.1450   2.9150770168e+02   4.4767524045e+00   0.01436062  0.008374577  61.71  0.001263441    2.366    0.577
        69 -10.1742    233.7597    217.3067   2.9034478011e+02   3.9093698043e+00   0.01495897  0.008276915 -84.89 0.0008052965    2.694    0.629
        70 -10.2517    182.9752    214.0210   2.9091523110e+02   4.2419725013e+00  0.009867255  0.009804026 -69.69 0.0004251594    1.018    0.018
        71 -10.7597    102.0627    212.2522   2.9184587674e+02   4.7307577269e+00   0.02018397   0.01418254  34.66  0.001875622    1.414    0.293
        72 -12.3734    131.9240    211.6227   2.9149463617e+02   4.5654197428e+00   0.02016148   0.01383745 -33.69 0.0004505057    1.619    0.382
        73  -9.6683    152.1225    211.9050   2.9126135345e+02   4.4452491136e+00   0.01023123  0.008862309  64.91 0.0005679026    1.252    0.201
        74 -12.9665     42.2486    237.0645   2.9268984268e+02   4.7874326627e+00   0.03601879   0.02069558  26.41 0.0008733546    1.750    0.429
        75  -9.2114    197.7519    208.0571   2.9070779781e+02   4.2256074122e+00  0.008872954  0.008352503 -54.45 0.0002678054    1.050    0.048
        76 -10.6587    174.7803    206.0898   2.9096309391e+02   4.3815945847e+00   0.01770628   0.01008648 -42.50  0.001182194    1.859    0.462
        77 -11.8152     93.1089    205.1831   2.9190792722e+02   4.8646660493e+00     0.034043   0.01761627  35.26  0.001832765    1.883    0.469
        78  -9.5463    164.2929    206.2975   2.9108629449e+02   4.4399330236e+00   0.01472461  0.009070714  61.71   0.00136359    2.129    0.530
        79 -11.5398    247.5110    205.1919   2.9011256323e+02   3.9702263141e+00   0.02112217   0.01642164  11.20    0.0023572    1.382    0.276
        80  -8.7201    183.3115    206.3279   2.9086532281e+02   4.3293948436e+00  0.007064459  0.004886548 -29.18 0.0002531691    1.665    0.399
        81 -10.0030    125.8646    205.4789   2.9152845606e+02   4.6718776557e+00   0.01100268  0.009226583 -83.52 0.0005045116    1.290    0.225
        82  -8.8573    114.4339    206.5475   2.9166785830e+02   4.7255614019e+00  0.006583193  0.006337726 -33.69 4.258304e-05    1.033    0.032
        83  -9.8028    149.6300    204.3544   2.9124523431e+02   4.5474189692e+00   0.01474647  0.009977062 -32.04  0.001115751    1.678    0.404
        84 -10.1885    103.7310    203.2838   2.9177295013e+02   4.8253681357e+00   0.01401292   0.01073493 -33.33 0.0008499773    1.395    0.283
        85  -9.6906     75.4881    203.7133   2.9210430240e+02   4.9835090236e+00   0.02111467   0.01131592  15.00  0.001648789    2.229    0.551
        86  -9.5443    224.9135    202.5275   2.9035907579e+02   4.1322980677e+00  0.009365052  0.008840965 -58.89 0.0003765441    1.052    0.049
        87 -10.0054    166.9603    203.2421   2.9103700830e+02   4.4599819756e+00  0.009986119  0.008644218 -24.19 0.0002991654    1.216    0.178
        88 -10.0351    169.8256    200.3573   2.9098643763e+02   4.4769001627e+00   0.01163168   0.01050677 -31.47 0.0003463527    1.127    0.113
        89  -9.9443    133.0437    202.9530   2.9142983414e+02   4.6597012784e+00  0.009857974  0.009495661 -53.35 0.0003261525    1.028    0.027
        90 -11.1227    134.1027    197.7922   2.9138668402e+02   4.7135511151e+00   0.01697129   0.01208111 -77.07 0.0002929842    1.560    0.359
        91  -9.1545    108.5491    202.4403   2.9171183451e+02   4.8073239323e+00   0.01153091  0.006551161 -80.17   0.00100803    2.303    0.566
        92 -10.8420    197.2296    200.4634   2.9066844035e+02   4.3168383123e+00   0.02151084   0.01353639  38.76  0.001583535    1.591    0.371
        93  -9.5568    122.8195    200.8419   2.9153620476e+02   4.7433854058e+00  0.009096589  0.007743419  65.10 0.0003948673    1.285    0.222
        94 -13.1212     14.5224    239.0003   2.9302404921e+02   4.9245753444e+00   0.02286037   0.01640519   5.42 0.0009742957    1.601    0.375
        95  -9.3029    115.0091    200.5186   2.9162517405e+02   4.7923118700e+00  0.009549991  0.006432242  29.46 0.0003365451    1.476    0.322
        96 -10.1320    100.6156    198.2526   2.9177918989e+02   4.9018572336e+00   0.01186683    0.0105381 -28.76 0.0002839994    1.160    0.138
        97  -9.9347     86.1658    198.8961   2.9195125486e+02   4.9778586009e+00   0.02267144   0.00884908 -60.45   0.00132059    2.443    0.591
        98 -10.2770     83.3981    193.5950   2.9195185622e+02   5.0554702926e+00   0.02150365   0.01407291   3.82 0.0007494491    1.885    0.470
        99 -15.2496     12.2513    207.4478   2.9286293937e+02   5.3045713852e+00    0.1745498    0.1050992 -60.93   0.01742409    1.628    0.386
       100  -9.7830    192.0163    198.0177   2.9071441277e+02   4.3754727567e+00  0.009577684  0.009440023 -76.43            0    1.028    0.028
       101  -8.6052    149.6970    198.7425   2.9121091904e+02   4.6122432672e+00  0.006599346  0.004967145 -23.40 0.0001607477    1.511    0.338
       102 -11.9391     76.3029    187.9093   2.9200055986e+02   5.1625401863e+00   0.01733029   0.01379273 -24.98 0.0006337642    1.376    0.273
       103 -11.9780     71.6622    194.8577   2.9209604866e+02   5.1085499650e+00   0.02507554   0.01265978 -42.30  0.002209479    2.160    0.537
       104 -10.5721     70.6992    190.2769   2.9207994429e+02   5.1673657568e+00   0.01068258  0.009640794  24.38 0.0001668563    1.115    0.103
       105  -9.4336    113.5331    196.0088   2.9161542830e+02   4.8532657039e+00   0.01589835  0.008910548  50.79  0.001450132    2.081    0.519
       106  -9.8479    112.9962    192.0728   2.9159817378e+02   4.9021192387e+00   0.01116262  0.009582166  -4.10  0.001302551    1.250    0.200
       107  -9.1208    107.5073    196.0385   2.9168574753e+02   4.8877593064e+00   0.01001739  0.006537441 -64.76 0.0006915903    1.546    0.353
       108  -9.2066    119.4302    237.6279   2.9179514815e+02   4.3354215444e+00   0.02040829   0.01066391  74.76  0.001395515    4.160    0.760
       109 -10.5391    159.3812    194.0352   2.9107012099e+02   4.6108583776e+00   0.01877767   0.01122955  42.08 0.0009256093    1.714    0.417
       110 -10.4827    120.7045    194.4251   2.9152249785e+02   4.8301992367e+00   0.02041215   0.01053861  39.84  0.001872608    1.945    0.486
       111 -10.4906     38.6172    192.8938   2.9246921185e+02   5.3219756649e+00   0.01767455   0.01123823 -49.10  0.001022459    1.549    0.355
       112  -9.7650    177.3286    194.2063   2.9086239461e+02   4.5048857186e+00   0.01292221  0.008764224 -11.75   0.00127172    1.887    0.470
       113 -10.2539    173.0079    192.5122   2.9090251160e+02   4.5496068109e+00   0.01768706  0.009848891 -45.11 0.0009479838    1.843    0.457
       114 -10.2228    175.8689    186.9980   2.9083624987e+02   4.5970862716e+00   0.01183106   0.01027296 -52.84 0.0004127919    1.133    0.118
       115  -9.2729    100.9776    193.1500   2.9174451911e+02   4.9590795377e+00   0.01771268  0.008210903 -33.48  0.001317815    3.198    0.687
       116  -9.5778     47.2137    192.9558   2.9236944840e+02   5.2717022927e+00   0.01024613  0.008082765 -35.61 0.0004722963    1.325    0.246
       117 -10.4707    191.4483    191.4724   2.9068185189e+02   4.4547940190e+00   0.01273691   0.01215703 -35.60 0.0006073533    1.043    0.041
       118  -9.3656    135.3325    190.1946   2.9132697785e+02   4.7947292207e+00  0.008915488  0.008257678 -74.22 0.0005297536    1.102    0.093
       119 -10.9636    248.5030    177.9788   2.8993800902e+02   4.2803677845e+00    0.0118507   0.01117888 -74.18  0.001250596    1.079    0.073
       120 -11.6006    249.9731    187.7503   2.8997949444e+02   4.1584023454e+00   0.02324622   0.01364106 -59.23  0.002286067    1.656    0.396
       121 -10.6006    173.3874    240.0799   2.9118238411e+02   3.9947687613e+00   0.01623558   0.01159945 -86.01 0.0009712425    1.668    0.401
       122 -10.3149     44.2695    188.5103   2.9237725323e+02   5.3403658086e+00   0.02356244   0.01248165   6.89  0.001938868    2.717    0.632
       123  -9.2519     67.4431    186.8268   2.9209728996e+02   5.2262698137e+00    0.0101256  0.007802144  15.00 0.0003783166    1.370    0.270
       124  -9.1739    161.5601    184.9567   2.9099048326e+02   4.7037193202e+00   0.01394713  0.005092776 -52.73  0.001090109    2.540    0.606
       125 -10.4477    143.3076    184.7074   2.9120136980e+02   4.8123287523e+00   0.01096359   0.01013013  -9.40 0.0006240549    1.117    0.104
       126 -10.4132    140.0568    183.3100   2.9123084745e+02   4.8473891377e+00   0.01164708   0.01063692 -84.03  0.000334319    1.146    0.127
       127  -9.7026    217.2468    183.1858   2.9033234968e+02   4.4013823608e+00  0.009521451  0.008723016 -36.38 0.0004050641    1.096    0.088
       128 -14.6688     27.3019    248.0996   2.9292938118e+02   4.7452064976e+00   0.07216508   0.05567144  16.05  0.005747061    1.360    0.265
       129 -11.7306    104.3181    180.8744   2.9163232830e+02   5.0824590011e+00   0.01136867     0.011108 -15.43 0.0002638795    1.024    0.023
       130  -9.4893     65.9826    182.0399   2.9208574818e+02   5.2903521173e+00  0.009724349  0.009231263 -16.71 0.0003367746    1.068    0.064
       131  -9.8850    115.2953    180.4562   2.9150202168e+02   5.0238423559e+00   0.01367404  0.008690939  73.06 0.0005849196    2.220    0.549
       132  -9.8404    242.6082    179.7669   2.9001719493e+02   4.2938471198e+00  0.009106524  0.006424383 -76.20 0.0009412101    1.569    0.363
       133  -9.7176    175.2932    179.9712   2.9080090128e+02   4.6820545730e+00   0.01630064  0.006961974  25.82  0.001346517    2.383    0.580
       134 -10.0520     87.0404    183.6459   2.9185007207e+02   5.1500918641e+00   0.02254538   0.01103427  27.05  0.002018191    2.041    0.510
       135 -10.2176    134.8710    179.2937   2.9126719315e+02   4.9240814314e+00   0.01881901  0.005710263 -52.98  0.001368363    2.965    0.663
       136 -10.4300    128.9592    179.5312   2.9133742654e+02   4.9555388608e+00   0.01224802  0.009620855 -62.02 0.0003402362    1.264    0.209
       137  -9.7192     48.1895    179.8583   2.9228001386e+02   5.4183615879e+00  0.009580427  0.008607507  52.55 0.0004350285    1.157    0.136
       138 -10.5649    181.0747    176.6550   2.9071380695e+02   4.6870603088e+00   0.02411755   0.01398192  49.65  0.002273131    1.952    0.488
       139 -12.0566     85.2958    175.8711   2.9182397838e+02   5.2505487584e+00   0.02103022   0.01886383  57.58  0.001359621    1.173    0.147
       140 -11.5911     96.2162    158.9907   2.9159594764e+02   5.3836527202e+00   0.03276948   0.01244791 -53.93   0.00264909    2.433    0.589
       141 -12.7536     90.5678    167.2574   2.9171113201e+02   5.3202143409e+00   0.03655282   0.02780093 -59.07   0.00294513    1.292    0.226
       142 -10.6254     85.0136    166.1832   2.9176941574e+02   5.3647926403e+00    0.0203487    0.0094948 -61.18  0.001199678    2.086    0.521
       143  -9.9269    109.0787    176.1797   2.9154885243e+02   5.1094992686e+00   0.01125837  0.009684928 -87.58 0.0002822125    1.259    0.206
       144  -9.2354     95.5011    175.8395   2.9170493220e+02   5.1919482354e+00   0.01103562  0.008901596 -12.88 0.0008281574    1.385    0.278
       145 -11.0904     68.9490    167.8930   2.9196677517e+02   5.4376931892e+00   0.01906359   0.01176144 -52.60 0.0007560495    1.571    0.363
       146 -10.6172     77.1265    175.5023   2.9191693030e+02   5.3020196850e+00   0.01140981   0.01050093 -66.27 0.0003693215    1.091    0.083
       147 -12.4291     71.4901    174.4384   2.9197623773e+02   5.3469324391e+00   0.01941164    0.0156744  -7.44 0.0006069519    1.382    0.276
       148 -12.6668     18.8521    172.7810   2.9257967914e+02   5.6696945779e+00   0.03493641    0.0190561 -78.38  0.003040847    2.381    0.580
       149 -11.9822    248.1510    171.9376   2.8990588652e+02   4.3525373653e+00   0.02727544   0.01981261  16.40   0.00294628    1.463    0.317
       150 -10.2026    154.6441    172.8316   2.9099842291e+02   4.8846650088e+00   0.01550214   0.01095114 -22.92 0.0009496672    1.682    0.406
       151 -11.0496     43.9664    169.2909   2.9226620816e+02   5.5655737275e+00   0.01961646    0.0141854 -13.40  0.001043194    1.668    0.400
       152 -10.2743     48.4903    169.4994   2.9221473655e+02   5.5370629524e+00   0.01224798   0.01050395 -26.33  0.001434164    1.226    0.184
       153  -8.7443     31.5147    171.5481   2.9242476659e+02   5.6110967405e+00   0.01146271  0.006364787  29.52 6.028781e-05    1.775    0.437
       154 -11.1343     28.7123    169.8909   2.9244754684e+02   5.6465109225e+00   0.01507985   0.01102175 -41.72  0.001625291    1.402    0.287
       155 -15.6553      6.6229    246.3611   2.9315969886e+02   4.8844233230e+00    0.1334609   0.07172917 -50.71   0.01262088    1.808    0.447
       156  -8.7879    132.7039    171.3014   2.9124463460e+02   5.0295028331e+00  0.006759895  0.005005638  62.92  0.000260975    1.576    0.366
       157  -9.1859    100.6260    170.8030   2.9161516394e+02   5.2208659511e+00  0.009265835  0.006355485 -78.45 0.0006801577    1.664    0.399
       158  -9.1157     36.7651    170.4318   2.9235692757e+02   5.5938209893e+00  0.009273546  0.006480777   8.62 0.0009496177    1.629    0.386
       159 -11.3534    249.2194    149.5236   2.8975906594e+02   4.6064842582e+00   0.03018926   0.01847772 -68.58  0.002735849    1.724    0.420
       160 -11.8334    240.8201    150.4667   2.8986230836e+02   4.6443530760e+00   0.02686413   0.01795235 -11.90  0.002632432    1.946    0.486
       161 -12.3506    244.9415    162.5359   2.8988680299e+02   4.4803131358e+00   0.02917116   0.02124437 -58.57  0.003191506    1.346    0.257
       162 -10.2739    249.4841    160.9761   2.8982468068e+02   4.4720244653e+00   0.01653585   0.01051306 -43.46  0.001474724    1.620    0.383
       163 -11.9588    244.9605    156.1850   2.8984849765e+02   4.5539198868e+00   0.04658607   0.01819564  40.76  0.003719354    2.600    0.615
       164  -9.3740     58.5771    167.7301   2.9208664891e+02   5.4994479055e+00  0.008704821  0.006471689 -77.77 0.0003796465    1.478    0.323
       165  -9.6548    250.4655    165.9977   2.8984339135e+02   4.4080366204e+00   0.01025234  0.006444001 -61.79 0.0008948955    1.573    0.364
       166  -9.6770    175.9572    166.3031   2.9071136579e+02   4.8369817124e+00  0.009166894  0.008399111  30.90  0.000275188    1.097    0.088
       167 -12.2824    135.0546    236.3517   2.9160581200e+02   4.2599139782e+00   0.02220924   0.01901169  76.89  0.001779599    1.294    0.227
       168  -8.9439    124.4291    165.4674   2.9130608926e+02   5.1451933685e+00  0.006522214  0.006407414 -47.24 2.323942e-05    1.008    0.008
       169 -10.3692     47.0886    163.3148   2.9219417881e+02   5.6170480284e+00     0.011925  0.009576045 -71.42 0.0006463427    1.289    0.224
       170  -9.8454    116.0014    240.6450   2.9185301851e+02   4.3201714967e+00   0.01299229  0.009382687 -53.58 0.0008589728    1.351    0.260
       171  -9.4882    150.7520    239.3894   2.9144140176e+02   4.1338069885e+00   0.00884384  0.006412413  11.46 0.0006824726    1.515    0.340
       172  -9.5300     36.9534    162.6705   2.9230845437e+02   5.6829710846e+00  0.009336526   0.00818552  29.34 0.0005284579    1.145    0.126
       173 -11.1906     12.4957    161.4898   2.9258649035e+02   5.8375723599e+00   0.01192579   0.01162551   5.93  0.001497901    1.031    0.030
       174 -12.0377     32.6130    160.7814   2.9234777624e+02   5.7299478700e+00    0.0227969   0.02058124 -60.00  0.002771602    1.098    0.089
       175 -11.5766     23.9512    149.4641   2.9238125376e+02   5.9114230939e+00   0.02140792   0.01213172 -49.88  0.001777127    1.726    0.421
       176 -11.2746     33.1241    154.0684   2.9230178154e+02   5.8050467214e+00   0.02126454   0.01641494 -82.61 0.0004085172    1.446    0.309
       177 -11.0286     28.8231    156.3678   2.9236563200e+02   5.8030975289e+00   0.01562419   0.01463361  -8.79  0.001418752    1.093    0.085
       178 -13.4967     23.5631    155.1275   2.9241955174e+02   5.8478178292e+00   0.05466004   0.02611868  31.07  0.004904565    2.027    0.507
       179 -11.2873     73.4598    157.8235   2.9185409792e+02   5.5287006829e+00   0.02262262   0.01984634  81.09  0.002690178    1.243    0.195
       180  -9.4637     79.0122    159.2740   2.9179806649e+02   5.4797732981e+00  0.009202787  0.008465347  24.77 0.0004208275    1.094    0.086
       181  -9.5343     52.5204    158.4032   2.9210157046e+02   5.6428183685e+00   0.01022196  0.006429377  25.08 0.0005900172    1.612    0.380
       182  -9.7011     47.0964    158.1692   2.9216338743e+02   5.6768237162e+00   0.01092998  0.008889928 -26.47  0.001236815    1.324    0.245
       183  -9.9875     89.0209    156.9940   2.9166783758e+02   5.4484475628e+00   0.01007623  0.009627461 -20.11 0.0003489068    1.056    0.053
       184  -9.8227    134.5104    155.6985   2.9113027808e+02   5.2003498185e+00   0.01161778   0.01063437   1.54 0.0005796591    1.128    0.113
       185  -9.9473    107.4363    168.2851   2.9152080680e+02   5.2107532174e+00   0.01157008  0.008885803  24.10 0.0005018023    1.318    0.241
       186  -8.7372     42.3045    155.6654   2.9220429948e+02   5.7335623938e+00  0.006947828  0.005000106  64.49 0.0004045297    1.665    0.399
       187  -9.9761    120.6813    159.6659   2.9131503799e+02   5.2343002858e+00   0.02122809  0.008630935  45.00  0.001635404    2.773    0.639
       188  -9.5892     61.9863    153.1471   2.9195987638e+02   5.6492986826e+00   0.01553237  0.009002434 -72.67  0.000860769    1.949    0.487
       189  -8.8736    148.7495    152.9435   2.9094801634e+02   5.1498825573e+00  0.008932937  0.005556974 -60.55 0.0008841487    1.576    0.366
       190 -10.5983    112.9241    152.3582   2.9136167955e+02   5.3641081176e+00    0.0163326   0.01413645  29.99 0.0009755688    1.158    0.137
       191 -11.0614    102.6295    151.1467   2.9147435214e+02   5.4377345058e+00   0.01615794   0.01478778 -16.96  0.001167477    1.130    0.115
       192  -9.8149    105.5311    146.2183   2.9141107963e+02   5.4782256489e+00   0.01491456   0.00980269 -32.03  0.001486056    1.752    0.429
       193 -11.1231     80.6545    163.5343   2.9180437795e+02   5.4207652678e+00   0.01373489    0.0127586  86.04 0.0002580739    1.133    0.117
       194 -10.9885     56.1298    150.3761   2.9201158721e+02   5.7153064658e+00   0.01946526   0.01614447  68.81    0.0013891    1.349    0.258
       195  -9.7636     52.9991    146.4804   2.9202481899e+02   5.7786540721e+00   0.01045403  0.009036014 -29.43 -0.0001430292    1.202    0.168
       196  -9.8716     46.2331    150.7352   2.9212908697e+02   5.7682221267e+00   0.01170815  0.008307705  30.05 0.0005892488    1.402    0.287
       197 -12.3493      2.1085    108.9486   2.9239427895e+02   6.5081019416e+00   0.06186474   0.01088325 -63.45  0.003238535    5.960    0.832
       198 -13.2380      2.7445    139.6242   2.9256985568e+02   6.1478954766e+00   0.05021653   0.02924627 -63.51  0.004745208    1.716    0.417
       199 -13.3934     67.3423    143.9167   2.9184232421e+02   5.7256700031e+00   0.05148138   0.03291563  68.83  0.004860891    2.132    0.531
       200 -11.3459    133.5396    142.9580   2.9106533989e+02   5.3540013104e+00   0.04182265    0.0150436 -68.70  0.002941296    3.426    0.708
       201 -11.4606     34.8028    148.8453   2.9225105302e+02   5.8560919262e+00   0.02061271   0.01121863  42.70  0.001449363    1.905    0.475
       202 -12.3627     32.8367    142.1531   2.9223404082e+02   5.9452179826e+00     0.027433   0.01603103 -53.58  0.002358092    1.649    0.393
       203  -9.2493     91.1060    150.5135   2.9160481745e+02   5.5117168703e+00  0.009379106   0.00649069  27.49 0.0003455183    1.446    0.309
       204 -10.3537    236.5807    146.1420   2.8988563131e+02   4.7191854251e+00    0.0159952  0.008880885  12.30  0.001420886    2.233    0.552
       205 -10.8701     65.0075    134.0374   2.9181051196e+02   5.8539730074e+00   0.01467762   0.01348919  76.14 0.0003745373    1.156    0.135
       206 -10.6503    242.1640    130.6039   2.8972752390e+02   4.8670714761e+00   0.02781506   0.01510691  -4.06  0.002161079    3.183    0.686
       207 -10.4966    250.3391    125.0496   2.8959919031e+02   4.8839869997e+00   0.02316368   0.01081566 -69.22  0.001931742    2.427    0.588
       208 -10.7825    244.8218    121.2581   2.8964053948e+02   4.9600685992e+00    0.0261656   0.01558874  51.93  0.002285986    1.948    0.487
       209 -10.3698    249.5227    117.9402   2.8956599239e+02   4.9712248665e+00   0.01666329   0.01184298 -51.80  0.001061276    1.376    0.273
       210 -11.8236    248.1035    112.9500   2.8955251973e+02   5.0373790916e+00   0.02546762   0.02266918 -27.67  0.003067391    1.160    0.138
       211 -11.5704    248.5289    141.2111   2.8971721769e+02   4.7069696719e+00   0.04471192   0.01988294  12.51  0.003257917    3.414    0.707
       212 -12.2852    248.2301    134.4834   2.8968031757e+02   4.7867816694e+00    0.0422581   0.02848868 -48.24  0.004445668    1.468    0.319
       213 -10.2492     61.0830    137.3196   2.9187587248e+02   5.8384817903e+00    0.0131168  0.009531954  22.91 0.0005101697    1.404    0.288
       214 -11.0448     47.5772    143.3048   2.9206906290e+02   5.8468429816e+00   0.01889999  0.007355139  28.95  0.001305062    2.485    0.598
       215 -11.0771     27.3341    142.3080   2.9229912364e+02   5.9751253834e+00   0.01255227  0.008465413  27.70 0.0007543198    1.483    0.325
       216 -11.7026     26.4921    139.4964   2.9229216447e+02   6.0126600613e+00   0.01625444   0.01237331  -5.06  0.001765172    1.518    0.341
       217 -10.6513    164.1713    139.5419   2.9068824792e+02   5.2161735369e+00   0.01145182   0.01052985 -60.68 0.0003047599    1.081    0.075
       218  -9.5610     53.6702    140.0504   2.9197859927e+02   5.8495217199e+00   0.01004973  0.008853079  26.41 0.0004639781    1.141    0.124
       219 -12.1342     48.0381    138.4442   2.9203466677e+02   5.9006827377e+00   0.02913474   0.01449693  11.77   0.00220463    2.726    0.633
       220 -12.6250     45.2677    130.7006   2.9202072287e+02   6.0066667553e+00   0.02923974     0.023167 -83.24  0.001889333    1.398    0.285
       221 -11.1727    113.0013    136.2948   2.9126468993e+02   5.5503193056e+00   0.02107449   0.01489407  28.01  0.001501537    1.414    0.293
       222 -10.3203     13.3393    137.5095   2.9243368832e+02   6.1115048800e+00   0.01153981   0.00611126 -62.37  0.001060672    1.866    0.464
       223  -9.2674    184.7281    136.3985   2.9043017682e+02   5.1334333841e+00     0.008756  0.006444941  12.62 0.0004999384    1.475    0.322
       224  -8.7226     82.3520    136.2393   2.9162150128e+02   5.7282008158e+00  0.006688932   0.00497242 -17.54 0.0004403683    1.576    0.365
       225  -9.7545    133.8843    135.4971   2.9101666324e+02   5.4386858509e+00  0.009756795  0.006557008  24.68  0.000578538    1.510    0.338
       226  -9.5009     87.7960    133.1202   2.9153940247e+02   5.7329843074e+00  0.009217896  0.008590414  70.09 0.0002637833    1.129    0.115
       227 -10.2451    119.8712    137.6255   2.9119262316e+02   5.4950968957e+00   0.02036202   0.01123061 -31.07  0.001766065    2.383    0.580
       228  -9.3838    106.9530    129.9836   2.9129739506e+02   5.6586473724e+00   0.01786903  0.005448103  44.88  0.001138668    4.086    0.755
       229  -8.8160    141.6200    129.4965   2.9089063806e+02   5.4635788869e+00  0.006570632  0.006247576 -47.10 9.582259e-05    1.039    0.037
       230  -9.5807    118.2410    128.7100   2.9115825301e+02   5.6081175993e+00   0.01093951  0.004434115 -51.19 0.0008039742    2.350    0.574
       231 -12.0347     32.6320    126.8577   2.9214512326e+02   6.1241841773e+00   0.01664129   0.01406363  61.00  0.001052666    1.284    0.221
       232 -13.2523      2.0004    127.3781   2.9250550707e+02   6.2945295579e+00   0.09939178   0.01336843 -62.96  0.004677072    7.363    0.864
       233 -10.4091    209.8073    125.8135   2.9007495300e+02   5.1107185898e+00    0.0116875   0.01072724 -51.97 0.0004682061    1.075    0.069
       234  -9.6573     86.0169    126.7071   2.9152178513e+02   5.8177904894e+00   0.01328518  0.009098851 -22.47  0.001236786    1.778    0.438
       235  -9.5285     50.3694    122.7221   2.9191356688e+02   6.0699626505e+00   0.01070482  0.007525258  65.62  0.001032923    1.745    0.427
       236  -8.6376    114.6556    123.2448   2.9116730924e+02   5.6923650824e+00  0.006783171  0.004823248  54.09 0.0002112143    1.569    0.363
       237 -10.7545     15.4851    122.9726   2.9232192489e+02   6.2681216037e+00   0.01046871  0.006352609 -59.63  0.001032197    1.605    0.377
       238  -9.4574    238.7364    121.9393   2.8971535311e+02   4.9875514683e+00   0.01436805  0.006116618 -43.57  0.001138689    2.600    0.615
       239  -8.6173     79.7191    122.3209   2.9156896276e+02   5.9051543226e+00  0.006750181  0.005031223  66.03 0.0003387373    1.586    0.369
       240  -9.0956    143.3419    120.8440   2.9081875128e+02   5.5541037528e+00   0.01376005  0.006515301 -73.51  0.001097391    2.684    0.627
       241 -10.6634     21.1465    120.5455   2.9224139717e+02   6.2637266822e+00   0.01356489  0.007631496 -30.94  0.001189401    2.298    0.565
       242 -12.2210     66.1862    128.0996   2.9176128192e+02   5.9161744696e+00   0.03832813   0.02582187  54.21  0.003924895    1.691    0.409
       243  -8.9026    130.6718    119.2621   2.9095685894e+02   5.6458907654e+00   0.00677193  0.004897352  56.75 0.0002161608    1.566    0.362
       244 -12.5524     30.4850    117.5248   2.9211442886e+02   6.2450260273e+00   0.02648173   0.01923962 -16.44   0.00278948    1.643    0.391
       245  -9.7355     15.6843    116.7008   2.9228216276e+02   6.3398674741e+00  0.006914002  0.004927952 -27.09 0.0002172817    1.612    0.380
       246 -10.8235    168.1105    113.3829   2.9048560749e+02   5.4971213699e+00   0.01609221   0.01265547  64.52 0.0008951734    1.447    0.309
       247 -10.2136     72.7901    115.0534   2.9160627749e+02   6.0296341482e+00   0.01110463  0.009490264  10.99            0    1.219    0.180
       248 -11.5696     57.2034    110.7564   2.9176234206e+02   6.1695699902e+00   0.02681874   0.01416262  23.64  0.002372819    1.965    0.491
       249 -10.6704     62.5092    107.0931   2.9167855354e+02   6.1815022098e+00   0.01096949  0.009472701 -18.50  0.001284906    1.233    0.189
       250  -9.9574     70.0318    111.3057   2.9161602420e+02   6.0891114468e+00  0.009376328  0.008315941  31.19 0.0003764356    1.132    0.116
       251 -10.0919     27.9926    114.7027   2.9212664508e+02   6.2921869928e+00   0.01040506  0.009049296 -86.64  0.000297756    1.236    0.191
       252 -12.2632     74.6104    139.3660   2.9173041954e+02   5.7365885766e+00   0.04244194   0.02813506  69.74  0.003165181    1.995    0.499
       253 -11.8790    248.1737    100.7813   2.8947861633e+02   5.1781424190e+00   0.03810339   0.01855544 -49.23  0.003413941    2.017    0.504
       254 -10.2389    134.5244    105.2587   2.9082807175e+02   5.7862157068e+00   0.01695792  0.006001896 -59.51  0.001308908    2.639    0.621
       255  -9.3584    112.4709    104.4822   2.9108040991e+02   5.9229662460e+00   0.00654841  0.006442446 -35.64 0.0008096995    1.004    0.004
       256  -9.1247     35.9924    102.4887   2.9196033713e+02   6.3880027910e+00  0.009325243  0.006533481  25.23 0.0001826778    1.442    0.307
       257  -9.9658     62.9569    100.0442   2.9163116563e+02   6.2608115994e+00   0.01098637  0.007606042 -29.85 0.0004957526    1.652    0.395
       258 -12.6261    248.6055    240.4316   2.9031077463e+02   3.5547924638e+00   0.03451802   0.02654186 -40.89  0.003861122    1.329    0.247
       259 -10.7489    239.3079    249.5818   2.9047342269e+02   3.5024804982e+00    0.0132639  0.005895029  32.49  0.001136523    2.156    0.536
       260  -9.0419    136.6852     94.2805   2.9073708490e+02   5.9011770994e+00  0.006775592  0.004954189  59.50 0.0002611087    1.573    0.364
       261  -9.7725    166.3832    241.4892   2.9127221353e+02   4.0189454348e+00   0.01385034  0.009820597  -0.06  0.001359557    1.686    0.407
       262  -9.1956    158.1106    241.8329   2.9137043307e+02   4.0628318556e+00  0.009323938  0.007529388 -30.10 0.0004402839    1.319    0.242
       263 -10.9719    135.5112    241.1718   2.9162925615e+02   4.2012569482e+00   0.01285031   0.01077548 -10.66 0.0008009998    1.301    0.232
       264  -9.3282     44.7791     90.3676   2.9178533876e+02   6.4781477895e+00  0.008946092  0.006328787  10.28 0.0002720655    1.580    0.367
