#   1 NUMBER                 Running object number                                     
#   2 MAG_AUTO               Kron-like elliptical aperture magnitude                    [mag]
#   3 X_IMAGE                Object position along x                                    [pixel]
#   4 Y_IMAGE                Object position along y                                    [pixel]
#   5 X_WORLD                Barycenter position along world x axis                     [deg]
#   6 Y_WORLD                Barycenter position along world y axis                     [deg]
#   7 A_WORLD                Profile RMS along major axis (world units)                 [deg]
#   8 B_WORLD                Profile RMS along minor axis (world units)                 [deg]
#   9 THETA_WORLD            Position angle (CCW/world-x)                               [deg]
#  10 FWHM_WORLD             FWHM assuming a gaussian core                              [deg]
#  11 ELONGATION             A_IMAGE/B_IMAGE                                           
#  12 ELLIPTICITY            1 - B_IMAGE/A_IMAGE                                       
         1 -13.5978    221.1415     26.5599   3.2168909641e-01   2.6137589962e+01    0.9506549    0.6169903 -22.11  0.005015646    1.631    0.387
         2 -13.2404    227.2389     26.3857   3.5982914521e+02   2.4865080458e+01    0.8546262    0.3697016 -27.25   0.00403049    2.160    0.537
         3 -13.0567     31.7948     14.5462   4.0970515633e+01   7.3336747596e+01    0.6079416    0.3643398  23.31  0.003052281    1.783    0.439
         4 -12.3180    227.3351      9.2135   3.5577122130e+02   2.6651480730e+01    0.4732701    0.2458519 -30.49  0.001558978    1.708    0.414
         5 -10.6486     61.2029      2.3931   1.7379956453e+01   6.9170178611e+01    0.1942616     0.126273  69.66 0.0009588008    1.720    0.419
         6 -11.4154     40.1795      2.0578   2.6980546653e+01   7.3718006291e+01    0.3834447    0.1374328  41.92  0.001534356    2.615    0.618
         7 -11.3167     58.7765    232.9397   7.5527595905e+01   1.9383868082e+01     0.154741    0.1319282  41.24 0.0004085073    1.148    0.129
         8 -14.7094    120.5283    235.0137   6.2440768839e+01   1.1204499188e+01     3.835855     3.593206 -87.14   0.02865918    1.420    0.296
         9  -9.9563     37.1860    199.3092   7.8264397090e+01   2.8375575695e+01    0.1933662    0.1185194  53.78  0.001105459    1.354    0.262
        10  -9.9246    192.9776    194.4679   4.1983716745e+01   7.0238814476e+00    0.2376039    0.1436062 -63.29 0.0008098916    6.543    0.847
        11 -10.3298     69.4319    194.8144   6.9892518852e+01   2.5486732847e+01    0.2159904    0.1681322  52.72 0.0005545212    1.122    0.109
        12  -9.5559     47.2998    193.2768   7.5323925934e+01   2.8539794721e+01    0.2797558    0.1390076 -75.79  0.001380165    2.173    0.540
        13  -8.9297    235.9818    185.7592   3.3080614702e+01   2.2287367645e+00    0.1364853   0.08565358  28.37 0.0003714726    1.529    0.346
        14 -11.8042     52.9878    231.5903   7.6695553550e+01   2.0290168394e+01       0.1728    0.1538849 -69.93  0.001275639    1.433    0.302
        15 -10.5027     62.3942    181.2211   7.0313615529e+01   2.9347931377e+01    0.4241518    0.2021313  26.51 0.0009161149    2.097    0.523
        16  -9.8169    174.8196    179.7873   4.2966954164e+01   1.2053156342e+01    0.2269835    0.1692414 -19.25 0.0006704017    1.358    0.264
        17 -11.7664    172.6342    174.3915   4.2433374403e+01   1.3297647894e+01    0.5321602    0.3789061 -16.98  0.001474117    1.496    0.332
        18 -11.4452    179.5104    168.7156   3.9973390980e+01   1.3090637796e+01    0.5850645    0.4489428 -25.71  0.003399639    1.285    0.222
        19 -11.3974    126.2006    171.9946   5.2481958034e+01   2.1620888888e+01    0.3224113    0.2386397 -76.40  0.001619664    1.888    0.470
        20 -11.6648    113.0401    172.0606   5.5778474559e+01   2.3814665698e+01    0.3448182    0.2678721  60.85  0.001107904    1.430    0.301
        21 -11.2804    111.3291    167.8364   5.5524967987e+01   2.4988656099e+01    0.4230083     0.263919 -77.99  0.001820205    2.477    0.596
        22  -9.3439     76.2958    171.4603   6.5423158582e+01   2.9659031080e+01    0.2366474    0.1577386  78.79 0.0007398211    1.802    0.445
        23 -10.1716     47.2989    229.1414   7.7784012298e+01   2.1374809250e+01    0.1677171    0.1059236  54.77 0.0006325735    1.311    0.237
        24 -10.6161     92.5885    155.9581   5.8610438786e+01   3.0725902541e+01    0.4172914    0.2703326  80.57  0.001347144    2.226    0.551
        25 -11.4088    133.5842    144.9443   4.5534136494e+01   2.5837983172e+01     1.105457    0.2768615 -53.02  0.002732488    5.979    0.833
        26 -10.9195     86.8333    149.0728   5.9108651151e+01   3.3270630255e+01    0.2828745    0.2494944  77.88 0.0003149029    1.169    0.144
        27 -12.6020     92.9376    143.7898   5.6390351253e+01   3.3512425557e+01    0.7025923    0.6198446 -15.46  0.001833113    1.333    0.250
        28 -11.4948    109.0773    145.0726   5.2033461382e+01   3.0382376729e+01    0.3933586    0.3278908 -29.05  0.001513036    1.369    0.270
        29 -12.1532    105.4970    131.6092   5.0299665735e+01   3.4131789464e+01    0.6335391    0.4260834 -39.14  0.002013687    1.678    0.404
        30  -9.0237    167.4945    135.0131   3.5493031357e+01   2.1170442602e+01    0.1917694    0.1256842 -63.66 0.0008076579    2.372    0.578
        31  -9.8014    112.4841    150.4754   5.2140814661e+01   2.8560317610e+01    0.1486355    0.1377534  43.05 0.0001796237    1.020    0.019
        32 -11.7799     93.7667    131.4671   5.3755855529e+01   3.6308885864e+01    0.3948227    0.2995713 -82.24 0.0003352986    1.566    0.362
        33 -11.1289    113.4515    125.4984   4.6659674243e+01   3.4007212506e+01    0.3313037    0.2743394 -22.00 0.0007232729    1.409    0.290
        34 -10.4617    101.0877    120.6586   4.9179746632e+01   3.7537780041e+01    0.2927229    0.2487392  13.77 0.0008670405    1.341    0.254
        35  -9.9823    109.0189    115.9683   4.5690080646e+01   3.7075259869e+01    0.2303208    0.2260897  21.75 0.0003681615    1.044    0.043
        36 -19.5580     13.1615    145.7158   8.1288817215e+01   4.3063586643e+01      17.8346      4.03656 -82.57   0.05539198    4.520    0.779
        37 -11.6553     87.8503    219.8608   6.7990682933e+01   1.8141326703e+01     0.384451    0.3198548  29.34  0.001461696    1.137    0.121
        38 -11.0748    115.6655    108.8678   4.1963510101e+01   3.7316772866e+01    0.3576579    0.2249802  37.23  0.001007695    1.624    0.384
        39 -11.2522    112.2860    104.3888   4.1765478902e+01   3.9039156866e+01     0.443696    0.2571318 -65.14  0.001632802    2.442    0.591
        40  -9.5704     83.4290    222.8726   6.9274933679e+01   1.8173114127e+01    0.1762425    0.1221697 -78.64 0.0005135763    1.806    0.446
        41 -10.0251    134.6069    105.2360   3.5862760552e+01   3.3975746971e+01     0.222057    0.1476842 -32.57 0.0009513171    1.659    0.397
        42  -9.5167     99.6592    105.0065   4.5785357999e+01   4.1514173793e+01    0.2141338    0.2028802 -56.12 0.0004567657    1.073    0.068
        43 -11.5698    118.4363    102.6513   3.9519353861e+01   3.8099892328e+01    0.3409972    0.2756038  76.35  0.001274007    1.480    0.324
        44 -10.4588     77.0641     99.5430   5.2014971749e+01   4.7124381144e+01    0.3730947    0.2419486  62.21   0.00097689    1.936    0.483
        45 -11.0272    120.5999     98.0743   3.7645315466e+01   3.8618058826e+01    0.3212277    0.2504337 -63.96  0.001461634    1.453    0.312
        46  -9.5256     97.9394     88.4319   4.1714938944e+01   4.5703880660e+01     0.224278    0.1334942  64.82 0.0005189628    2.449    0.592
        47  -9.9391     71.3774    222.5543   7.1961911703e+01   1.9761041562e+01    0.1209308    0.1140228  72.84 0.0003802544    1.237    0.192
        48 -11.8147     57.8923     84.7813   5.5593460794e+01   5.3984118868e+01    0.7577307    0.2819746  48.34  0.002289583    3.491    0.714
        49 -10.4370     89.9307    248.9737   7.0142740332e+01   1.2948274708e+01    0.1586467    0.1499308  53.35 0.0005532561    1.283    0.220
        50  -9.8395     50.7581    200.2323   7.5010041541e+01   2.6662188955e+01    0.2478192    0.1004718 -70.09  0.001132016    2.667    0.625
        51 -12.1163     40.7582     69.6676   5.9146966826e+01   6.0156305953e+01    0.3546236    0.3126669  33.90  0.001193089    1.188    0.158
        52 -10.1969     97.8503     73.9844   3.7178862767e+01   4.8907521907e+01    0.2470011    0.2203915  50.16            0    1.106    0.096
        53  -9.1647     91.9914     70.0590   3.7823420053e+01   5.1038637350e+01     0.182981    0.1800853  48.41            0    1.002    0.002
        54 -12.5022    179.1599     65.7711   1.5494920617e+01   3.0617802532e+01    0.4722879    0.4307971 -80.81 0.0007571711    1.108    0.097
        55 -13.6426    195.6910     53.4055   9.7524558229e+00   2.8515166348e+01     1.160113    0.9682544  31.08    0.0040233    1.467    0.318
        56 -12.3237    202.0783     48.0101   7.5554823629e+00   2.7770117471e+01    0.5223167    0.4508602  45.07  0.001607976    1.358    0.264
        57 -11.3156     51.1714     58.4722   5.0522500230e+01   6.1388436361e+01     0.444908    0.3049257 -60.18  0.000758189    1.540    0.351
        58 -10.0203     60.9437     59.7526   4.6414959217e+01   5.9476883710e+01    0.2058077    0.1889579  34.30 0.0003190074    1.100    0.091
        59 -10.4607     73.6571     58.6020   4.0539408693e+01   5.7333674720e+01    0.2781304    0.2584555  75.28 0.0005961229    1.187    0.158
        60  -9.9361     68.4856     47.4964   3.8240426023e+01   6.0656139867e+01    0.2858759    0.1435816  43.75 0.0006047909    1.968    0.492
        61 -10.7922     21.1025    246.9338   8.4067223076e+01   2.0911161347e+01    0.1303347    0.1139393  28.75 0.0005615097    1.385    0.278
        62  -9.8233    210.9656    198.7437   3.9452202966e+01   3.9059505697e+00    0.1897238    0.1452954  -8.49 0.0004789394    1.126    0.112
        63 -12.2371     54.2150    241.2339   7.7026527946e+01   1.8446501926e+01    0.1941122    0.1391403  42.66   0.00082728    1.033    0.032
        64 -10.0751     86.0914    240.4711   7.0240952770e+01   1.4791284325e+01    0.1788356   0.06555237 -62.23  0.000854999    3.418    0.707
        65 -10.8684     60.8197     21.4626   2.8964568095e+01   6.6833300099e+01     0.282885    0.2629702 -57.73  0.001109083    1.272    0.214
        66 -10.6656     47.0922    234.1500   7.8121493180e+01   2.0486450782e+01    0.1280009    0.1168531  57.93 0.0003741826    1.239    0.193
