#   1 NUMBER                 Running object number                                     
#   2 MAG_AUTO               Kron-like elliptical aperture magnitude                    [mag]
#   3 X_IMAGE                Object position along x                                    [pixel]
#   4 Y_IMAGE                Object position along y                                    [pixel]
#   5 X_WORLD                Barycenter position along world x axis                     [deg]
#   6 Y_WORLD                Barycenter position along world y axis                     [deg]
#   7 A_WORLD                Profile RMS along major axis (world units)                 [deg]
#   8 B_WORLD                Profile RMS along minor axis (world units)                 [deg]
#   9 THETA_WORLD            Position angle (CCW/world-x)                               [deg]
#  10 FWHM_WORLD             FWHM assuming a gaussian core                              [deg]
#  11 ELONGATION             A_IMAGE/B_IMAGE                                           
#  12 ELLIPTICITY            1 - B_IMAGE/A_IMAGE                                       
         1 -14.0739    186.7990     22.8207   7.1168430276e+01   3.5892158570e+01     1.867738     1.290089 -11.35  0.006789293    1.760    0.432
         2 -14.0962    193.8718     16.9771   6.8506848735e+01   3.4681893763e+01      1.40957     1.193313 -55.32  0.004920543    1.171    0.146
         3 -14.0131    199.7232      9.2629   6.5607428560e+01   3.3967094352e+01     1.776452    0.7076172  53.87  0.001402416    2.452    0.592
         4 -11.0701     32.8401      2.6522   1.0429994653e+02   7.1438773761e+01    0.2383245    0.1184507 -34.09  0.001357183    1.739    0.425
         5 -10.4982    104.2606    238.2378   1.3599858435e+02   1.4130437481e+01    0.2170735    0.1705434 -81.34  0.001560711    1.411    0.291
         6 -11.3484    248.0861    248.0759   1.1243532265e+02  -9.7267828565e+00    0.3207081    0.2183811 -10.74  0.002320402    1.510    0.338
         7 -12.5893    248.2819    240.9853   1.1132611269e+02  -9.0671116680e+00    0.4876445    0.3224542  40.78  0.003331788    1.489    0.328
         8 -11.1905    134.2560    249.4517   1.3187655811e+02   7.8005523832e+00    0.5698662    0.1722329  48.66   0.00253167    2.634    0.620
         9 -10.7681    141.4744    244.6956   1.3009973608e+02   7.3457787309e+00    0.2056216    0.1817096 -83.42  0.001009033    1.378    0.274
        10 -10.7546    152.6611    243.4057   1.2798085162e+02   5.7299145626e+00    0.2692809    0.2150278 -89.94   0.00136693    1.618    0.382
        11 -12.8083    135.1700    237.6138   1.3041908288e+02   9.4074121581e+00    0.7227133    0.4298836 -67.55  0.004239877    2.253    0.556
        12 -11.9354    146.1525    240.5370   1.2879460271e+02   7.1958134965e+00    0.3358141    0.2362101  51.93 0.0004624889    1.152    0.132
        13  -9.4202    150.9574    239.0021   1.2775495281e+02   6.6354706567e+00    0.1723812    0.1310158  46.64 0.0005621045    1.018    0.018
        14 -11.7259    124.6203    248.7816   1.3347415730e+02   9.3938477983e+00    0.3989898    0.2793511  41.13  0.002723799    1.285    0.222
        15 -10.7662    121.4901    244.5087   1.3358613551e+02   1.0517589384e+01    0.2369143    0.1457553  56.69 0.0008947313    1.338    0.253
        16 -12.5158    126.1446    240.5175   1.3235007299e+02   1.0401144083e+01    0.3984371    0.3453068  89.06  0.001764497    1.308    0.235
        17 -12.4075    108.8495    248.1264   1.3612838078e+02   1.1884325204e+01    0.8779134    0.2751462  41.97  0.004094804    2.541    0.606
        18 -10.0562    101.1470    250.1833   1.3762682712e+02   1.2702605331e+01    0.2739926    0.1805576  41.54  0.001118778    1.417    0.294
        19 -11.2568     97.9956    246.3102   1.3782628573e+02   1.3764283632e+01    0.3428622    0.2607345  59.43  0.002532138    1.048    0.046
        20 -16.1550      2.3367     66.2423   1.3921764868e+02   6.1973004750e+01     26.63706     2.119136 -70.18   0.04203558   21.463    0.953
        21 -10.7629    164.6769    226.4734   1.2365045471e+02   6.1698624167e+00    0.2161832    0.1887483  75.88 0.0008050822    1.346    0.257
        22 -15.6064     10.3604    247.9483   1.5203978422e+02   2.4306384407e+01     1.195101    0.7628155 -85.67  0.006772492    1.469    0.319
        23 -11.3920     98.5608    222.9399   1.3552231618e+02   1.7569934068e+01    0.3381113    0.2561856  57.51            0    1.049    0.047
        24 -11.8799     91.3035    219.0570   1.3648368669e+02   1.9345631306e+01    0.4285786    0.2828049  46.70    0.0015275    1.319    0.242
        25 -14.8850     14.3935    239.3608   1.5108791784e+02   2.5323125492e+01    0.8588962    0.4439645 -62.56  0.003764629    2.563    0.610
        26  -9.0564    220.0057    223.4548   1.1328186553e+02  -2.7874765997e+00    0.1719066   0.09814083  39.74 -2.621493e-05    1.450    0.310
        27 -10.8577    150.0009    222.3288   1.2581375588e+02   9.3121834712e+00    0.1864606    0.1806006 -85.02 0.0001725221    1.246    0.197
        28 -11.5522    101.3569    212.3065   1.3386147373e+02   1.9044840305e+01    0.4658819    0.2780083  55.75  0.002681842    1.408    0.290
        29  -9.9351    105.0008    218.7498   1.3387462106e+02   1.7319579434e+01    0.2059986    0.1548044  82.19 0.0003029938    1.314    0.239
        30  -9.5227    110.8928    222.5493   1.3318229633e+02   1.5733597767e+01    0.1863435    0.0987737  44.56   0.00101719    1.560    0.359
        31  -9.7881    163.9429    221.0826   1.2303646207e+02   7.1020763581e+00    0.1908227    0.1416975  16.08  0.001120147    1.705    0.413
        32 -10.9964    246.3016    218.4738   1.0801390724e+02  -6.4014892324e+00    0.2462217    0.1521782   6.05  0.001450663    1.715    0.417
        33 -10.5235    177.4127    218.1831   1.2010869274e+02   5.1849093176e+00    0.2873795    0.2473211  73.45  0.001066295    1.424    0.298
        34 -10.6100    233.6929    217.0780   1.0988965084e+02  -4.2478713618e+00    0.2575822     0.224213  86.96  0.001182517    2.085    0.520
        35  -8.6844    156.2772    218.3073   1.2408532748e+02   8.8627044441e+00    0.1167331   0.09237326  17.36  0.000334463    1.552    0.356
        36  -9.3907    133.9239    217.7763   1.2825927561e+02   1.2785505747e+01    0.2079768    0.1157506  60.50 0.0007143572    1.896    0.473
        37 -10.1949    173.4107    239.9258   1.2388100965e+02   2.8147752511e+00    0.2514628    0.2000387 -77.79 0.0009725388    1.851    0.460
        38 -10.2907    183.4647    214.0502   1.1835412361e+02   4.7251229102e+00    0.2579078    0.1756986  60.99 0.0009633602    1.775    0.437
        39  -8.9570    158.2819    241.3737   1.2674170844e+02   5.1001103861e+00    0.1115691   0.08467885  15.63  0.000476806    1.705    0.414
        40 -10.3761    115.7107    239.8691   1.3413271499e+02   1.2127850007e+01    0.2292296    0.1419897  60.40 0.0008148401    1.407    0.289
        41 -10.0774    151.9341    212.2658   1.2406189060e+02   1.0593299168e+01    0.2464826    0.1970962 -30.98  0.001057369    1.644    0.392
        42 -10.0620    141.5261    213.1047   1.2618500440e+02   1.2271236064e+01    0.2846507    0.1707932  62.42  0.001110931    1.834    0.455
        43  -9.7424    119.1994    236.7248   1.3318654188e+02   1.2083218864e+01    0.2867753    0.1674168  83.39  0.001284607    2.485    0.598
        44 -10.7236    104.9273    222.8379   1.3432758037e+02   1.6614428347e+01    0.2437675    0.2012356  23.65 0.0009079839    1.701    0.412
        45 -10.7713    101.4549    242.1982   1.3686138386e+02   1.3910508303e+01    0.4526133    0.1854626 -74.38  0.002103687    3.763    0.734
        46 -10.6920    166.2194    205.1686   1.2024442564e+02   9.1930250304e+00    0.4475445    0.3830206 -67.12  0.002819527    1.429    0.300
        47 -10.2274    134.5121    208.3422   1.2690313580e+02   1.4300238576e+01    0.2273606    0.2068959  16.05 0.0009656394    1.391    0.281
        48  -9.0021    197.6375    208.1784   1.1478691850e+02   3.0557963851e+00    0.1518435    0.1166516 -17.16 0.0001198942    1.509    0.337
        49  -9.7708     97.4614    207.4821   1.3407998387e+02   2.0540568593e+01    0.2812312    0.1903612  60.15  0.001022288    1.245    0.197
        50 -10.9156     93.3918    204.4758   1.3454420280e+02   2.1732050525e+01    0.3199533    0.3082907  68.07   0.00194685    1.341    0.254
        51 -10.0160     88.9996    204.5161   1.3541509609e+02   2.2386733182e+01    0.2425488      0.15841  60.00 0.0007028969    1.293    0.227
        52 -10.9009    174.1570    205.7485   1.1880659746e+02   7.6569865632e+00    0.3899341    0.2359134  37.85 0.0009193777    1.456    0.313
        53 -11.6181    246.9232    205.3700   1.0564023456e+02  -4.9881389840e+00    0.4072654     0.224222  34.52  0.002292443    1.571    0.363
        54  -9.0031    183.4707    206.4514   1.1714722823e+02   5.8572828911e+00    0.1306585     0.109353  36.77 0.0001443449    1.009    0.009
        55 -10.2670    125.9129    205.4294   1.2820867609e+02   1.6292555544e+01    0.2030945    0.1655252  82.75 0.0005155788    1.267    0.210
        56  -9.0312    114.4206    206.5258   1.3062701366e+02   1.8016022580e+01    0.1253723    0.1059509  59.64 6.287477e-05    1.054    0.051
        57 -10.9979    143.6055    249.3490   1.3024573466e+02   6.3447352463e+00    0.3836879    0.2007111  51.66  0.002237694    1.564    0.361
        58 -11.7053    245.1681    232.3502   1.1047615764e+02  -7.7318600134e+00     0.281209    0.1771143  51.07  0.001453957    2.102    0.524
        59  -9.7235    148.3583    205.2156   1.2373963634e+02   1.2407354977e+01    0.2234294    0.1560464  37.69 0.0007961247    1.337    0.252
        60 -10.9277    108.5232    203.1333   1.3137848120e+02   1.9607788088e+01    0.3042977    0.2317326 -39.72 0.0008535851    1.893    0.472
        61  -9.1176    156.2985    203.8881   1.2198139045e+02   1.1204475703e+01     0.217638     0.130869  72.41 0.0008765825    2.788    0.641
        62 -11.3221    133.2315    202.6575   1.2637277129e+02   1.5529158637e+01    0.2297361    0.2084116  76.30 0.0002647759    1.129    0.114
        63  -9.9875    134.9373    196.5842   1.2515859269e+02   1.6330045622e+01    0.3904465    0.2052797 -39.11   0.00174926    2.798    0.643
        64  -9.9952    103.2507    203.2696   1.3244752934e+02   2.0427669094e+01    0.2609255    0.2064258  26.40  0.001142858    1.681    0.405
        65 -10.4057     70.0398    201.8181   1.3886186938e+02   2.5619952782e+01    0.4183068    0.1321528  52.86  0.001682824    2.894    0.654
        66  -9.4956    224.7971    202.1881   1.0886084382e+02  -8.9993910974e-01     0.173232    0.1514034  26.65 0.0003991689    1.130    0.115
        67 -10.8765    197.2001    200.6408   1.1359723129e+02   4.2303697988e+00    0.3773935    0.2698475  59.77  0.002084449    1.699    0.412
        68  -9.9360    201.4766    201.5308   1.1295562690e+02   3.3229584523e+00     0.130529    0.1101815  30.39 0.0001172222    1.004    0.004
        69  -9.8242    122.8753    200.8335   1.2819997897e+02   1.7649303674e+01    0.2389432    0.1514388  50.11 0.0007684095    1.341    0.254
        70  -9.0548    115.4860    201.0029   1.2971136667e+02   1.8863495737e+01    0.1700905    0.1021545  85.94 0.0006438532    2.330    0.571
        71  -9.4652    169.7514    200.2375   1.1877537798e+02   9.3483553279e+00    0.1723985    0.1399753  25.06  0.000336738    1.278    0.218
        72 -10.6452    141.4564    198.3530   1.2410021361e+02   1.4844388014e+01    0.3172597    0.2437311   9.95 0.0009864076    1.933    0.483
        73  -9.0954    158.5479    199.4771   1.2085647624e+02   1.1539602395e+01      0.13311    0.1140767  47.87  4.87871e-05    1.009    0.009
        74 -10.3921    100.6085    198.2060   1.3236732414e+02   2.1815431351e+01    0.2213924    0.1889244  64.52 0.0002385422    1.069    0.065
        75 -10.7152    156.1886    231.7749   1.2590846762e+02   6.8247934429e+00    0.2527466     0.161032  36.59  0.001501005    1.395    0.283
        76 -11.9692    136.1978    227.2317   1.2901041651e+02   1.0858085398e+01    0.4517724    0.2549327 -59.64  0.002428868    2.206    0.547
        77 -10.9326     57.0113    193.6433   1.4066212747e+02   2.8958677063e+01    0.3457214    0.1529736 -71.83  0.001795667    2.142    0.533
        78  -9.6343    192.0264    197.9767   1.1411150831e+02   5.5809468775e+00    0.1961312    0.1711769  33.84 0.0004243982    1.027    0.026
        79 -10.3680     52.8055    197.9973   1.4187337507e+02   2.8615030785e+01    0.1912337    0.1671283  61.08   0.00140268    1.294    0.227
        80  -9.5501     95.3901    196.9482   1.3327544398e+02   2.2878109547e+01    0.1729355    0.1449182  89.93 0.0004735217    1.157    0.136
        81 -12.0411     73.6760    194.5134   1.3740709343e+02   2.6564021482e+01    0.3923906    0.2776292 -63.62  0.001820042    1.538    0.350
        82 -10.2069    113.6319    195.9140   1.2941825299e+02   2.0136997769e+01     0.277498    0.1326756  54.22  0.001283364    1.975    0.494
        83  -8.8492    217.9576    194.9907   1.0878726381e+02   1.2812265092e+00    0.1521623    0.1255051  26.88            0    1.036    0.034
        84 -10.7406    172.9230    193.6875   1.1706979669e+02   9.8367851662e+00    0.3918416    0.2643129 -28.22  0.001444534    1.907    0.476
        85 -10.8514    159.5095    194.0375   1.1979512378e+02   1.2295180103e+01    0.3746589    0.2133482  52.06 0.0009039322    1.651    0.394
        86 -11.9521     78.2923    187.7201   1.3572028963e+02   2.7285897882e+01      0.27697     0.227495 -58.69 0.0006316961    1.466    0.318
        87 -11.7367    149.9143    247.4496   1.2893489546e+02   5.6064802598e+00    0.6717791    0.1805952  48.40  0.002699989    3.161    0.684
        88 -13.7679     45.6763    246.4355   1.4652227367e+02   2.0683112167e+01    0.7055057    0.5523801  48.49  0.003620023    1.462    0.316
        89 -11.4811    250.4346    187.7403   1.0181452821e+02  -3.3996261858e+00    0.3524725    0.1922583 -24.90  0.001869162    1.841    0.457
        90  -9.5297    113.2486    192.0056   1.2896999096e+02   2.0956003731e+01    0.1795394    0.1557154  71.80 0.0003898545    1.052    0.049
        91 -10.7619    249.5975    193.1639   1.0297363211e+02  -3.9404084439e+00    0.2459272     0.112195 -26.46  0.001187899    2.288    0.563
        92 -13.1380     43.0935    237.2935   1.4640965209e+02   2.2525871773e+01    0.4164282    0.3201457  44.98 0.0004381078    1.514    0.340
        93 -15.3617     26.7710    248.3488   1.4958086640e+02   2.2523965856e+01     1.053207    0.6801267  56.24   0.00842415    1.208    0.172
        94 -11.0112    142.6344    228.6197   1.2799180690e+02   9.5701914964e+00    0.2902136    0.1963316 -70.81  0.001235696    1.953    0.488
        95 -10.1630    135.8484    189.9118   1.2396992730e+02   1.7403913656e+01    0.2523287    0.2100023  20.07 0.0009646589    1.505    0.336
        96  -8.8427    197.9501    189.7769   1.1153794689e+02   5.7336872328e+00    0.1716179   0.09792172  41.80 0.0002086251    1.545    0.353
        97 -12.3398    142.1343    220.3794   1.2703680371e+02   1.0965272334e+01     0.462265    0.3525855 -84.69  0.002879878    1.627    0.385
        98 -10.4499     44.2126    188.5139   1.4275621206e+02   3.1555070708e+01    0.2458871     0.202708  23.35  0.001494251    1.806    0.446
        99 -11.3658    245.4386    227.4237   1.0963889454e+02  -7.2502209928e+00    0.2166206    0.1846069  81.42  0.001396979    2.448    0.592
       100  -9.3919    175.6093    186.8004   1.1534629871e+02   1.0480823261e+01    0.1725624    0.1309783 -58.21 0.0004934055    1.615    0.381
       101  -9.7383     67.5782    186.6085   1.3782454550e+02   2.9008691962e+01    0.1813923    0.1364443  37.06  0.001130406    1.547    0.353
       102  -9.0088    123.5620    185.5819   1.2588627592e+02   2.0432566976e+01    0.1356836    0.1143917  63.51  7.97589e-05    1.047    0.044
       103 -10.1825     38.8546    184.2441   1.4347039776e+02   3.3040859900e+01     0.227172    0.1506089  65.05  0.001009458    1.248    0.199
       104  -9.7559    143.1957    184.6157   1.2159991404e+02   1.7047804123e+01    0.1891724    0.1189703  36.80  0.000553987    1.588    0.370
       105  -9.7891     87.8506    183.4740   1.3319922068e+02   2.6746013613e+01     0.370879    0.1740383  51.53   0.00176966    1.936    0.483
       106 -10.7387    191.5059    191.2207   1.1302620039e+02   6.7248594268e+00    0.2586071    0.2433462   5.23 0.0005659186    1.125    0.111
       107  -9.7112    144.1954    180.3743   1.2068628600e+02   1.7662164819e+01     0.203985    0.1148222  52.70 0.0004746405    1.689    0.408
       108  -9.9318    134.7865    180.3432   1.2268011266e+02   1.9427263851e+01    0.1898433    0.1673969  77.60  0.001126878    1.121    0.108
       109 -10.0385    128.9982    179.2042   1.2373663662e+02   2.0712618961e+01    0.2128709    0.1902916 -76.80 0.0003397314    1.174    0.148
       110  -9.8143     48.2291    179.7532   1.4115723501e+02   3.2894099301e+01    0.1736593    0.1260463  69.84 0.0005201265    1.137    0.120
       111  -9.8267     12.7180    178.9949   1.4826293974e+02   3.6754663519e+01    0.1588707    0.1074097  89.23 0.0004444761    1.134    0.118
       112 -10.6757    182.1446    176.7810   1.1220881738e+02   1.0912393628e+01    0.3342892    0.2518355  24.13  0.001429982    1.421    0.296
       113 -10.5590     85.1610    166.5187   1.3154820764e+02   3.0747747941e+01     0.399743    0.2134028 -66.29 0.0003313777    1.843    0.457
       114  -9.8103     88.9801    156.9778   1.2926090873e+02   3.2252253729e+01     0.201306    0.1785156  82.60            0    1.029    0.029
       115 -10.0656     90.1649    160.4152   1.2950786997e+02   3.1307960281e+01    0.2478853    0.1683717  79.98 0.0005148951    1.589    0.371
       116 -12.2529     87.4488    176.0889   1.3233710222e+02   2.8349299297e+01    0.4588219    0.2659748  40.37  0.001862403    1.717    0.418
       117 -12.6620     92.4924    167.3241   1.2999703251e+02   2.9436523395e+01    0.8978931    0.5012171 -44.59  0.003643364    2.386    0.581
       118 -11.5469     74.1811    173.4128   1.3491018572e+02   3.0869068858e+01    0.4501817    0.2801847 -48.63  0.002394194    2.041    0.510
       119  -9.2417     95.9094    175.1337   1.3034679685e+02   2.7228821106e+01    0.1951042    0.1682674 -13.56  0.001133692    1.786    0.440
       120  -9.1871     67.6121    174.7153   1.3650257451e+02   3.1499251861e+01    0.1678047    0.1051885 -84.15  0.000286513    1.524    0.344
       121 -12.0539    249.0438    171.5830   9.8888193603e+01  -1.0451576945e+00    0.3932692    0.3266069  47.20   0.00233873    1.412    0.292
       122 -10.2789    100.4622    170.1880   1.2861905026e+02   2.7535962754e+01    0.2857227     0.198578  50.93 0.0006067421    1.322    0.243
       123 -10.3709     48.4415    169.9505   1.4015173592e+02   3.4951056193e+01    0.2386728    0.1825527 -47.64  0.001505918    1.760    0.432
       124 -10.4820     43.9464    169.2613   1.4105659606e+02   3.5620353613e+01    0.2909305    0.1813812 -47.88  0.001639903    2.187    0.543
       125  -9.0780    122.5335    169.0018   1.2348321729e+02   2.3953740406e+01    0.1861213    0.1351383 -60.33  1.21545e-05    1.447    0.309
       126 -10.8555    108.0459    168.4157   1.2664054132e+02   2.6637717658e+01    0.5272552     0.225339  43.54  0.001282869    2.173    0.540
       127  -9.0429     69.2375    167.4325   1.3527019462e+02   3.2847856465e+01    0.1798286    0.1018369  53.29 0.0007348708    1.647    0.393
       128  -9.2724     58.5576    167.4832   1.3766305281e+02   3.4246050696e+01      0.12644    0.1017471  81.77  8.05231e-05    1.016    0.016
       129 -11.8682     19.3927    172.6341   1.4650139821e+02   3.7450669879e+01    0.4446532    0.2012965  69.31  0.002170376    2.082    0.520
       130 -12.8050    244.9648    162.4274   9.7700039303e+01   9.5605349633e-01    0.7524222    0.3069396 -30.26  0.003179842    2.462    0.594
       131 -12.2452    239.7683    151.3312   9.6230789077e+01   3.5469087681e+00    0.5492128    0.4236017  -0.56  0.003072924    1.320    0.242
       132 -10.6920    249.4865    160.4848   9.6546826903e+01   4.0318765380e-01    0.2396413    0.2017026 -19.57  0.001248681    1.140    0.123
       133 -10.8593    248.2144    157.2209   9.6073827989e+01   1.0961392317e+00    0.3064983    0.1940887  46.43  0.001614231    1.649    0.394
       134 -11.5117    243.7393    155.0291   9.6353409936e+01   2.2452781244e+00    0.3399956    0.2603009  52.70  0.001916993    1.513    0.339
       135  -9.9323    175.8825    166.1453   1.1142416293e+02   1.4051204705e+01    0.2116794     0.184295  71.84  0.000248665    1.288    0.224
       136  -9.3104    124.5341    165.2423   1.2239502183e+02   2.4366183782e+01    0.1781369     0.134544 -45.96 0.0002272153    1.504    0.335
       137 -10.3719     80.1471    164.0419   1.3234917343e+02   3.2037885030e+01    0.3214377    0.1836889  58.27  0.001586343    1.729    0.422
       138  -9.9408     24.7531    164.9891   1.4479163019e+02   3.8553718893e+01    0.1516978    0.0799644 -78.24 0.0004046083    1.562    0.360
       139 -11.0848     36.1288    162.3545   1.4209140764e+02   3.7971657883e+01    0.3642028    0.1826923  50.77   0.00172063    1.860    0.462
       140 -11.4725     37.1636    157.7842   1.4141054369e+02   3.8859639765e+01    0.3498899     0.302208  32.58  0.002453901    1.509    0.337
       141 -10.4626     23.6292    149.2043   1.4365000561e+02   4.2080580933e+01    0.2798173    0.1177684 -78.89 0.0007727431    2.024    0.506
       142 -12.3939     33.2639    140.8203   1.4051382131e+02   4.3030178625e+01    0.6187845    0.2060257 -63.66   0.00279877    2.419    0.587
       143 -12.4964     24.6845    155.1974   1.4396160078e+02   4.0671670658e+01    0.5989327    0.2693931  42.69  0.002724314    2.160    0.537
       144 -12.4641     33.3183    153.6223   1.4186339322e+02   4.0173404881e+01    0.6068328    0.2528325 -59.50 0.0004061841    2.245    0.555
       145  -9.2375    203.6699    160.7431   1.0477463428e+02   9.2826972929e+00    0.1893486    0.1287317 -44.10 0.0007355697    1.613    0.380
       146 -13.1694     51.4907    228.1475   1.4441521370e+02   2.3109644678e+01    0.4545271    0.3595652 -60.28  0.002685985    1.791    0.442
       147 -10.1331     59.2305    159.5190   1.3657097196e+02   3.5907842745e+01    0.2097295    0.1530702 -79.38 0.0003837738    1.204    0.170
       148  -8.7793    171.4647    159.4243   1.1099571590e+02   1.6201502563e+01    0.1447211    0.1335055  50.86 0.0001009746    1.041    0.039
       149  -9.7073    119.9473    158.9784   1.2234414163e+02   2.6529791517e+01    0.2105619    0.1866206  75.97 0.0003788345    1.055    0.052
       150  -9.4339     82.5079    159.0963   1.3110102899e+02   3.2775531315e+01    0.1896001    0.1215272 -67.03 0.0003766925    1.490    0.329
       151 -10.4521     47.0241    158.0372   1.3919922844e+02   3.7714448035e+01    0.2992867    0.1739116 -58.92  0.001585289    1.724    0.420
       152  -9.3247     52.3709    158.2187   1.3799428816e+02   3.7044668253e+01    0.1622671    0.1405757  73.76 0.0007302464    1.126    0.112
       153  -9.3991    115.7144    157.5604   1.2307497005e+02   2.7604777853e+01    0.1861783    0.1246045  54.84 0.0003309492    1.436    0.304
       154 -10.8404     74.2362    156.4783   1.3267046785e+02   3.4565380765e+01    0.3357061    0.2019038  56.29 0.0009318906    1.621    0.383
       155  -9.8086    134.2769    155.6879   1.1844151831e+02   2.4506311554e+01    0.2296338    0.2067037 -59.43 0.0003288469    1.166    0.142
       156  -9.5109    124.8782    154.0807   1.2030808005e+02   2.6653843166e+01    0.2192999    0.1791022  74.41 0.0003148194    1.248    0.199
       157  -9.9234     62.1970    152.8549   1.3502838322e+02   3.7012929294e+01    0.3454425    0.1579861 -77.79  0.001232124    2.387    0.581
       158 -10.0974    113.6327    151.9726   1.2256548845e+02   2.9191518625e+01    0.3239959    0.2188616 -87.53 0.0009160335    1.864    0.464
       159 -11.2595    249.2068    149.7763   9.4330028601e+01   1.9769058033e+00    0.4407088    0.3062419 -49.82  0.002311788    1.829    0.453
       160  -9.5775    145.8973    152.0785   1.1508704454e+02   2.2932086486e+01    0.2196126     0.185626  77.76            0    1.268    0.212
       161 -10.9823    103.7720    150.8050   1.2471446954e+02   3.1189157055e+01     0.318912    0.2836165 -40.63  0.001123963    1.352    0.260
       162 -10.0899    106.2999    145.8807   1.2321770535e+02   3.1842347382e+01    0.3148275     0.237843 -32.94 0.0009672345    1.763    0.433
       163  -8.8899     79.7302    152.6746   1.3080839961e+02   3.4620465232e+01    0.1242033     0.101025 -40.94 0.0006748463    1.574    0.365
       164  -9.1642    119.6200    151.4441   1.2104921106e+02   2.8207576702e+01    0.1419788    0.1283648  81.73 8.421121e-05    1.044    0.042
       165  -9.4624     91.9748    150.7233   1.2754733596e+02   3.3170249399e+01    0.1943533     0.164068  58.42 0.0004423359    1.139    0.122
       166  -9.0523     75.6625    150.7241   1.3149668735e+02   3.5652086997e+01    0.1209504     0.104308 -29.00  0.000310624    1.610    0.379
       167 -13.5274     67.5622    143.7677   1.3244591823e+02   3.8359930955e+01    0.9625826    0.6594911 -81.10  0.004852734    1.376    0.274
       168 -12.1854     73.4378    139.8075   1.3035839278e+02   3.8452468719e+01    0.5225474    0.4773376  53.03  0.002185081    1.206    0.171
       169 -11.6050    133.5387    142.8450   1.1605618717e+02   2.7366414714e+01    0.9179856     0.325541 -53.43  0.003091847    3.103    0.678
       170  -9.5377     86.0002    147.7340   1.2851210851e+02   3.4784331815e+01    0.1832998    0.1613944  66.38            0    1.093    0.085
       171  -9.6041    142.7650    146.9898   1.1476132064e+02   2.4622044046e+01    0.1925545    0.1239144 -49.38 0.0006176218    1.622    0.383
       172 -10.7909     40.5116    146.8415   1.3945434589e+02   4.0932030415e+01    0.2126953    0.1672659  48.91  0.001140577    1.353    0.261
       173 -11.7006    248.1768    141.1834   9.2630149376e+01   3.4269368846e+00    0.8777274    0.2761326  40.77  0.003057204    3.551    0.718
       174 -12.5647    248.6304    134.3789   9.1048370561e+01   4.3480496870e+00    0.8177336     0.543918 -17.99  0.004192384    1.531    0.347
       175  -8.8003     47.3171    143.2670   1.3737723847e+02   4.0988358280e+01    0.1138264   0.09156783 -44.95 0.0002036255    1.553    0.356
       176 -10.0125     21.9528    144.0228   1.4354641879e+02   4.3373679050e+01    0.1851565     0.123509 -49.18   0.00114691    1.812    0.448
       177 -12.7110     49.5888    138.5311   1.3619455175e+02   4.1806371634e+01    0.6471002     0.259638  34.88   0.00295679    2.685    0.628
       178  -9.9597     26.1772    139.8274   1.4212088097e+02   4.3926105830e+01    0.1583641     0.121558 -61.14 0.0005616698    1.347    0.257
       179 -10.3666    119.1655    138.0659   1.1854025489e+02   3.1218532687e+01      0.26677    0.2547753  -2.89  0.001125686    1.251    0.200
       180 -11.2255    113.3225    136.2918   1.1962636879e+02   3.2710879099e+01    0.4098558    0.3227554  44.29  0.001450561    1.285    0.222
       181 -12.0967     59.2534    135.0984   1.3324624702e+02   4.1430850367e+01    0.5632281    0.2531173 -72.66  0.001953311    2.236    0.553
       182 -11.6159     56.0436    149.6484   1.3607876383e+02   3.8512751301e+01     0.412818     0.333234  87.52  0.001646033    1.046    0.044
       183 -10.3843    136.6967    134.1572   1.1344147061e+02   2.8581884144e+01      0.31679    0.2166436  34.99   0.00107255    1.612    0.380
       184  -9.4129     97.8075    134.4155   1.2317987852e+02   3.5892375474e+01     0.179215    0.1376212  30.54 0.0002093447    1.539    0.350
       185 -12.2115     44.9692    130.2118   1.3623370620e+02   4.4230053544e+01    0.5574449     0.276575 -68.31  0.001599942    1.716    0.417
       186  -9.4455    129.9800    132.0287   1.1459829505e+02   3.0415748324e+01    0.2174868    0.2093426  80.42  0.001209848    1.023    0.023
       187  -9.5878    107.5519    129.9116   1.1977388224e+02   3.5201608160e+01    0.2997316    0.1766721  59.02  0.001120191    1.950    0.487
       188 -11.8495     66.2082    127.2936   1.3016802958e+02   4.2334074567e+01    0.5383003     0.315298 -86.59  0.002463314    2.060    0.515
       189 -10.2925    118.4895    128.4939   1.1668080031e+02   3.3468335814e+01     0.254838    0.1343701 -41.39 0.0006487858    2.166    0.538
       190 -11.3443     32.9954    127.1160   1.3893732200e+02   4.6161448040e+01     0.336026    0.1794862  86.15  0.001695741    2.030    0.507
       191  -9.0961     93.2523    127.3963   1.2298480246e+02   3.8260328216e+01    0.1772862    0.1287067  54.47 0.0002596473    1.406    0.289
       192  -9.9455     86.1449    126.6221   1.2471700114e+02   3.9588326001e+01    0.2799129    0.2190932  -3.08 0.0009856671    1.966    0.491
       193 -11.3912     37.9052    125.8903   1.3748908273e+02   4.5961182092e+01    0.3328489    0.1621013  70.32  0.001469392    2.796    0.642
       194 -10.3918    209.8194    125.6807   9.5726142577e+01   1.3951943006e+01     0.276454    0.2412198  -9.71 0.0004377289    1.182    0.154
       195 -11.3676    121.7069    232.0198   1.3222738363e+02   1.2440927119e+01    0.3016403    0.2272701  38.20  0.001707059    1.350    0.259
       196 -10.1051     27.7154    126.3972   1.4021897473e+02   4.6813173658e+01    0.1992447    0.1053103  38.37 0.0009495547    2.059    0.514
       197 -11.3694    245.1744    121.1073   8.8574442139e+01   7.0519208162e+00    0.4823416    0.3531754  56.63  0.001802149    1.543    0.352
       198 -11.8378    248.5484    112.8384   8.6127625696e+01   7.6169918226e+00     0.553691    0.4320514 -18.64   0.00283418    1.246    0.198
       199  -9.1063    114.7644    122.9744   1.1640857330e+02   3.5415138407e+01    0.1852706    0.1205897 -52.23  0.000218705    1.511    0.338
       200  -9.6717     50.3695    122.6823   1.3368105034e+02   4.5363905792e+01    0.2037233    0.1334863  76.52  0.001090075    1.683    0.406
       201 -10.2174    249.5457    117.4966   8.7060621375e+01   6.7043193004e+00    0.2263482     0.199665  24.90  0.000610659    1.172    0.147
       202  -9.7346    143.0018    119.9577   1.0861606141e+02   3.0265608731e+01    0.4475435    0.1831699 -56.03  0.001164666    3.342    0.701
       203 -10.6957     58.4369    118.9774   1.3085283416e+02   4.5263255638e+01    0.3846037     0.198102 -38.74  0.001595792    2.793    0.642
       204  -9.9836    130.8291    119.1929   1.1142792820e+02   3.3030548797e+01     0.195626    0.1790041  -9.87 0.0002354576    1.278    0.218
       205 -11.1038     32.8302    115.1585   1.3736282597e+02   4.8911771858e+01    0.3601113    0.1667059 -40.01  0.001583475    3.119    0.679
       206  -9.6703     85.7348    117.9709   1.2308887152e+02   4.1647790820e+01    0.3719693    0.1488177  53.08  0.001084277    3.347    0.701
       207  -9.3036    111.8563    115.9269   1.1554995290e+02   3.7547194902e+01    0.2007297    0.1681203 -86.39 0.0003760455    1.287    0.223
       208 -16.0627     60.0037    215.0304   1.4192817065e+02   2.4425832577e+01     5.432856     2.843724  58.18   0.03258101    1.550    0.355
       209 -10.8185    168.4904    113.4985   1.0109006421e+02   2.5790213968e+01     0.407346    0.3071217  86.86  0.001281793    1.774    0.436
       210  -9.4364     72.4026    115.2815   1.2625775479e+02   4.4269836574e+01    0.1350088    0.1038743 -23.75   0.00037345    1.778    0.437
       211  -9.8565     82.1341    114.1578   1.2329060361e+02   4.3090052955e+01    0.1942644     0.178776 -54.36            0    1.118    0.105
       212 -11.6024     59.5163    111.0772   1.2911619087e+02   4.6962022461e+01    0.5368267    0.3167426  79.93  0.002415107    2.448    0.592
       213 -10.5523     70.0697    111.0487   1.2607340142e+02   4.5577294032e+01    0.2018299     0.180888 -76.69 0.0003017019    1.024    0.024
       214  -9.6516     79.9409    108.9446   1.2279349962e+02   4.4627051226e+01    0.2057517    0.1817984 -79.78 0.0003289479    1.085    0.079
       215  -9.1574    203.5076    111.4851   9.3418112851e+01   1.7883331726e+01    0.1506539    0.1456001   4.26 0.0008102427    1.032    0.031
       216 -10.4056    190.9353    227.9958   1.1910192555e+02   1.4830524809e+00    0.1812726    0.1455579  36.27 0.0003124189    1.020    0.020
       217  -9.2426    114.6645    107.2785   1.1269411205e+02   3.8925332113e+01      0.15075    0.1158601  82.19 0.0002243331    1.611    0.379
       218 -10.5738    134.5211    104.9582   1.0690032676e+02   3.5294971418e+01    0.3980647    0.1503293 -44.45   0.00127061    2.641    0.621
       219 -11.3954    248.1387     99.8488   8.3114184144e+01   9.6808994251e+00    0.5501771    0.3917525 -13.91  0.002788658    1.546    0.353
       220  -9.6317    250.4791    104.5043   8.3880114517e+01   8.4782103198e+00    0.2106018    0.1278043 -21.13 0.0009732828    1.744    0.427
       221  -9.6432    112.2054    104.3869   1.1262649670e+02   4.0044704643e+01    0.2105701    0.1382234  54.83 0.0009467688    1.652    0.395
       222 -10.0377     76.1602     98.9908   1.2165229957e+02   4.7473963263e+01    0.2011753    0.1820009 -65.86 0.0005194964    1.018    0.017
       223  -9.5272     63.4946     98.0639   1.2528101756e+02   4.9453720678e+01    0.2004391    0.1190077 -59.06 0.0009979623    1.488    0.328
       224  -9.3580    101.9934     87.9732   1.1110357039e+02   4.5577715346e+01    0.2102816    0.1714534 -83.25 0.0003172407    1.477    0.323
       225  -9.2630     52.8054     82.6205   1.2514322868e+02   5.4265932125e+01    0.1586323    0.1198353  47.62            0    1.537    0.350
       226 -10.4154    205.0237    249.3345   1.1968744928e+02  -3.4252966556e+00     0.165702    0.1125275  36.51 0.0002054056    1.112    0.101
       227 -11.1930    221.1568    245.9105   1.1650273423e+02  -5.5394010810e+00    0.3182203    0.1656482   9.81  0.001502588    3.297    0.697
       228 -10.3554    108.0285    241.7949   1.3567553834e+02   1.2994167584e+01    0.3092022    0.1462886 -70.68  0.001660255    2.771    0.639
