#   1 NUMBER                 Running object number                                     
#   2 MAG_AUTO               Kron-like elliptical aperture magnitude                    [mag]
#   3 X_IMAGE                Object position along x                                    [pixel]
#   4 Y_IMAGE                Object position along y                                    [pixel]
#   5 X_WORLD                Barycenter position along world x axis                     [deg]
#   6 Y_WORLD                Barycenter position along world y axis                     [deg]
#   7 A_WORLD                Profile RMS along major axis (world units)                 [deg]
#   8 B_WORLD                Profile RMS along minor axis (world units)                 [deg]
#   9 THETA_WORLD            Position angle (CCW/world-x)                               [deg]
#  10 FWHM_WORLD             FWHM assuming a gaussian core                              [deg]
#  11 ELONGATION             A_IMAGE/B_IMAGE                                           
#  12 ELLIPTICITY            1 - B_IMAGE/A_IMAGE                                       
         1 -14.1293    225.6748     27.5729   9.3958731672e+00   2.4798824136e+01    0.8572483    0.5916464  85.69  0.004807798    1.504    0.335
         2 -13.9436    226.9530     21.1629   7.6975210336e+00   2.5224229432e+01    0.7486263    0.4338677  81.68  0.003213468    1.803    0.445
         3 -13.1395     29.2501     14.9463   5.3669958072e+01   7.1871965743e+01    0.4357403    0.2127614  36.75  0.001247295    2.231    0.552
         4 -11.3581    249.9956     10.9640   3.6846703274e+00   2.1326569459e+01    0.1509747    0.1197313 -49.23 0.0005192524    1.045    0.043
         5 -11.1082     50.3197      9.6592   3.9198398790e+01   6.9472209222e+01    0.1199603    0.1049695 -65.20 0.0005310713    1.716    0.417
         6 -11.6641     71.6656      7.3963   2.9120155239e+01   6.5536293586e+01    0.2580163    0.1278535  59.08  0.001138507    2.159    0.537
         7 -11.6548     60.3330      2.3320   3.0492510732e+01   6.8456659832e+01    0.2745189   0.07916697  42.31 0.0009783151    3.248    0.692
         8 -10.6217     41.6694      1.6714   3.8610613013e+01   7.2017787289e+01    0.1347971   0.08537428  10.52            0    1.713    0.416
         9 -11.9710     46.4167    236.8938   8.8057604492e+01   2.0995648303e+01    0.1385459    0.1065421  87.23  0.001035716    1.350    0.259
        10 -16.0214    119.6564    235.3654   7.3517770634e+01   1.1753209190e+01     4.184713     3.464204 -71.07   0.02977511    1.559    0.359
        11 -10.6756    210.9125    198.6680   5.0482420596e+01   3.1925757975e+00    0.1944335    0.1467896  -2.98 0.0004507151    1.207    0.172
        12 -13.4864     82.4709    194.6866   7.6972187226e+01   2.4361549816e+01    0.3745202    0.3178195  85.24  0.001572625    1.206    0.171
        13 -10.1691     69.5181    195.5694   8.0035168285e+01   2.5950865032e+01    0.3568147    0.1267084 -71.92  0.001446971    3.394    0.705
        14 -10.6010     75.2362    250.1867   8.3452459972e+01   1.5367515387e+01    0.1353872   0.08583681 -89.60 0.0007967222    1.903    0.474
        15 -10.3599     48.1234    193.3522   8.4713680862e+01   2.9064377982e+01    0.1693952    0.1260132  48.68 0.0007645582    1.153    0.132
        16 -19.1932     13.1698    141.9776   8.9324625466e+01   4.4001792669e+01     16.23096     3.849031 -82.60   0.05259493    4.588    0.782
        17  -9.9632     53.7633    230.6926   8.6248294911e+01   2.1234461332e+01    0.2098341     0.107478 -89.71    0.0011967    2.252    0.556
        18 -11.3728    249.0000    235.0002   4.9971862598e+01  -6.1760424231e+00    0.1553594   0.05309447 -30.11 0.0008049529    2.960    0.662
        19 -15.8666     64.7845    153.9527   7.6388679964e+01   3.5692561334e+01     3.546632     1.104025  49.04   0.01093765    3.515    0.715
        20 -11.8424     71.2863    237.1657   8.3258107440e+01   1.7987292388e+01     0.293026    0.1276923 -62.61  0.001613046    2.718    0.632
        21 -12.1003    173.7469    177.6969   5.3913750350e+01   1.2498728394e+01    0.5924917    0.3406151 -43.83  0.002908159    1.947    0.486
        22 -12.6418    116.0256    181.9157   6.7465288460e+01   2.1776819393e+01     0.308195    0.2140976  29.90 0.0009119872    1.418    0.295
        23 -13.2285     97.3207    178.7029   7.1456192562e+01   2.5437959441e+01    0.5867233    0.3807886 -82.05  0.002927628    1.961    0.490
        24  -9.9153     63.6319    181.7559   8.0001118637e+01   2.9607102262e+01    0.1578641    0.1109913  87.56 0.0002038287    1.448    0.309
        25 -11.6344    145.7690    178.4650   6.0077867123e+01   1.7333278547e+01    0.2281514     0.192027 -47.56 0.0006009447    1.344    0.256
        26 -10.5667     75.9856    174.5136   7.6141973759e+01   2.9504883220e+01    0.2172353    0.1928449 -79.11 0.0007308983    1.172    0.147
        27 -11.0554     76.4708    170.9915   7.5574652888e+01   3.0207933339e+01    0.2341266    0.1992879  81.04 0.0006178222    1.136    0.119
        28 -10.1350     56.4206    235.1997   8.6023051364e+01   2.0133255834e+01    0.1920146    0.1132791  67.33   0.00121855    1.590    0.371
        29 -12.6437    104.7858    171.9220   6.8638825436e+01   2.5667766970e+01    0.3923453     0.291985 -43.34  0.002113451    1.563    0.360
        30 -11.5915    181.0000    170.9873   5.1161222370e+01   1.2319239506e+01    0.3228656    0.2349699  -6.38  0.001301211    1.551    0.355
        31 -11.8507    179.2302    167.3302   5.0813587229e+01   1.3252021736e+01    0.4258228    0.3080635  45.51  0.002224959    1.410    0.291
        32 -11.5418    139.9883    172.0656   6.0267066358e+01   1.9565220845e+01    0.2152732    0.1929291  33.07   0.00038384    1.010    0.009
        33 -12.3236    110.7318    167.3196   6.6441529081e+01   2.5647919582e+01    0.3840161    0.2785953 -87.69  0.001080083    1.785    0.440
        34 -11.8496    116.2071    166.0301   6.4876225248e+01   2.4981153459e+01    0.3486895    0.2702401  89.91  0.001139809    1.609    0.378
        35 -11.8932     44.9881    164.2697   8.2844111770e+01   3.5757040195e+01    0.3143212    0.2240055  55.66  0.001028845    1.257    0.205
        36 -11.4527    162.4743    161.4447   5.3209460101e+01   1.7405850764e+01    0.4645166    0.2479432 -56.20   0.00179821    2.683    0.627
        37 -10.0889     51.1910    200.2740   8.4583943229e+01   2.7291110711e+01    0.2742172    0.1107819 -66.43  0.001335454    2.547    0.607
        38 -10.9352     46.7785    229.0649   8.7521876462e+01   2.2330458807e+01    0.2843786    0.1253449  36.74  0.001593662    1.833    0.454
        39 -12.6848    133.8142    144.9077   5.6525161931e+01   2.6168557295e+01     1.046612    0.2696567 -51.50  0.002897363    4.698    0.787
        40 -12.2847     91.0918    146.1572   6.7973513538e+01   3.3599599396e+01      0.38683    0.3185118 -61.11 0.0007551712    1.245    0.197
        41 -13.2201     95.0419    143.3834   6.6393195726e+01   3.3585711842e+01    0.7835913    0.4127169  57.02  0.002178349    2.344    0.573
        42 -12.1712    109.0211    145.2141   6.2956642172e+01   3.0746207840e+01    0.3473102    0.3157165   3.07  0.001480954    1.254    0.203
        43 -11.0754    153.9982    145.2807   5.1779356305e+01   2.2107293312e+01    0.2398651    0.2101541 -53.66 0.0002198856    1.269    0.212
        44 -10.2522    148.3300    145.7000   5.3187901000e+01   2.3153121993e+01    0.1459662    0.1169719  76.31 0.0005341345    1.644    0.392
        45 -11.6791    172.8260    128.2677   4.3739749171e+01   2.1462108673e+01    0.6215207       0.3739  73.49  0.002097124    3.782    0.736
        46 -11.9331    164.3127    111.0010   4.1326632537e+01   2.6551562739e+01    0.9417734    0.2137799 -41.35  0.002525185    4.340    0.770
        47 -13.2803    166.0105    124.9827   4.4433493561e+01   2.3528112571e+01     2.072772     1.037612  21.32   0.00541944    5.631    0.822
        48 -13.1603    161.1096    123.6870   4.5213381564e+01   2.4829774769e+01     1.544232    0.5864111 -52.45  0.004535334    4.092    0.756
        49 -13.6863    160.3107    117.9298   4.3977667364e+01   2.6115280423e+01     1.558576    0.9477186  84.02  0.004354608    5.402    0.815
        50 -12.3409     93.0175    132.1365   6.4822056700e+01   3.6540093534e+01     0.330817    0.2825302 -88.41 0.0003637296    1.240    0.194
        51 -11.6348    137.4087    129.9866   5.2358067125e+01   2.8572007600e+01    0.3148955    0.2977544  40.31 0.0004962293    1.026    0.025
        52 -11.6392    135.2985    124.8371   5.1685144910e+01   3.0091528294e+01    0.4367177    0.1404372 -51.94   0.00125178    3.945    0.746
        53 -11.3996    113.3489    126.0477   5.7790133381e+01   3.4243604978e+01      0.28372    0.2134904  20.44 0.0008294625    1.581    0.368
        54 -11.1356    100.5493    121.2357   6.0338023082e+01   3.7753785983e+01    0.2677681    0.2312245  11.94 0.0007306065    1.338    0.253
        55 -12.0948     76.5165    120.4966   6.7425206212e+01   4.2005473905e+01    0.2613205    0.2468756  88.74 0.0008863236    1.015    0.015
        56 -11.1547     99.3238    148.9395   6.6233900377e+01   3.1598105019e+01    0.1966975    0.1851827 -74.13 0.0005562615    1.095    0.087
        57 -10.5537    108.8324    116.1043   5.6749665618e+01   3.7368060321e+01     0.218378    0.2012265  83.49 0.0002550551    1.147    0.128
        58 -12.3309    115.1501    108.3424   5.3013403115e+01   3.7850163732e+01    0.4705107    0.2988577  69.22  0.001815572    2.414    0.586
        59 -11.4677    133.8041    104.7119   4.6979145392e+01   3.4647014068e+01    0.3725417    0.2485966 -67.28  0.001495266    2.105    0.525
        60 -12.7677    105.5286    131.7382   6.1199478159e+01   3.4421997500e+01    0.5998196    0.3835709 -42.10  0.001737414    1.714    0.417
        61 -12.2922     66.2038    104.2000   6.7351927368e+01   4.7522756233e+01    0.3380269    0.2699318 -57.47  0.001187065    1.189    0.159
        62 -11.5658     66.6161    100.1771   6.6307486788e+01   4.8442008112e+01    0.2489974    0.2003842  36.95 0.0006234998    1.298    0.230
        63 -12.5474    118.3618    103.1972   5.0751267979e+01   3.8313771560e+01    0.3317218    0.2838728 -63.99   0.00164841    1.261    0.207
        64  -9.6743     43.1787    226.1332   8.8055484065e+01   2.3263930167e+01    0.1568298     0.124621 -68.62 0.0007474933    1.542    0.351
        65 -10.5307     76.0089     98.8097   6.2770944929e+01   4.7319279783e+01    0.2456956    0.1588538  62.33 0.0006284519    2.014    0.504
        66 -11.7268    120.6605     98.0834   4.8707159528e+01   3.8927621982e+01    0.2733476    0.2196807  59.29 0.0009245374    1.334    0.250
        67 -12.3759     59.8898     87.8335   6.5756259488e+01   5.2394069136e+01    0.4724984    0.3652625 -67.04  0.001885353    1.291    0.226
        68 -10.5392     72.6868     95.0202   6.2968073566e+01   4.8757219599e+01    0.2077948    0.1788752 -54.25 0.0004064544    1.112    0.101
        69 -11.4987     93.2271    236.1640   7.8846250034e+01   1.5300938171e+01    0.3018475     0.215479 -23.98   0.00181463    2.405    0.584
        70 -12.9756     56.8714     95.4411   6.8666128979e+01   5.0962913663e+01    0.5651514    0.3675392  80.79   0.00251496    2.172    0.540
        71 -12.9280     46.4984     91.5859   7.1623025476e+01   5.3204885701e+01    0.4365033    0.3351234  16.31  0.001237255    1.506    0.336
        72 -12.3150     39.3212     88.6698   7.3721976528e+01   5.4719032833e+01    0.3367021    0.2398666  25.15  0.001134388    1.564    0.361
        73 -16.4364     68.2907    138.2879   7.3097768711e+01   3.8921035677e+01     3.258808     2.075867  81.80   0.01515538    1.936    0.484
        74 -10.3014    124.1747     86.3906   4.4346145206e+01   4.0597134702e+01    0.2131806    0.1473913  59.52 0.0003892359    1.612    0.380
        75 -11.9751     39.6176     83.3606   7.2469687297e+01   5.5985181299e+01    0.2616709    0.1733104  14.44  0.001011091    1.809    0.447
        76 -12.2847     39.3918     96.2366   7.5192234410e+01   5.2846986289e+01     0.291167    0.2283408 -71.90 0.0009624721    1.172    0.147
        77 -10.5065     93.1122     80.6748   5.1984172242e+01   4.8428845212e+01    0.2412107    0.2063694 -62.76 0.0004434597    1.254    0.203
        78 -10.5746    175.0125    223.0040   6.1077649321e+01   5.3629887587e+00    0.1865219    0.1266237   9.02 0.0004920447    1.577    0.366
        79 -10.7257     81.8850     73.7770   5.3678583695e+01   5.2074377004e+01    0.2623384    0.2035424  60.48 0.0006932341    1.532    0.347
        80 -10.8056     91.9302     70.1510   4.9006110137e+01   5.0916393010e+01    0.2241591    0.2040202  87.68 0.0004523404    1.276    0.216
        81 -12.8896    180.6853     63.9509   2.5022120568e+01   3.0806057217e+01    0.4274201    0.3903233 -33.08 0.0007897439    1.086    0.079
        82 -11.4767     89.6345    222.6736   7.8314906004e+01   1.8084963778e+01    0.2714613    0.1952492  74.40 0.0005238549    1.515    0.340
        83 -14.3413    197.4145     51.4417   1.8881672614e+01   2.8492083976e+01     1.235029    0.8841855  37.73  0.003887611    1.647    0.393
        84 -13.2090    203.1513     46.3785   1.6725870645e+01   2.7779338384e+01    0.5094414      0.47707  63.69    0.0012166    1.132    0.116
        85 -10.7621     86.8761    218.1269   7.8451045900e+01   1.9274525312e+01    0.1861773    0.1425701  51.72  0.000268723    1.073    0.068
        86 -10.2575     85.0639     57.5352   4.6958413676e+01   5.4855219011e+01    0.2252957    0.1443289  46.49  0.001023511    1.611    0.379
        87 -11.5830     69.7089     56.8872   5.2502337746e+01   5.7852173002e+01    0.3037753    0.2041733  44.26  0.001212294    1.591    0.372
        88 -10.5673     45.0137     51.0870   6.1048192704e+01   6.2831933517e+01    0.2328237    0.1505249 -23.43  0.001137035    1.783    0.439
        89 -10.9976    191.2708    221.2139   5.7748516564e+01   3.1732052928e+00    0.3691165     0.141834 -42.92  0.001722005    3.255    0.693
        90 -10.6684    237.5184    249.5020   5.3938983330e+01  -6.2026123595e+00    0.1075218   0.07455526  13.56 0.0001657649    1.019    0.018
        91 -11.1064    164.6321    248.3889   6.6411098068e+01   3.5051649479e+00    0.1972179    0.1547383  17.56   0.00052724    1.161    0.138
        92 -11.5852     60.5891     21.4489   4.0958478546e+01   6.5913473742e+01    0.2422469    0.2147132   8.53 0.0007668076    1.023    0.022
        93 -12.3409    241.6828    246.5912   5.2855113727e+01  -6.4218311508e+00    0.2618331    0.1647767 -25.29  0.001528435    1.724    0.420
        94  99.0000     50.9067    245.1522   8.7685407656e+01   1.9087853125e+01    0.2779807   0.07300764  43.10  0.001355198    2.422    0.587
        95 -10.2765    191.0000    241.9369   6.0779139655e+01   6.2547213933e-01     0.209444   0.06383421 -39.84 0.0009443754    4.013    0.751
        96 -11.2965     54.6800    241.5472   8.6760568099e+01   1.9254797225e+01    0.1591005   0.07846016 -55.64 0.0009090688    2.782    0.641
        97 -11.2811    194.8599    198.0741   5.3348380513e+01   5.7884102848e+00    0.2583817    0.1791947 -50.23  0.001384639    2.052    0.513
        98 -12.6180    152.0743    237.8950   6.7480407656e+01   6.6909226377e+00    0.3017883    0.2044113  -2.18  0.001193348    2.014    0.504
