#   1 NUMBER                 Running object number                                     
#   2 MAG_AUTO               Kron-like elliptical aperture magnitude                    [mag]
#   3 X_IMAGE                Object position along x                                    [pixel]
#   4 Y_IMAGE                Object position along y                                    [pixel]
#   5 X_WORLD                Barycenter position along world x axis                     [deg]
#   6 Y_WORLD                Barycenter position along world y axis                     [deg]
#   7 A_WORLD                Profile RMS along major axis (world units)                 [deg]
#   8 B_WORLD                Profile RMS along minor axis (world units)                 [deg]
#   9 THETA_WORLD            Position angle (CCW/world-x)                               [deg]
#  10 FWHM_WORLD             FWHM assuming a gaussian core                              [deg]
#  11 ELONGATION             A_IMAGE/B_IMAGE                                           
#  12 ELLIPTICITY            1 - B_IMAGE/A_IMAGE                                       
         1 -15.3541    174.5963     70.4680   7.6949785524e+01   3.2062636589e+01     9.892813      4.87064 -55.91   0.03126395    3.773    0.735
         2 -14.0906    247.9549     45.7129   5.8617350666e+01   1.7155137939e+01     1.848218     1.205059  -2.89  0.001855242    1.674    0.403
         3 -12.1934    209.5513      1.9120   5.0446830599e+01   3.1009070428e+01     0.818949    0.3889179  43.04 0.0006138694    2.254    0.556
         4 -15.8886    211.4352     66.1838   6.9170719009e+01   2.3523945993e+01     10.99205     4.867476 -47.58   0.03421253    3.017    0.669
         5 -13.7723    220.8365     36.2141   5.9238102975e+01   2.4776678540e+01     1.428718    0.6443681 -36.46  0.005776751    2.124    0.529
         6 -13.2270    216.0687      7.9421   5.1570730690e+01   2.8801653151e+01    0.8768898    0.4467374 -31.31  0.001472667    1.868    0.465
         7 -14.5927    233.5896      6.0008   4.9380813371e+01   2.4536887651e+01     1.078492     0.965395  58.75  0.002841481    1.139    0.122
         8 -15.9548    243.1742     21.2068   5.2607379869e+01   2.0801993793e+01     4.943846     1.175874  60.84  0.008956294    3.558    0.719
         9 -13.6468    248.9246      2.6495   4.7249710326e+01   2.1115783003e+01    0.6826237    0.5526356  52.29  0.002638332    1.309    0.236
        10 -14.6043    225.7007     46.9582   6.1669084120e+01   2.2355089605e+01     5.354537     2.507371   2.77   0.01684766    4.001    0.750
        11 -12.9460    228.6466     17.9135   5.3142832567e+01   2.4683471711e+01    0.4240211    0.2890143 -54.44 0.0007135117    1.575    0.365
        12  -9.3907    115.6710     12.6850   6.9141618828e+01   5.4380940581e+01    0.2874927      0.20908  30.16 0.0007431002    1.320    0.242
        13 -11.1943    120.2316      8.9304   6.6482265597e+01   5.3709338510e+01    0.5060331    0.4097014  23.11  0.001502356    1.151    0.131
        14  -9.9699    171.9647      2.6121   5.5001157859e+01   4.0964251351e+01    0.3894742    0.2057325 -27.41  0.001692731    1.902    0.474
        15 -10.4381    182.7714      3.2151   5.3815476190e+01   3.8013751867e+01    0.5180044      0.34983 -85.94  0.001840679    1.708    0.415
        16 -10.3780    188.8661      2.2394   5.2766038945e+01   3.6460899676e+01    0.3049449    0.2402499   7.59 0.0007927791    1.358    0.264
        17  -9.9132    133.9845    147.9931   1.0458042393e+02   2.7413557278e+01    0.4813975    0.1910957 -53.26  0.001952944    2.984    0.665
        18 -13.4238     52.0266    163.6070   1.2401411083e+02   3.6521690086e+01    0.8598983    0.7151435 -44.60  0.005360328    1.678    0.404
        19  -9.0231    200.4187    173.7672   9.6411370660e+01   1.1066384859e+01    0.1707524    0.1168611 -13.24 0.0009612484    1.724    0.420
        20 -10.1630    244.4064    172.1469   8.8734228364e+01   3.2905176696e+00    0.2817529    0.1499919  24.92  0.001192177    1.815    0.449
        21 -10.6881    230.6606    167.6184   9.0091808340e+01   6.2400058229e+00    0.2674867    0.2091473 -35.08   0.00166641    1.591    0.372
        22 -10.8425    213.4596    167.2555   9.2926407503e+01   9.4613644426e+00    0.5442414    0.3116124  64.94  0.002281139    3.382    0.704
        23 -12.8228    192.8318     71.2708   7.3758840068e+01   2.7435042908e+01     1.140771    0.9735904  52.65  0.004694787    1.185    0.156
        24  -9.2869     71.9899    249.5151   1.2721798069e+02   2.0456536469e+01    0.1175693   0.07545511  26.65 0.0008103738    2.566    0.610
        25  -9.6122    133.3164    142.1487   1.0364493982e+02   2.8577488564e+01    0.4792643    0.2024536 -58.28  0.001805651    3.437    0.709
        26  -9.0360    151.9975    149.9373   1.0119790568e+02   2.3748736025e+01    0.2006576    0.1574253  77.61 0.0006569392    1.613    0.380
        27  -9.0186    222.7731    145.3335   8.6922131376e+01   1.0413294105e+01    0.1915929    0.1558878  50.04 0.0006441763    1.353    0.261
        28 -10.5186    198.5668    144.1558   9.0963899768e+01   1.5426245012e+01     0.317735    0.2512305  68.17  0.001736329    1.664    0.399
        29 -10.2093    191.9866    144.0337   9.2160656047e+01   1.6778116229e+01    0.2823975    0.1854682  53.35  0.000498765    1.565    0.361
        30 -11.2204    157.1071    140.1886   9.8239805218e+01   2.4396911567e+01    0.7151807    0.4526561  86.33  0.002649806    3.914    0.745
        31 -11.9445    242.4379    241.1547   1.0028591854e+02  -2.6851526230e+00    0.2031302    0.1481478  32.06 0.0002593511    1.174    0.148
        32 -10.5775    147.2324    137.9717   9.9856686783e+01   2.6703576266e+01     0.549167    0.3510619  89.62  0.002153759    3.452    0.710
        33 -11.8084    211.7416    136.5504   8.6945890943e+01   1.3787302275e+01    0.6134031    0.3654346  34.96  0.002510028    1.576    0.365
        34 -11.1860    188.3815    138.2051   9.1604536936e+01   1.8376241167e+01    0.3870693    0.2885428  47.56  0.001562921    1.274    0.215
        35 -11.5186    166.6900    137.0779   9.5633578814e+01   2.2998064181e+01    0.5850922    0.3716037 -66.44  0.002526305    2.730    0.634
        36 -10.5414    173.9056    137.2352   9.4217137651e+01   2.1503404907e+01    0.2741173    0.2381542 -49.98  0.001187232    1.333    0.250
        37 -10.7751    220.5948    131.9826   8.4387502842e+01   1.2572581041e+01    0.4878942    0.2618448 -42.78  0.002196569    2.309    0.567
        38 -10.5177    222.4784    128.2510   8.3223041436e+01   1.2671707192e+01    0.3868001    0.2137439  60.89  0.001674665    2.414    0.586
        39 -10.8015    190.5078    131.4720   8.9721801931e+01   1.8942606148e+01    0.2774064    0.2588705 -84.16  0.001631781    1.357    0.263
        40 -11.1305    152.2995    125.2689   9.6086041885e+01   2.7922424126e+01    0.6428223    0.3868565 -64.57  0.002671752    2.699    0.629
        41 -11.1440    160.6073    128.1839   9.4967913967e+01   2.5721636681e+01    0.3620717    0.3239388  52.36  0.001755524    1.114    0.102
        42 -10.8605    135.3167    124.8651   9.9733166005e+01   3.1356764361e+01     1.031636    0.2830925 -50.62  0.003118803    4.591    0.782
        43  -9.6711    131.6401    119.8069   9.9469793731e+01   3.3004049104e+01    0.3886701    0.2219735 -68.14  0.001522762    3.013    0.668
        44 -10.1693    154.9432    218.7807   1.1115861472e+02   1.3070862012e+01    0.1723191    0.1619413  42.45 0.0003395782    1.228    0.186
        45 -10.7277    141.5083    121.9607   9.7714999799e+01   3.0680165796e+01    0.6149933    0.3772667 -81.56  0.002139888    4.110    0.757
        46  -9.7399     33.3207    218.4327   1.3132338656e+02   2.9169860066e+01    0.1686056   0.08058473  36.94  0.001146787    2.132    0.531
        47 -10.8320    226.2606    121.9164   8.1127553582e+01   1.2706821815e+01    0.4546509    0.2482237  44.70  0.002139394    1.706    0.414
        48 -11.5082    167.2034    114.0881   9.0326466912e+01   2.6709068579e+01    0.4925181    0.4661134  61.73  0.001003359    1.142    0.124
        49 -10.0578    174.6632    115.1427   8.9045106775e+01   2.4909371683e+01    0.3102263    0.2464097 -70.34  0.001290101    1.729    0.422
        50 -10.2373    156.9455    113.1784   9.2286649713e+01   2.9069865358e+01    0.5090991    0.3073741 -63.18  0.002045252    2.705    0.630
        51  -9.7743      7.5791    115.8285   1.2924448532e+02   5.0019883904e+01    0.1548256   0.08034962 -89.32  0.000542862    1.671    0.401
        52 -10.6486    134.9071    108.6952   9.6159951820e+01   3.4444497335e+01     1.131876    0.2569491 -43.02  0.003260932    4.529    0.779
        53  -9.9039    126.1672    110.1121   9.8554818512e+01   3.5891698480e+01    0.2039504    0.1888523 -11.55 0.0004015887    1.180    0.153
        54 -10.4703     37.4473    214.5158   1.3045303315e+02   2.9355447614e+01    0.2443524   0.08818914  34.61  0.001362744    3.091    0.676
        55 -10.3911    124.7464    102.8673   9.7166634013e+01   3.7554416547e+01    0.4792019    0.3408916  60.63  0.002400254    1.590    0.371
        56  -9.1901    141.5517    104.3343   9.3551217827e+01   3.3894258639e+01    0.2432999    0.1674723  27.25  0.000674903    1.715    0.417
        57 -10.1490    147.6539    100.0695   9.1070965219e+01   3.3375825516e+01    0.3122497    0.2844227 -59.70 0.0005909266    1.205    0.170
        58  -9.4888    134.0492     96.3909   9.3282744602e+01   3.6915986628e+01     0.265779    0.2106722 -41.52 9.844002e-05    1.271    0.213
        59 -11.1347    157.8620     93.0559   8.6932862130e+01   3.2356127925e+01    0.5316681    0.4313858  11.85  0.002711258    1.376    0.273
        60 -12.0423      4.8833     91.3299   1.2744437948e+02   5.5246318817e+01    0.5398576    0.3112924 -55.64  0.003561622    1.580    0.367
        61 -10.5178    141.0672     89.5279   8.9777308287e+01   3.6692246842e+01    0.3681927    0.3059522 -89.94 0.0007197454    1.541    0.351
        62 -12.0108    155.8655     83.1421   8.4604408885e+01   3.4501471803e+01    0.5162026      0.46922  56.61 0.0006548008    1.153    0.133
        63 -11.2732      7.2747     74.7103   1.2460417204e+02   5.8587643482e+01    0.2882918    0.1636026  77.32  0.001699215    2.057    0.514
        64 -10.0712      1.7881     75.4656   1.2638993554e+02   5.8743398718e+01    0.2094921   0.09249442 -48.42  0.001183674    2.167    0.539
        65 -10.0612    191.7688    192.6738   1.0114641166e+02   1.0236737600e+01    0.4712336    0.2708094 -63.14  0.001888143    5.094    0.804
        66 -13.4256     11.5736    190.5078   1.3343558379e+02   3.5724938939e+01    0.7289312    0.4993191  68.53  0.003973015    1.067    0.063
        67  -8.0405    118.2962     70.7138   8.9967688500e+01   4.4927993403e+01    0.1379712     0.114748 -79.28 0.0002174275    1.548    0.354
        68  -8.4110    169.7812    156.4535   9.8886392284e+01   1.9307022186e+01    0.1774614    0.1133596  36.45 0.0003493637    1.458    0.314
        69 -10.8835      2.0704     66.8023   1.2508452069e+02   6.0543305424e+01    0.4422952   0.04820475 -64.65  0.001651158    3.956    0.747
        70 -11.7737    106.3451     59.2805   8.9574160614e+01   4.9404537069e+01    0.7939423     0.432233  23.72  0.002979679    3.055    0.673
        71 -13.5396    246.5211     36.0341   5.6216119591e+01   1.8517827033e+01    0.6491062    0.5736454 -51.98 0.0008959083    1.175    0.149
        72 -10.6015    191.7403    151.8902   9.3817893893e+01   1.5694205462e+01    0.5204849    0.2817718 -52.52  0.002245001    2.906    0.656
        73  -8.7636     72.6760     58.1552   9.9416811144e+01   5.5427416837e+01    0.1871091    0.1473601 -42.91  0.000734588    1.131    0.116
        74 -11.0849    113.9620     58.4778   8.7204928500e+01   4.8019923723e+01    0.5255957    0.2380654 -35.89   0.00209234    2.160    0.537
        75  -8.9707    204.2058    189.8280   9.8542491378e+01   8.4037034135e+00     0.244863    0.1353775  60.08  0.001144264    2.784    0.641
        76 -11.1367     36.6772    186.3261   1.2881244688e+02   3.4073144753e+01    0.2700248    0.2040267  38.33  0.002135019    1.545    0.353
        77  -9.1842     82.9142     51.6852   9.4019952333e+01   5.5053904179e+01    0.2644764    0.1772124 -47.33 0.0007839183    1.436    0.304
        78 -10.7296    207.4171     45.3188   6.3723902172e+01   2.7151077492e+01    0.4849556    0.4288853 -55.73  0.001479642    1.241    0.194
        79 -12.0749     33.2256    180.5729   1.2903640164e+02   3.5425771396e+01     0.418568    0.2524174  50.53  0.003050647    1.425    0.298
        80 -10.1329    173.8153     47.3997   6.9888603112e+01   3.5567588663e+01    0.2556658    0.1957267 -33.37 0.0005307203    1.323    0.244
        81 -10.1738    101.5740     40.3094   8.4205221838e+01   5.3621102311e+01    0.2829264    0.1259447 -38.82  0.001149713    2.140    0.533
        82 -11.4922    123.1116     38.4110   7.7658728188e+01   4.9303562157e+01    0.4459327    0.2783419 -35.69  0.001908371    1.583    0.368
        83 -10.7229    107.5729     37.8782   8.1569064036e+01   5.2781238885e+01    0.3778117     0.226221 -47.71  0.001466801    1.947    0.486
        84  -8.4651    103.8841    160.5585   1.1295823182e+02   3.0181120851e+01    0.1615571    0.1081632  45.49 0.0002710511    1.368    0.269
        85 -10.2308    222.8054    176.9239   9.3140575896e+01   6.6003448254e+00    0.2846645     0.179935 -26.04   0.00165502    1.738    0.425
        86 -10.0789    216.2664    151.8323   8.9395623583e+01   1.0865742105e+01    0.2436736    0.2026928  32.60 0.0004507039    1.088    0.080
        87  -8.4535    219.2887    149.2909   8.8348743569e+01   1.0598016793e+01    0.1733799    0.1191685  51.27 0.0002732525    1.525    0.344
        88  -8.4812    101.0133    175.9733   1.1562068855e+02   2.7876528511e+01    0.1535309    0.1320801  61.01            0    1.041    0.040
        89 -11.9923     23.9575    170.7669   1.3007786005e+02   3.8066592494e+01    0.4927635    0.2827152 -66.44  0.003465078    1.736    0.424
        90  -8.6900    159.6994    159.3085   1.0138539682e+02   2.0773194962e+01    0.1256497   0.09989834  76.55 0.0003107178    1.599    0.375
        91 -10.5626    235.3642    174.1119   9.0553317035e+01   4.6729764435e+00    0.3231692      0.17782  45.13  0.001167716    1.650    0.394
        92 -11.6023     68.3597    147.7119   1.1879930656e+02   3.7614431770e+01     1.843569    0.7870903 -55.50  0.008470438    2.366    0.577
        93 -12.9864     42.7229    170.2404   1.2645423719e+02   3.6308359972e+01    0.6425074    0.5388473  40.58  0.001694883    1.431    0.301
        94  -8.9630    204.2087    152.4484   9.1651124530e+01   1.3152268110e+01    0.2613159    0.1111736  42.59  0.001123991    2.066    0.516
