#   1 NUMBER                 Running object number                                     
#   2 MAG_AUTO               Kron-like elliptical aperture magnitude                    [mag]
#   3 X_IMAGE                Object position along x                                    [pixel]
#   4 Y_IMAGE                Object position along y                                    [pixel]
#   5 X_WORLD                Barycenter position along world x axis                     [deg]
#   6 Y_WORLD                Barycenter position along world y axis                     [deg]
#   7 A_WORLD                Profile RMS along major axis (world units)                 [deg]
#   8 B_WORLD                Profile RMS along minor axis (world units)                 [deg]
#   9 THETA_WORLD            Position angle (CCW/world-x)                               [deg]
#  10 FWHM_WORLD             FWHM assuming a gaussian core                              [deg]
#  11 ELONGATION             A_IMAGE/B_IMAGE                                           
#  12 ELLIPTICITY            1 - B_IMAGE/A_IMAGE                                       
         1 -14.5157     68.3845    144.2495   1.1058205930e+02   3.7557295337e+01     5.131728     2.538323  74.97  0.006046591    3.813    0.738
         2 -14.4599    200.2814     33.0136   4.9904374539e+01   3.0795890857e+01     2.301533     1.614333  22.31  0.009345561    1.988    0.497
         3 -12.5788    209.0247     24.0092   4.6340859533e+01   2.9676815345e+01    0.5442183    0.3970051  33.62  0.001340188    1.752    0.429
         4 -14.2552    214.3401     17.8890   4.4131380885e+01   2.9054780710e+01     1.390561      1.16161  25.92  0.002724149    1.530    0.347
         5 -12.3884      2.6851     23.5021   1.0577757415e+02   7.0530422427e+01    0.6805239    0.2083857 -59.05  0.003048943    3.013    0.668
         6 -13.1196      4.0021      7.4581   9.8584610331e+01   7.3228945744e+01      1.01595    0.5168697 -41.84  0.006451384    1.470    0.320
         7 -10.7087     42.4979      3.6789   7.6923483716e+01   6.9707804681e+01    0.1906561    0.1562432 -29.47 0.0006090867    1.428    0.300
         8  -9.1204     67.9463     52.1875   8.8115419861e+01   5.8401035959e+01    0.1967054    0.1558795  70.36 0.0007889971    1.969    0.492
         9 -16.3491     79.5258    243.9178   1.1963692345e+02   1.5390783376e+01      10.1886     2.071541  39.59   0.03757447    4.364    0.771
        10 -14.4844      2.5165    247.3356   1.3229351065e+02   2.3888208186e+01    0.6780324    0.2684045 -74.95  0.004264326    2.341    0.573
        11 -10.1532    205.9728    180.9274   8.6244774322e+01   4.6037759309e+00    0.2876589    0.2225963  75.35  0.001462736    2.031    0.508
        12  -9.9949    208.7068    178.6591   8.5271420271e+01   4.4520173064e+00    0.3326058    0.1627359  41.62  0.001427655    1.922    0.480
        13 -12.2201     67.9506    180.3771   1.1562932128e+02   2.9373034992e+01    0.4115637    0.2979646 -38.46  0.001937589    2.083    0.520
        14 -11.9926     72.6454    174.7778   1.1390502566e+02   2.9951700449e+01    0.3001914    0.2488864 -43.49 0.0009779942    1.584    0.369
        15  -9.7143     99.4940    180.5444   1.0869944925e+02   2.4591674228e+01    0.2307871    0.2000654  68.17 0.0005917687    1.026    0.025
        16 -10.5962    163.1536    214.1253   1.0047365028e+02   7.0666749454e+00     0.380531    0.2572812 -85.33  0.001828652    2.709    0.631
        17 -10.0191    174.3672    248.5615   1.0327474450e+02   8.8905156479e-02    0.2078845    0.1638523  72.51  0.001002894    1.746    0.427
        18 -12.5845     87.9257    158.1110   1.0795455644e+02   3.1438609146e+01     1.153241    0.5940428 -64.29  0.001226248    1.902    0.474
        19  -9.1525    164.1571    205.1926   9.8869713436e+01   8.3767829427e+00    0.1709243    0.1494046  72.83 0.0004684821    1.308    0.235
        20  -8.8063    202.6411    171.2995   8.4947322385e+01   6.8444881044e+00      0.13624    0.1138738  82.69 0.0007035861    1.711    0.416
        21 -10.2976    137.8348    171.0541   9.8552862337e+01   1.9767632220e+01    0.2289761    0.1896596  76.15   0.00108816    1.298    0.230
        22  -9.7300    230.3030    166.6393   7.8807526525e+01   2.2812472484e+00     0.205085    0.1168113 -53.84 0.0008453598    2.829    0.646
        23 -10.9022    194.8927    168.2400   8.5843032743e+01   8.9129503225e+00    0.3165855    0.2949707  40.23  0.001180365    1.107    0.096
        24  -9.9517    145.9828    168.4981   9.6257397889e+01   1.8710966527e+01    0.2237279    0.1948473 -54.08 0.0006743285    1.213    0.175
        25  -9.2887    107.9809    203.3217   1.1001077498e+02   1.8532129577e+01    0.1812988    0.1450606  54.68 0.0004691208    1.086    0.079
        26  -9.5836     37.6042    167.8308   1.2091957080e+02   3.5891215756e+01    0.2444689     0.113675  59.88  0.001199712    2.186    0.543
        27  -9.6190    161.1073    165.5817   9.2355104662e+01   1.6272603003e+01    0.2281107    0.1970099 -62.28 0.0003732024    1.275    0.215
        28 -10.7339     32.0987    165.1206   1.2186843131e+02   3.7080738732e+01    0.2493017    0.1654975  40.17 0.0009900924    1.642    0.391
        29  -9.6622     48.8517    155.3808   1.1695738466e+02   3.7444249799e+01    0.2978408     0.130374 -66.91  0.001398731    1.969    0.492
        30 -10.9348    133.7266    144.2186   9.4188582917e+01   2.6330276715e+01     1.113058    0.2701168 -53.99  0.002692083    5.659    0.823
        31 -11.3243     54.2422    148.0836   1.1469883315e+02   3.8493020945e+01      0.33847    0.2618262 -65.98  0.001960039    1.202    0.168
        32 -10.2002     38.9264    146.4252   1.1825096364e+02   4.0629216865e+01    0.3221953    0.1807109  53.17 0.0009399077    1.822    0.451
        33 -10.3836    174.6197    148.4816   8.5787699248e+01   1.6826807890e+01    0.3630238    0.2635337 -41.44 0.0009781059    1.410    0.291
        34 -10.4976     84.7249    144.0289   1.0638141135e+02   3.5212483410e+01     0.336765    0.2277218  68.47  0.001152427    1.659    0.397
        35 -12.4707     89.5547    142.2030   1.0481853854e+02   3.4875876564e+01    0.2821588    0.2524042 -60.16 0.0004484069    1.138    0.121
        36 -10.9129    102.2548    141.9433   1.0152603155e+02   3.2801238238e+01    0.5659148    0.3380325 -32.64  0.002292403    2.575    0.612
        37  -9.4038     79.4765    139.8084   1.0698689033e+02   3.7010934164e+01    0.2048023    0.1275248 -64.35 0.0009959091    1.491    0.329
        38 -10.1368    111.4221    131.6835   9.7046671460e+01   3.3520543203e+01     0.287364    0.2461243  -4.02 0.0005928448    1.519    0.342
        39 -10.1847    106.0541    130.8170   9.8258348013e+01   3.4712471588e+01    0.3338636    0.2898621 -86.18   0.00107568    1.168    0.144
        40 -10.8733    160.2362    128.6409   8.4340413963e+01   2.4021660076e+01    0.4873607    0.3273736 -22.69  0.002034883    1.945    0.486
        41 -11.0395    136.0000    125.0029   8.9241258788e+01   3.0110383201e+01    0.4403646     0.192282 -41.34   0.00155332    2.431    0.589
        42 -11.5169     44.8310    129.5820   1.1446249614e+02   4.3951338760e+01    0.3672557    0.2247665  27.58  0.001551631    2.027    0.507
        43 -11.1369     98.4747    128.0196   9.9664963340e+01   3.6716158436e+01    0.3359254    0.2895856  27.36  0.001250978    1.345    0.257
        44 -10.4522    125.5324    127.3049   9.2425140253e+01   3.1768790806e+01    0.3383521    0.2394682 -85.38  0.001142535    1.964    0.491
        45 -10.9188    117.4009    126.6036   9.4353372129e+01   3.3545766917e+01    0.4979642    0.2768848 -50.24  0.001328129    1.753    0.430
        46  -9.9755    107.9175    120.0361   9.5334246437e+01   3.6872133270e+01    0.2147262    0.2042391 -67.41 0.0002966869    1.015    0.015
        47 -13.6678     42.7179    208.6204   1.2345071401e+02   2.6686295582e+01     0.675806    0.5229486 -67.76  0.001302265    1.498    0.332
        48 -13.4762     69.1239    161.2109   1.1291298694e+02   3.3505691405e+01    0.5186768    0.4141286 -42.92  0.001321613    1.588    0.370
        49 -12.2931     81.7596    164.8444   1.1045481484e+02   3.0850993555e+01    0.5357829    0.4184855  72.80 0.0006034388    1.202    0.168
        50 -10.0090    167.8941    112.6184   7.8532024987e+01   2.5555694267e+01    0.3947506    0.2746229 -73.21  0.001584516    2.085    0.520
        51 -11.4346    118.7394    109.0691   8.9695549336e+01   3.7260385340e+01    0.6225978    0.4219169 -89.97   0.00246763    2.416    0.586
        52 -10.7447     19.2687    109.9097   1.1867263886e+02   5.0966508323e+01    0.2689661    0.1749686 -39.37  0.001585405    1.777    0.437
        53 -11.0797     23.9752    116.8104   1.1830712373e+02   4.8979252807e+01    0.2204647    0.1487666 -71.75 0.0004679833    1.180    0.153
        54 -10.6306    134.4686    104.1655   8.4248563732e+01   3.4999539339e+01    0.6325002    0.1762411 -44.45  0.001800996    3.516    0.716
        55  -8.8567     93.6600    104.3178   9.5497294810e+01   4.3087855595e+01    0.1510898    0.1145004  84.36 0.0007049086    1.710    0.415
        56 -10.1347     34.0147    100.3139   1.1274545834e+02   5.1962657779e+01    0.1741918    0.1553013 -73.41 0.0008696425    1.095    0.087
        57  -9.8366    121.8225     98.8187   8.6095994830e+01   3.8887022984e+01    0.2148953    0.1841028 -81.58 0.0004984211    1.340    0.254
        58 -11.3461      2.6183     93.7452   1.2134695171e+02   5.5771156367e+01    0.4444644    0.1458818 -63.92  0.002138366    2.087    0.521
        59 -12.0365    247.1823     94.4955   5.9490126407e+01   1.0443263129e+01    0.3932779    0.2824935 -38.20  0.002063502    1.239    0.193
        60  -8.9156    129.9856     95.6787   8.3033315652e+01   3.7800576876e+01    0.2492217    0.1277625  67.26 0.0007032848    4.179    0.761
        61 -11.8027      2.3020     82.2961   1.1979087905e+02   5.8362118435e+01    0.5590999    0.1169033 -63.26  0.002307074    2.828    0.646
        62 -10.2173    205.2938    110.3074   7.0288290769e+01   1.7178320825e+01    0.3657404     0.239766  33.79  0.001080571    1.778    0.438
        63  -9.6872     75.0679     84.9636   9.6070478936e+01   5.0523148515e+01     0.205649     0.187306 -46.82 0.0003423305    1.016    0.015
        64  -9.7242    157.8010     80.4056   7.1699286503e+01   3.4309928311e+01    0.2195713    0.1456763  42.57 0.0004585807    1.573    0.364
        65  -9.3856    183.8907     77.6035   6.5445926455e+01   2.8261677684e+01    0.3254004    0.1292147  47.91  0.001094227    2.603    0.616
        66 -15.0804     52.4851    198.1161   1.2069091733e+02   2.7625773754e+01      2.07294     1.349058  74.54  0.007928281    1.323    0.244
        67 -10.5693     13.5009     59.8206   1.1146617464e+02   6.2655823898e+01    0.2085261    0.1725543 -53.46 0.0004208829    1.076    0.070
        68 -11.5292    148.0800     52.0960   6.4861562904e+01   4.1633584393e+01    0.5901192    0.3743089 -78.08  0.001109776    2.680    0.627
        69 -13.5628    191.3858     39.6703   5.3063047981e+01   3.2221842704e+01     1.059927    0.8931597  36.34  0.001474786    1.333    0.250
        70 -16.6286      7.3170    202.6006   1.2952371330e+02   3.1610524616e+01     6.350624     1.521746 -75.87   0.02124119    3.326    0.699
        71 -14.1205      7.7263    250.0843   1.3162321946e+02   2.2911663683e+01    0.4384498    0.2748539  40.41  0.001795551    1.789    0.441
        72 -12.5478    166.7893    233.3903   1.0259654215e+02   3.4481124525e+00    0.6243255     0.240443  42.25  0.002875888    2.101    0.524
        73 -11.6952    193.4377    193.7906   9.1119855043e+01   4.8749263972e+00    0.8022762    0.4658682 -57.27  0.003572157    2.703    0.630
        74 -11.0322    149.4572     45.4319   6.2327242511e+01   4.2298953147e+01    0.3014255    0.2474205 -76.32 0.0005356357    1.429    0.300
        75  -9.9043     96.5581    191.5202   1.1085471462e+02   2.2749242090e+01    0.2717172     0.238807  16.88  0.001424816    1.558    0.358
        76  -9.7020     71.8091    230.1998   1.1985386061e+02   1.8857593542e+01    0.1997183    0.1426081  62.70 0.0007528134    1.076    0.071
        77 -10.3315    189.6746     15.0407   4.6116408507e+01   3.5655617229e+01    0.1921292    0.1798283 -47.50 0.0006071648    1.126    0.112
        78  -9.6476     96.6453    200.7987   1.1201986522e+02   2.0844380515e+01    0.2580907    0.2113841 -15.19  0.001075575    2.052    0.513
