#   1 NUMBER                 Running object number                                     
#   2 MAG_AUTO               Kron-like elliptical aperture magnitude                    [mag]
#   3 X_IMAGE                Object position along x                                    [pixel]
#   4 Y_IMAGE                Object position along y                                    [pixel]
#   5 X_WORLD                Barycenter position along world x axis                     [deg]
#   6 Y_WORLD                Barycenter position along world y axis                     [deg]
#   7 A_WORLD                Profile RMS along major axis (world units)                 [deg]
#   8 B_WORLD                Profile RMS along minor axis (world units)                 [deg]
#   9 THETA_WORLD            Position angle (CCW/world-x)                               [deg]
#  10 FWHM_WORLD             FWHM assuming a gaussian core                              [deg]
#  11 ELONGATION             A_IMAGE/B_IMAGE                                           
#  12 ELLIPTICITY            1 - B_IMAGE/A_IMAGE                                       
         1 -14.6079     14.8059     24.7681   4.4170330708e+01   7.3771043739e+01     3.301186     2.379131 -35.04   0.01917579    1.309    0.236
         2  99.0000     65.8062     17.3982   1.2008539587e+01   6.5533179268e+01     1.079271    0.4199643  59.85  0.003083579    2.448    0.591
         3 -11.8426    123.5023     10.2010   3.5619922795e+02   5.1976691616e+01    0.5497527    0.3225381  60.29 0.0005320408    1.597    0.374
         4 -14.9451     66.3770     39.4604   2.2593949212e+01   6.2209439736e+01     3.641275     1.991701  32.69   0.01507532    2.247    0.555
         5 -12.6241     76.0960     13.3033   6.7232338534e+00   6.3557213202e+01    0.4460929    0.3247527  65.93  0.001039675    1.268    0.212
         6 -14.9557     90.3129      6.1021   3.5994779160e+02   6.0737048915e+01     3.399348     1.420628  72.45   0.01419533    2.244    0.554
         7 -13.3280     50.2962     38.1067   2.9022236398e+01   6.5714520249e+01     1.292592    0.8563389  27.11  0.005614549    1.651    0.394
         8 -13.2245    213.5085     38.9759   3.5510962602e+02   2.8130367073e+01    0.4991332    0.3450147 -34.02 0.0005873292    1.362    0.266
         9 -12.5208    244.8312     14.6774   3.4800134476e+02   2.5090142037e+01    0.4615025    0.4078292 -72.60  0.002240067    1.301    0.232
        10 -11.2567    151.2929     20.0985   3.5605869990e+02   4.4079735945e+01    0.4717787    0.3535981 -76.63  0.002256991    1.218    0.179
        11 -11.8823    208.0007     17.5467   3.5058103006e+02   3.1689102801e+01    0.4097733    0.2270001 -50.04  0.001250642    1.419    0.295
        12 -10.9739    174.5942     13.2336   3.5187316237e+02   3.9327816577e+01    0.3056459    0.2349382  87.82 0.0009723491    1.213    0.176
        13 -11.7974    184.1707      9.9150   3.5029344889e+02   3.7520351946e+01    0.7277765    0.3455867 -52.41  0.002962881    1.765    0.433
        14  -9.8978    178.6897      8.3990   3.5028108542e+02   3.8888673826e+01    0.2110866    0.1534715  85.61 0.0007309582    1.289    0.224
        15 -10.6214    202.1687     11.3273   3.4948797422e+02   3.3533412846e+01     0.214187    0.1651525 -59.31 0.0004077112    1.013    0.013
        16 -11.7738    148.6300      7.0895   3.5234821319e+02   4.6041205546e+01    0.5251729    0.3276551 -84.04  0.001165855    1.483    0.326
        17 -12.3974    241.8195     23.1431   3.4984379823e+02   2.4713188175e+01    0.5793312    0.3450902 -71.73   0.00239608    1.570    0.363
        18 -11.8103    137.6602      4.3639   3.5254974010e+02   4.8973227520e+01    0.4176365    0.2897103 -71.76 0.0007462174    1.322    0.244
        19  -9.7195    200.0555      5.0736   3.4813207364e+02   3.4595891173e+01    0.2114731   0.09841216 -57.93   0.00112884    1.777    0.437
        20 -10.7007    244.2697      3.4558   3.4581005668e+02   2.6318902412e+01    0.1764221   0.09128498  76.71  0.001135492    2.133    0.531
        21 -10.8147    215.5920      2.2974   3.4673252103e+02   3.1728067990e+01    0.2112694    0.1474148 -61.18 0.0004275957    1.096    0.088
        22 -13.4451     80.1220     60.6780   2.6140860143e+01   5.5357382109e+01     3.514801     1.199391  53.05   0.01088388    3.428    0.708
        23  -9.0798    167.4791      2.4769   3.4947317348e+02   4.2000487810e+01    0.1277072    0.1015461 -68.61 0.0008096637    1.032    0.031
        24  -9.8024    235.9242      1.4898   3.4572816589e+02   2.7985904931e+01     0.149232   0.09241428 -86.25 0.0007121929    1.565    0.361
        25  -8.9908    191.5297      1.3758   3.4770485167e+02   3.6747597256e+01    0.1206704   0.09189131 -66.17 0.0007962491    1.041    0.040
        26 -11.5686      5.3919     84.9091   6.7640118975e+01   6.0107382989e+01    0.5145052    0.4947621 -72.80   0.00317371    1.057    0.054
        27 -12.6039     16.4845     99.9487   6.4706441315e+01   5.5293831518e+01     1.358666    0.7442153 -17.96  0.005652288    2.415    0.586
        28 -13.1004      4.7914     95.8887   6.9406935293e+01   5.7189602284e+01     1.060926    0.7903149 -45.95  0.005561665    1.317    0.241
        29 -10.4161    172.1938    102.1166   1.5651314223e+01   2.7024102762e+01    0.4677234    0.2435231  64.44   0.00191505    2.682    0.627
        30  -9.8039    208.2791    102.0209   9.9847580029e+00   2.0196196630e+01    0.1887517    0.1502332 -39.46 0.0007499389    1.054    0.051
        31 -11.4357    106.7569     92.7556   2.8113925312e+01   4.2877297419e+01    0.6142547     0.495968  -6.12   0.00289912    1.631    0.387
        32  -9.2052     54.5759     95.7609   4.7329067255e+01   5.2000662942e+01    0.2026022    0.1465586 -74.45    0.0004602    1.527    0.345
        33 -10.6479    205.1897     92.8296   8.3502945378e+00   2.2191164076e+01    0.4338914    0.2956283 -57.15  0.001573442    1.496    0.332
        34 -10.2426    201.6871     92.2961   8.7020521642e+00   2.2924284844e+01    0.2477465    0.1975619  68.38  0.001060419    1.471    0.320
        35 -11.7591    144.4196     91.5435   1.8339662591e+01   3.4842957635e+01    0.3674848    0.3416713  23.80 0.0006972066    1.216    0.177
        36 -10.9369    246.6650     93.1416   3.6186771752e+00   1.5181559288e+01    0.1805496    0.1511898 -71.59  0.001319627    1.395    0.283
        37  -9.2324    187.3400     92.5646   1.0836243721e+01   2.5638821364e+01    0.2512829    0.1290615  74.16 0.0009594135    3.479    0.713
        38  -9.9371    163.5456     92.2950   1.4751471777e+01   3.0564825538e+01    0.2589125    0.1891974  55.33  0.000853006    1.471    0.320
        39  -9.4714    157.4819     88.0133   1.4760856791e+01   3.2633013826e+01    0.1993796    0.1872017  73.84 0.0001675799    1.115    0.103
        40 -10.1536    152.4372     87.8028   1.5678935197e+01   3.3774447270e+01    0.3101318    0.2269216  74.07 0.0007530485    1.597    0.374
        41 -11.9782    249.1859     84.6332   1.6898859335e+00   1.5946332844e+01    0.4675397    0.2396461 -38.42  0.001958481    1.454    0.312
        42 -11.2579    245.4252     79.3848   9.9098833584e-01   1.7232686255e+01    0.3063006    0.2032565  54.40  0.001296138    1.954    0.488
        43 -10.8676    242.5406     85.8188   2.5617844604e+00   1.6820818024e+01    0.3042694   0.08340735 -37.94  0.001297485    2.638    0.621
        44 -10.1135    110.9079     86.3496   2.5039426463e+01   4.3336543058e+01    0.3636658    0.2559936  67.17  0.000869137    1.675    0.403
        45 -11.3223    128.5694     81.2961   1.8987379714e+01   4.0358947469e+01    0.7762576    0.5709412  62.60  0.002736377    1.426    0.299
        46 -12.7770    119.5196     74.6949   1.9179496545e+01   4.3701900819e+01     1.099966    0.8620811 -41.86  0.004797974    1.277    0.217
        47 -11.1248    116.6832     66.9003   1.7398216938e+01   4.5813354868e+01    0.7511689    0.4702225 -13.21  0.002844295    2.855    0.650
        48  -8.9428    170.6892     80.6866   1.0505741465e+01   3.1040670843e+01    0.2151545    0.1634386  -5.10 0.0003503175    1.860    0.462
        49 -10.6358    174.8793     81.3844   1.0009985799e+01   3.0032110984e+01     0.366401    0.2580542 -58.05  0.001248256    1.422    0.297
        50  -9.9824    177.9044     78.3079   8.7553181977e+00   2.9893841734e+01    0.2303958    0.1887761  70.34 0.0003480249    1.321    0.243
        51  -9.9175    145.1935     81.3414   1.5349186874e+01   3.6563173796e+01    0.2504749    0.2010335 -26.88 0.0007585995    1.376    0.273
        52 -10.1520     41.2078     81.3653   4.9400781044e+01   5.7602434024e+01    0.4124142    0.2533796  12.15   0.00176911    2.008    0.502
        53 -11.7356    234.2962     74.8035   1.0978871888e+00   1.9668238774e+01    0.4742842    0.2450762 -54.21  0.001415778    1.861    0.463
        54  -9.3075    212.9903     76.5010   3.6968467529e+00   2.3201069530e+01    0.1562645    0.1245549  67.36 0.0003505065    1.465    0.318
        55 -10.0218    205.4882     75.1647   4.2669048152e+00   2.4810731048e+01    0.4264134    0.2337177 -76.33  0.001848825    3.026    0.669
        56 -12.2157    104.7285     63.7951   1.9507634622e+01   4.9194829938e+01    0.9934043    0.6054586 -47.38   0.00275549    1.677    0.404
        57  -9.4338    103.6190     75.2810   2.3663741937e+01   4.7234884805e+01    0.4297609    0.2879315 -50.85  0.001318967    1.528    0.346
        58 -11.7538     96.4828     71.3526   2.4504201801e+01   4.9628396549e+01    0.6493006    0.3301292  41.70  0.000512285    2.078    0.519
        59 -11.1276    249.7894     74.2348   3.5957415890e+02   1.7224136213e+01    0.2315917     0.186056 -66.80  0.001266515    1.307    0.235
        60  -9.8503    217.3270     74.6887   2.8088665727e+00   2.2663461634e+01    0.2401873     0.140785 -44.87  0.001342458    1.387    0.279
        61  -9.3377    144.0269     73.3420   1.3294330132e+01   3.8249900544e+01    0.1951177     0.172684  75.57  0.000360662    1.141    0.124
        62  -9.6888    218.9302     71.5010   1.9307237962e+00   2.2820548162e+01    0.2282152    0.2081193 -47.48 0.0009024043    1.148    0.129
        63  -9.0278     29.4888     70.4929   5.2181805958e+01   6.1805885280e+01    0.1415322    0.1357523 -42.29 0.0002177214    1.021    0.021
        64 -12.0276    191.8428    248.6624   3.9225347210e+01  -1.1078248015e-01    0.5901977    0.1834345  25.68  0.002796404    2.908    0.656
        65 -10.8734    200.4635    236.0619   3.5960493882e+01   6.3642602547e-01    0.2435889    0.1431892  23.11   0.00128079    1.508    0.337
        66  -9.8860    214.9894    232.4989   3.2982709553e+01  -3.9461460900e-01    0.1251174   0.08712021  42.43 0.0008075181    2.356    0.576
        67  -9.1161    153.5163    220.4724   4.2618304261e+01   8.3778559866e+00    0.1247036    0.1030898   7.07 0.0001823668    1.002    0.002
        68 -10.2903    243.9749    181.2275   2.0348100766e+01   3.2704251933e+00    0.1726076    0.1708738 -40.46  0.001400841    1.689    0.408
        69 -10.7454    227.6802    179.1221   2.2363308771e+01   5.4522933430e+00    0.2952572    0.2424623 -49.62   0.00162422    1.682    0.406
        70  -9.7345    201.9720     68.0962   3.0288947589e+00   2.6525182524e+01     0.193422    0.1647872 -52.93 0.0005033573    1.023    0.022
        71  -8.5823    131.5432     60.4586   1.1926421365e+01   4.3383778817e+01    0.3796088    0.1642675  49.76   0.00105262    2.396    0.583
        72 -11.1811    126.4416     63.9393   1.4134404515e+01   4.4017793134e+01    0.6496467     0.322218 -41.33  0.002405433    1.968    0.492
        73 -10.8965    124.7614     57.3292   1.2364311816e+01   4.5535134198e+01    0.5414566    0.3407383  83.23  0.001005516    2.070    0.517
        74 -10.1019    135.5858     63.1846   1.1947550894e+01   4.1964011625e+01    0.2852958     0.229546  46.22  0.001101333    1.353    0.261
        75 -11.8934    214.6534     60.6408   3.5993631692e+02   2.5113471300e+01     0.410719     0.328611 -87.49  0.001343591    1.341    0.254
        76 -10.4923    169.8412     61.4486   5.5360193572e+00   3.4285436033e+01    0.2858895    0.2361951  89.34 0.0009057611    1.226    0.185
        77 -10.4034    246.4968     60.4823   3.5709316163e+02   1.9515164625e+01     0.180245    0.1017115 -88.19  0.001037762    2.405    0.584
        78  -9.5244    209.9618     68.3306   2.1791779411e+00   2.4940517534e+01    0.1657984    0.1466459 -65.20  0.000404933    1.119    0.106
        79  -9.1129    183.2819     57.4113   2.6556237052e+00   3.1925143037e+01     0.173317    0.1224953  86.55 0.0009424384    1.532    0.347
        80 -13.1152     16.1199    148.1038   7.0358888002e+01   4.2188727030e+01     1.354293    0.5287127  77.59  0.004641514    3.298    0.697
        81 -10.6403    249.9815     55.4535   3.5582290834e+02   1.9574197422e+01    0.1906234    0.1141317 -40.06 0.0006312801    1.249    0.200
        82  -9.5056    189.7166     56.4272   1.6257473922e+00   3.0691906276e+01    0.2276463    0.1266307  74.62  0.001122468    2.032    0.508
        83  -9.8072    174.1407     56.0223   3.4762151120e+00   3.4127968386e+01    0.2012351    0.1745676 -64.20 0.0004851993    1.027    0.026
        84  -9.3665    148.5144     55.9369   7.3313700168e+00   4.0045629851e+01    0.2099447    0.1330375 -38.77 0.0004299227    1.519    0.342
        85  -8.5973    143.9719     57.0000   8.4467496792e+00   4.0961854637e+01    0.2159094   0.07972901  61.22 0.0004395959    2.729    0.634
        86 -11.0373    209.3735     54.3805   3.5902341639e+02   2.6972584741e+01    0.2889625    0.2103557  71.04   0.00120556    1.536    0.349
        87 -11.1930    133.8029     52.3377   8.8838397473e+00   4.4134537412e+01    0.3370494    0.2534343  73.86 0.0002036831    1.331    0.249
        88 -11.1710      1.8525     67.1732   6.6641902685e+01   6.4944899202e+01    0.4852324    0.1916211 -81.39  0.001853328    2.769    0.639
        89  -9.9857    213.5064     50.2386   3.5768062137e+02   2.6712823821e+01    0.1943424    0.1579313  89.19 0.0004943033    1.305    0.234
        90  -8.9193    126.5471     50.4408   9.7055305868e+00   4.6197466318e+01    0.1426373    0.1354679  85.24 0.0001276934    1.047    0.044
        91 -10.3496    139.2030     45.2719   5.6435003526e+00   4.3867116646e+01    0.5756539     0.256542 -27.20   0.00223127    2.665    0.625
        92 -12.3365    121.3825     44.4834   8.7459542424e+00   4.8366660483e+01    0.4578421    0.3782431 -66.30  0.001089046    1.216    0.178
        93 -11.2243    246.8772     42.7598   3.5349989493e+02   2.1618197481e+01    0.2393533    0.2156962 -32.01 0.0008579271    1.352    0.260
        94 -13.1544      3.6227    140.3410   7.3983662696e+01   4.5184721288e+01     1.220656    0.4453068 -87.81  0.004559067    2.717    0.632
        95 -11.9982    229.2236     40.4532   3.5423501965e+02   2.4981233914e+01    0.5595462    0.2589716  84.09 0.0003719506    2.678    0.627
        96 -11.3206    157.0630     42.6266   2.0677475119e+00   3.9935537860e+01     0.298452    0.2423302  77.00 0.0005111347    1.207    0.172
        97  -9.1666     97.2728     44.3722   1.4464522887e+01   5.4298574407e+01    0.1459231    0.1135377  16.16 0.0004019446    1.681    0.405
        98  -9.8618    203.8324     42.5510   3.5677127371e+02   2.9614957586e+01    0.2030916    0.1867865  -1.66 0.0007536545    1.452    0.311
        99  -9.9759    180.1718     40.8256   3.5870417776e+02   3.4866144906e+01     0.215049    0.1675069  87.47 0.0007013515    1.264    0.209
       100 -10.2185    248.9823     37.8930   3.5239534963e+02   2.1834520845e+01    0.2681019    0.1254088 -68.43  0.001478148    2.371    0.578
       101 -12.1694    240.2821     34.0704   3.5215650085e+02   2.3759145613e+01    0.4363127     0.287299  63.41 0.0008360482    1.905    0.475
       102 -11.2446    247.6514     31.2399   3.5115018138e+02   2.2815720210e+01    0.3654569    0.2590893 -79.55  0.002369407    1.428    0.300
       103 -10.9016    160.2184     35.8415   3.5967212617e+02   4.0079876180e+01    0.2372621    0.2122488  76.80 0.0003967406    1.161    0.139
       104 -10.6661    130.2663     36.7187   4.3941110494e+00   4.7251207657e+01    0.2286179    0.2052765  67.81 0.0002716217    1.117    0.105
       105 -11.6666    151.1889     31.6574   3.5959187905e+02   4.2761170600e+01    0.4268458    0.2681511  60.17  0.001078861    1.604    0.377
       106  -9.2628    107.4464     33.7177   7.8155781472e+00   5.3351351466e+01    0.1877289    0.1420964 -12.76 0.0009481772    1.646    0.392
       107 -10.8034    168.2797     27.0137   3.5623344084e+02   3.9268732235e+01     0.379356    0.2113222  79.51  0.001702151    1.780    0.438
       108 -10.4190    217.1921     27.9169   3.5233569468e+02   2.8718693426e+01    0.3306118    0.1712822 -65.56  0.001416662    1.838    0.456
       109  -9.0683     43.6968     27.5220   2.7011024113e+01   6.8787470214e+01    0.1280196    0.1212582 -19.71 0.0001712916    1.114    0.103
       110 -12.2570     51.7257    143.3560   5.7763012404e+01   3.9731934651e+01    0.5774446    0.4904989  58.81  0.002436251    1.157    0.135
       111 -11.1148    235.0451     20.5780   3.4967718822e+02   2.6192744162e+01    0.3078854    0.1918014  62.44   0.00200985    2.023    0.506
       112 -12.1387    144.0619    147.7040   3.1978032571e+01   2.3531482389e+01    0.4691272    0.2967573 -21.01  0.002029558    2.128    0.530
       113 -11.2757     59.3955    144.6488   5.5407042425e+01   3.8376130182e+01     0.713567    0.4150333  46.63  0.002801351    1.722    0.419
       114  -9.3122    202.5427     25.5445   3.5283180500e+02   3.1920868246e+01    0.1233703   0.09803145 -58.89 0.0001293843    1.001    0.001
       115  -9.6232    186.9023     18.3985   3.5225959958e+02   3.6037626647e+01     0.210831    0.1104768  82.77 0.0009005162    1.892    0.471
       116  -8.7850    180.3657     17.2725   3.5248367508e+02   3.7603562805e+01    0.1181143   0.09112968  48.20 0.0005438377    1.665    0.399
       117  -9.8138    138.9059     17.0138   3.5654904819e+02   4.7444676190e+01    0.1955767    0.1713981  85.96 0.0004163928    1.067    0.063
       118 -13.7246     62.0125    118.4157   4.9675085064e+01   4.4948605861e+01      1.75584     1.508734 -27.20  0.007597108    1.298    0.230
       119 -14.1040     77.4509    103.5255   4.0599347630e+01   4.6208972862e+01     3.091152     1.676641  28.57   0.01195044    2.130    0.531
       120 -10.1537    248.5179    129.4859   1.0453453373e+01   9.8639014062e+00    0.1165038   0.08807616 -30.91 3.970534e-05    1.013    0.013
       121 -12.2604    165.2061    145.6369   2.6938197376e+01   2.0218207180e+01    0.8509609    0.6599901 -79.28  0.004324777    1.950    0.487
       122 -10.2697    230.0039     17.9459   3.4939519582e+02   2.7394176345e+01    0.3278029    0.1373123 -56.34   0.00130003    1.947    0.486
       123  -9.9548    140.6376    126.9314   2.8171010255e+01   2.8503505703e+01    0.4035765     0.175255 -43.50  0.001525147    2.232    0.552
       124  -9.0572    234.5033    123.5204   1.1018260628e+01   1.2683906520e+01    0.1210079   0.09508187 -34.92 0.0008101492    1.030    0.029
       125  -9.5485    167.8115    119.2255   2.0554927740e+01   2.4755204950e+01    0.2045425    0.1877202 -60.89 0.0006798796    1.145    0.127
       126 -12.5830     14.0488    115.8020   6.7864813108e+01   5.1140989830e+01    0.5636644    0.3050883 -63.70  0.002552595    1.667    0.400
       127 -11.6373      2.4094    115.3491   7.2469326033e+01   5.2027921616e+01    0.4442283    0.2272012 -70.11  0.002018115    1.723    0.419
       128 -11.2579     71.7823     94.4246   4.0215340006e+01   4.9476519411e+01    0.4860122    0.3778189 -62.77 0.0009513852    1.328    0.247
       129 -10.5506    125.2105    129.1564   3.2488579348e+01   3.1015620496e+01    0.4598301    0.2550744  34.36  0.001885991    1.964    0.491
       130 -10.8656    114.6531    102.0849   2.8502974785e+01   3.9155253736e+01    0.3621533     0.246306  68.70  0.001531672    1.930    0.482
       131 -11.2137    244.9384    104.8109   6.1044746480e+00   1.3827408203e+01    0.2907053     0.192058 -82.05  0.001662305    2.605    0.616
