#   1 NUMBER                 Running object number                                     
#   2 MAG_AUTO               Kron-like elliptical aperture magnitude                    [mag]
#   3 X_IMAGE                Object position along x                                    [pixel]
#   4 Y_IMAGE                Object position along y                                    [pixel]
#   5 X_WORLD                Barycenter position along world x axis                     [deg]
#   6 Y_WORLD                Barycenter position along world y axis                     [deg]
#   7 A_WORLD                Profile RMS along major axis (world units)                 [deg]
#   8 B_WORLD                Profile RMS along minor axis (world units)                 [deg]
#   9 THETA_WORLD            Position angle (CCW/world-x)                               [deg]
#  10 FWHM_WORLD             FWHM assuming a gaussian core                              [deg]
#  11 ELONGATION             A_IMAGE/B_IMAGE                                           
#  12 ELLIPTICITY            1 - B_IMAGE/A_IMAGE                                       
         1 -11.9221    125.5001     28.0766   4.0647165821e+01   4.9409921518e+01    0.5221073    0.4822345 -40.37  0.002416757    1.235    0.190
         2 -12.4864    119.7610     37.5344   4.4798897663e+01   4.9605937725e+01    0.8628404    0.4873046 -54.69  0.003622076    2.453    0.592
         3 -11.1432    240.4781     33.2536   2.7033636767e+01   2.3716892512e+01    0.2306067    0.1832048 -42.24  0.001634231    1.424    0.298
         4 -12.2409    160.0603     29.7074   3.5148048412e+01   4.1266551643e+01    0.4237576     0.390745  40.77 0.0003671507    1.277    0.217
         5 -12.1475     48.5892     12.9736   5.7070610952e+01   6.6586864082e+01    0.5746213    0.2405568  44.90  0.002848071    2.159    0.537
         6 -11.8760     36.0472     18.2437   6.4883139010e+01   6.7897432586e+01    0.5896689    0.3257869 -26.16    0.0027159    1.798    0.444
         7 -12.1528     27.1170     27.8560   7.3357901217e+01   6.7738694943e+01     0.551026    0.3787129  -3.00  0.001921904    1.263    0.208
         8 -12.4895     20.0997     21.7430   7.4356174842e+01   6.9419029368e+01    0.5104644    0.2317512 -33.66  0.002746277    2.032    0.508
         9 -11.0677     14.0960      8.4477   7.1535870615e+01   7.1862196337e+01    0.3250459    0.2081856  14.50 0.0005106216    1.278    0.218
        10 -12.5277     16.1085     14.0047   7.3044656030e+01   7.0922254624e+01     0.943583    0.4544998  -4.64  0.003654835    2.870    0.652
        11 -12.0847     22.5827     11.5580   6.8430560830e+01   7.0495591584e+01     0.445058    0.2696963   5.31  0.001895771    1.518    0.341
        12 -11.3863    106.1231     20.7858   4.2461761170e+01   5.4523924247e+01    0.4854954     0.349535 -56.33  0.002493562    1.815    0.449
        13 -11.0771    147.9267     16.2690   3.3386293763e+01   4.5490758042e+01    0.5194906     0.235954  38.26  0.002158322    3.316    0.698
        14 -10.9197    121.5981     11.8510   3.6415820636e+01   5.1912297873e+01    0.8419096    0.3978839  53.70  0.003432844    1.731    0.422
        15 -11.8602    136.3087     22.1346   3.6873034465e+01   4.7568367942e+01    0.6903782    0.3582792  55.71  0.002995137    1.639    0.390
        16 -11.4004    134.2412     14.9628   3.5152933206e+01   4.8752170683e+01    0.7736295    0.2949581  68.12  0.003321957    2.395    0.583
        17 -10.7120     90.9338     21.8124   4.6602591529e+01   5.7681285919e+01     0.367962    0.2648929 -18.58  0.001711209    1.578    0.366
        18 -11.3720     85.9469     13.5262   4.4896954633e+01   5.9530128299e+01    0.5001956    0.2691005 -31.90  0.002690701    2.153    0.536
        19 -10.9989    178.9256     20.8722   3.0481967063e+01   3.7977051775e+01    0.4355912    0.2253126  44.36  0.001865949    2.606    0.616
        20 -13.3883    163.6590     19.0355   3.1924885269e+01   4.1614898518e+01    0.5176497    0.2709128  54.91 0.0009933527    1.799    0.444
        21 -11.7183     68.1448     18.0540   5.2026251350e+01   6.2604640362e+01     0.429948     0.353343  28.63  0.002031022    1.022    0.022
        22  -9.8536     88.9014      7.5234   4.1907200453e+01   5.9439499760e+01     0.275782    0.1708552  41.93 0.0009712718    1.363    0.267
        23 -12.2143    227.6059     15.2133   2.4690123564e+01   2.8345931381e+01    0.4617361    0.2307436 -76.08    0.0016459    1.958    0.489
        24 -12.0345    185.0896      5.9072   2.6423432946e+01   3.8152873368e+01    0.4845637    0.3516603  70.29  0.001766436    1.251    0.200
        25 -11.3877    176.9952      5.9438   2.7233709426e+01   3.9922213520e+01     0.358548    0.1757813  80.33 0.0007345687    1.828    0.453
        26 -11.8800    192.1794      8.6769   2.6357356308e+01   3.6347318302e+01    0.5643539    0.3655191  -5.96  0.003088394    2.911    0.656
        27 -12.2194    104.6542     13.1507   4.0219175830e+01   5.5572803401e+01    0.4082849    0.3591256   1.50   0.00276354    1.302    0.232
        28 -10.7445    169.1720      9.4914   2.8910343862e+01   4.1324084731e+01    0.4354421    0.1500964  58.27  0.001968174    2.491    0.598
        29  -9.8511      5.3625      9.7256   7.7213077482e+01   7.2557900219e+01    0.2165929    0.1313576 -23.12 0.0008396058    1.355    0.262
        30 -11.7498    211.8459      9.5685   2.4837036065e+01   3.2123060871e+01    0.4434385    0.3111112  -7.50  0.002639306    2.677    0.627
        31 -11.0860    163.0475      8.9788   2.9499114933e+01   4.2748803990e+01    0.6106566    0.3036364  -9.49  0.002638682    4.089    0.755
        32 -10.7084    145.5051      9.4548   3.1896039346e+01   4.6686485033e+01    0.2275038    0.1773718  48.88  0.000575631    1.320    0.242
        33  -9.9426     65.6444     10.3463   4.9690654050e+01   6.3835668317e+01    0.2696185    0.1194716  50.26   0.00134747    1.926    0.481
        34  -9.6029      1.1495      7.3908   7.8676778271e+01   7.3240157418e+01     0.182015   0.06133824 -40.55 0.0005988908    2.624    0.619
        35 -10.1247    232.8123      7.4044   2.2877777862e+01   2.8189593702e+01    0.1620315    0.1189018 -86.61  0.001187153    1.129    0.114
        36 -12.0954    234.3881      3.0601   2.1995465841e+01   2.8347155351e+01    0.4770709    0.2078941 -77.14  0.002583259    2.277    0.561
        37 -10.7230    157.8399      7.1171   2.9664705517e+01   4.4095931016e+01    0.2145364     0.150777  61.90 0.0006223888    1.270    0.213
        38 -10.5101    157.3195      2.4446   2.8552731559e+01   4.4625224087e+01    0.2979175    0.2334409  66.00  0.002013225    1.156    0.135
        39 -11.0371    122.1963      5.4034   3.4339637094e+01   5.2325427929e+01     0.227396    0.1951832 -35.01  0.001134926    1.394    0.283
        40  -9.9370     77.9814      7.4933   4.4778131049e+01   6.1686577513e+01    0.3096175     0.143394  63.69  0.001437912    2.461    0.594
        41 -10.5196     74.4656      3.4011   4.4150788226e+01   6.2724270106e+01    0.3873321    0.2218672  60.90  0.002173159    1.713    0.416
        42  -9.7382     62.8645      6.6860   4.9071318503e+01   6.4686536823e+01    0.2041163    0.1446638   8.70  0.001303139    1.421    0.296
        43 -10.8311    247.2949      5.9025   2.1688461282e+01   2.5638115257e+01    0.1844855    0.1130137 -80.90 0.0006608444    1.314    0.239
        44 -10.8247    137.5581      4.4846   3.1665438075e+01   4.8924783032e+01    0.3380706    0.1769614  66.03 8.268512e-05    1.542    0.352
        45 -12.1926    132.9104      2.8296   3.1879439423e+01   5.0112958116e+01    0.9460683    0.2610585  69.58   0.00357905    3.261    0.693
        46 -11.2148    115.8774      2.7776   3.4624145905e+01   5.3949181646e+01    0.3395767    0.2343698  60.86  0.002115273    1.166    0.142
        47 -10.7046    218.8273      3.5263   2.3135567603e+01   3.1335672375e+01    0.2427018     0.198878  86.57  0.001050558    1.210    0.174
        48 -10.9727    223.6881      2.6628   2.2632341051e+01   3.0459865288e+01    0.2306274    0.1567415 -70.96 0.0007239697    1.154    0.134
        49 -11.0867    207.4898      2.9860   2.3877952575e+01   3.3691028866e+01    0.2724992    0.1960262 -82.04  0.001142383    1.095    0.087
        50 -10.7839    204.6627      1.6784   2.3837867992e+01   3.4403741092e+01    0.2506584    0.1902539 -79.01  0.001798948    1.036    0.035
        51 -10.9245    105.3907      1.9619   3.6313110636e+01   5.6331323402e+01    0.2673764    0.1872126  85.52  0.001108738    1.624    0.384
        52 -11.2935      2.5027      1.8905   7.5150442020e+01   7.3848564283e+01    0.2965487     0.146096  12.12  0.001652343    1.838    0.456
        53 -11.0576     22.7659      4.8485   6.5073862323e+01   7.1262732186e+01    0.1908789    0.1594213  -5.44 0.0003724011    1.314    0.239
        54  -9.8354    152.4253      1.4243   2.8878237984e+01   4.5813516431e+01      0.23858   0.09795636  71.15 0.0006551893    2.009    0.502
        55  -9.7182     13.6968      1.6011   6.8341941514e+01   7.2731066259e+01    0.2117049   0.08592874  27.38  0.001111382    2.151    0.535
        56 -10.2279     41.5744      3.6490   5.5673260552e+01   6.8660352266e+01    0.3063714    0.1746791   0.44  0.001760065    1.957    0.489
        57  -9.3348     82.0607      1.0000   4.1176626344e+01   6.1371399667e+01    0.1846298   0.05646238  58.77 0.0003224728    2.677    0.626
        58  -9.5165     73.4102    133.2007   8.6104604764e+01   3.9663874182e+01    0.2191218    0.1448184 -69.46 0.0009512383    1.696    0.410
        59  -9.7226    249.5024    250.4580   6.6666020069e+01  -1.2478562714e+01    0.1175708    0.0843824  -9.27  0.000809086    1.022    0.021
        60  -9.7999     39.0919    133.3612   9.7310265570e+01   4.3936421583e+01    0.1857401    0.1751153  21.74 0.0004603042    1.178    0.151
        61  -9.4379     59.9712    133.0000   9.0414452103e+01   4.1594115339e+01    0.2302092   0.08586321  28.06 0.0005667178    2.878    0.653
        62  -9.2590    103.9707    130.9421   7.6089602536e+01   3.5123323735e+01     0.182544    0.1778607  -1.77 0.0009533967    1.029    0.028
        63  -9.6982     93.1281    130.0802   7.9179609306e+01   3.7272289662e+01    0.3002416    0.2175888 -58.28  0.001372827    1.407    0.289
        64 -11.3608     23.1002    127.0351   1.0152275553e+02   4.7023248287e+01     0.297178    0.2164767  21.60 0.0003803734    1.562    0.360
        65 -10.0903      2.3009    126.0110   1.0813527451e+02   4.8682858750e+01    0.2205188    0.1665497  63.90 0.0008409289    1.516    0.340
        66 -12.8750    103.7806    122.5263   7.4098472366e+01   3.7191602956e+01    0.3484323    0.3276236 -14.24 0.0005623706    1.063    0.060
        67 -10.6809     10.7052    126.9405   1.0556236151e+02   4.7947391710e+01    0.3094155    0.1923518 -63.28  0.001217706    1.318    0.241
        68 -10.3662     49.4874    122.9620   9.1888316195e+01   4.5460318601e+01    0.3404413    0.1873747  13.72  0.001433777    2.257    0.557
        69 -10.6976     44.6576    117.9443   9.2531062950e+01   4.7275360894e+01    0.5506217    0.3694191 -73.58  0.002351991    1.645    0.392
        70  -9.8575     48.7012    112.1789   8.9881188581e+01   4.8247816438e+01    0.2400452    0.2227864  69.93  0.001089587    1.262    0.208
        71 -10.5246      7.4403    114.8081   1.0492033425e+02   5.1178876895e+01    0.4005904    0.2169102 -55.11  0.001392248    1.478    0.323
        72 -12.1111      2.3937    111.8596   1.0621994888e+02   5.2180490112e+01    0.5043529     0.226006 -68.88 0.0007397631    1.844    0.458
        73 -11.1830      4.2294    104.9115   1.0453786814e+02   5.3775938315e+01    0.3995771    0.3000063  24.62  0.002424411    1.579    0.367
        74  -9.6905     79.2161    114.9481   7.9995762844e+01   4.3307318741e+01    0.2210016    0.1941696 -40.15  0.001152716    1.081    0.075
        75  -9.6353     68.0077    115.0262   8.3792338491e+01   4.5007994007e+01    0.2399753    0.1841994  69.49  0.001133901    1.761    0.432
        76 -11.6969     17.4319    100.8902   9.9003156870e+01   5.3936554990e+01    0.3950806    0.3385372  14.47  0.001126738    1.323    0.244
        77 -11.7498      9.4073     97.4959   1.0138942603e+02   5.5266855170e+01    0.4541909    0.3904463  67.10 0.0007228947    1.445    0.308
        78 -12.2856      7.4913     89.4115   1.0062741724e+02   5.7274957181e+01    0.7230402    0.4417614  33.69  0.001011715    1.981    0.495
        79 -10.6324     30.9716     96.0326   9.2848028125e+01   5.3995891823e+01    0.3205728    0.2732185 -80.53  0.001626583    1.386    0.279
        80 -11.5142     27.3138     85.8112   9.1916545512e+01   5.6685150884e+01    0.7864934    0.4653211  16.60  0.002755057    1.815    0.449
        81 -10.8159     35.2952     92.8934   9.0446216421e+01   5.4315740330e+01    0.5031188    0.2731518 -59.30  0.002280672    1.755    0.430
        82 -11.7468     42.5701     85.1821   8.5631102755e+01   5.5290568217e+01    0.9984117    0.3784786  18.15  0.003578797    3.431    0.709
        83 -12.0333     25.1507    107.3087   9.7378074198e+01   5.1791419176e+01    0.7983649    0.5232856 -49.56  0.003055722    1.291    0.225
        84 -11.2045     28.1936    113.0870   9.7379171213e+01   5.0110700311e+01    0.4903159    0.2667921   7.32  0.002237939    2.264    0.558
        85 -11.4969     22.5952     94.2784   9.5704760439e+01   5.5122961899e+01    0.3435902    0.2694575 -20.80 0.0007369661    1.246    0.197
        86 -12.2109     18.2303     90.6986   9.6654036727e+01   5.6288819010e+01    0.3865621    0.2851784 -67.57 0.0004924463    1.373    0.271
        87  -9.2049     93.8354    112.5865   7.4648047665e+01   4.1369506252e+01    0.2158905    0.1423932  48.17 0.0009355022    1.677    0.404
        88  -9.7752     66.1954    110.7149   8.3378549751e+01   4.6317608586e+01     0.252314    0.1839773  31.06 0.0007736461    1.431    0.301
        89  -9.2310    170.5198    110.4708   5.3912048628e+01   2.5933288861e+01    0.1479726    0.1429092 -40.99 3.438565e-05    1.048    0.046
        90  -9.4926    101.8503    109.3628   7.1299867882e+01   4.0627274457e+01    0.2158107    0.1442533  26.50  0.000379316    1.654    0.395
        91 -11.3127     80.0373    107.9606   7.7950443704e+01   4.4835384926e+01    0.5172853    0.3058283  26.16 0.0005817554    1.848    0.459
        92  -9.3105    143.3875    106.1779   5.8974050107e+01   3.2719536937e+01    0.2208361    0.1409265 -54.80 0.0009364398    1.714    0.416
        93  -9.0575    118.5863    105.8337   6.5415804815e+01   3.8083297428e+01    0.2054736    0.1468252 -58.18 0.0004205661    1.576    0.366
        94 -10.5380     15.6156    108.3238   1.0101589473e+02   5.2258880987e+01    0.3389569    0.2862539  -6.36  0.002090499    1.299    0.230
        95 -10.4663     35.2475    103.4678   9.2870214768e+01   5.1818690565e+01    0.4686556    0.2456503  -3.79  0.001632039    2.730    0.634
        96 -10.6004     51.5205     99.6703   8.5927713856e+01   5.0918394423e+01    0.6327631      0.17466 -45.84  0.002044596    3.257    0.693
        97 -10.1422    145.7415     99.9258   5.6764632354e+01   3.3475855115e+01    0.3007077    0.2031073 -29.81 0.0007869199    1.688    0.408
        98 -11.6089     21.3884    114.5533   1.0004628658e+02   5.0301820438e+01    0.4146469    0.2510478  -6.10  0.001258012    2.031    0.508
        99 -10.3482     80.9148     98.2897   7.5064730791e+01   4.6903860444e+01    0.2446857    0.2019315  40.11 0.0005676245    1.277    0.217
       100 -10.0159     82.9484     93.4365   7.3013403082e+01   4.7623272965e+01    0.2639514    0.2041246  27.61 0.0006200632    1.297    0.229
       101 -10.8001     77.9230     92.7481   7.4540189590e+01   4.8630398600e+01    0.4313487    0.3805651   0.12  0.002202387    1.110    0.099
       102 -11.3802     69.0193     95.7318   7.8509573811e+01   4.9396056045e+01    0.4245788    0.2930627  12.43 0.0009572014    1.642    0.391
       103 -11.4766    248.2839     96.6277   3.8330304391e+01   1.3047991254e+01    0.2465815    0.1986003  17.98  0.001490467    1.987    0.497
       104 -10.6956     42.9294     94.4041   8.7862407369e+01   5.3159883538e+01    0.3379514    0.2974966 -11.65  0.001316453    1.103    0.094
       105 -10.3306    125.8903     94.4891   6.0295703910e+01   3.8914244952e+01    0.2735081    0.2155722 -32.69 0.0003253498    1.325    0.245
       106 -12.0347     89.1367     89.8760   6.9918091366e+01   4.7276312953e+01    0.3466071    0.2702972 -35.21  0.000365631    1.269    0.212
       107 -10.3994     98.6896     91.0108   6.7180999854e+01   4.5233912736e+01    0.2479453     0.206045  34.78  0.000551942    1.185    0.156
       108 -10.2932     49.2058     90.9660   8.4575696221e+01   5.3210386934e+01    0.2791251    0.2375226  44.77  0.001276337    1.406    0.289
       109 -10.0382     65.7609     89.0904   7.7838857619e+01   5.1361539111e+01    0.3780932    0.2160987 -14.79  0.001438704    2.776    0.640
       110  -9.5579    104.2694     87.4137   6.4414673677e+01   4.4862764619e+01    0.2766719    0.1778614 -30.66  0.001224191    1.721    0.419
       111 -10.4643    143.2428     84.3504   5.3162551450e+01   3.7024075992e+01    0.2441591    0.2270398 -43.85  0.000514094    1.098    0.089
       112 -10.3385    113.2455     82.9314   6.0465021361e+01   4.3886345190e+01    0.3955459    0.3034088 -69.05   0.00189224    1.718    0.418
       113 -10.5854     80.2475     83.9566   7.1166911950e+01   5.0095170103e+01    0.3855639    0.3323407   5.66  0.002107567    1.137    0.121
       114 -11.2091     74.9158     78.8959   7.1502104732e+01   5.2036141121e+01    0.5976311     0.503303  48.74  0.002045169    1.377    0.274
       115 -10.0483     67.1526     81.7962   7.5201148282e+01   5.2702643596e+01    0.3430092    0.2478111 -11.13  0.001710569    1.539    0.350
       116 -11.5047     53.3722     76.7549   7.8952820411e+01   5.5754504498e+01     0.592145    0.3672407 -51.72   0.00292004    1.663    0.399
       117 -10.9481     58.3293     77.8011   7.7332427640e+01   5.4848288078e+01    0.3899487    0.2863974 -51.65 0.0007528288    1.454    0.312
       118 -12.6978    247.2613     76.3260   3.4526182733e+01   1.6437801061e+01    0.5309306    0.2924759 -50.91  0.002975529    1.490    0.329
       119 -11.6203     13.8339     74.4993   9.4814487117e+01   6.0245364881e+01     0.561135    0.3327628 -66.86  0.002952132    1.809    0.447
       120 -10.4079     13.7978     67.4357   9.3070290971e+01   6.1761591559e+01    0.3554468    0.1974115   8.41  0.001577541    1.908    0.476
       121  -9.9514    233.3229     77.6663   3.6369990945e+01   1.8802937060e+01    0.1348978   0.08301492 -67.38 0.0003368047    1.707    0.414
       122 -10.3249     94.7471     76.4295   6.4048443658e+01   4.8893163577e+01    0.3699179    0.2124992  46.06  0.001203343    1.750    0.429
       123  -9.8273      1.7166     79.7315   1.0106567267e+02   5.9781960671e+01    0.3575235    0.1255485 -49.45    0.0013307    2.045    0.511
       124  -9.5628    103.9179     74.6863   6.0690158322e+01   4.7374238059e+01    0.2402947    0.1730873  30.31  0.001173202    1.422    0.297
       125 -11.2580     79.5343     68.1220   6.6456228875e+01   5.3295540782e+01    0.7913387    0.5357552 -72.02  0.003302857    2.967    0.663
       126 -11.3356     86.0400     73.2334   6.5882243081e+01   5.1158277506e+01    0.5996341    0.3206201  34.50  0.002603757    1.872    0.466
       127  -9.9365     92.0275     71.9856   6.3523537705e+01   5.0249616688e+01     0.244868    0.1939295  37.90 0.0003630384    1.213    0.176
       128 -12.2013     75.4254     53.9472   6.3101706659e+01   5.6477186062e+01    0.6353573    0.4319466 -52.16  0.001671352    1.941    0.485
       129 -11.0259     72.8622     47.6354   6.1762844058e+01   5.7931254679e+01    0.3178883    0.2462036 -47.39  0.001152307    1.606    0.377
       130 -10.5317     24.6719     73.9986   9.0036756755e+01   5.9520217376e+01    0.2723324    0.2122357 -41.09 0.0007731711    1.107    0.097
       131 -11.4515     40.8838     71.6510   8.2499331336e+01   5.8375976358e+01    0.4825107    0.3178423 -57.50  0.001878408    1.709    0.415
       132 -11.1441     35.2972     71.7347   8.4875718901e+01   5.8978028907e+01     0.517199    0.2416808  27.43  0.002391508    2.189    0.543
       133 -10.4385     29.0254     72.0000   8.7627747536e+01   5.9551347008e+01    0.2796685    0.1664899  27.68  0.001028794    1.794    0.442
       134 -11.4607      2.0875     71.6761   9.9233943079e+01   6.1543860445e+01    0.7373523    0.1760839 -62.62  0.002759656    3.343    0.701
       135 -12.2414      4.8054     62.2805   9.5824135488e+01   6.3400466324e+01    0.4459299    0.3254311 -34.28  0.001577714    1.086    0.079
       136 -11.4007     10.0199     62.5196   9.3494062250e+01   6.3038921771e+01    0.5139474    0.2595863 -43.52  0.001709074    1.565    0.361
       137 -11.1439    187.2024     70.8895   4.1214319738e+01   2.9395304215e+01    0.5959355     0.278282 -45.18  0.002614875    2.038    0.509
       138  -8.9999     66.2632     74.6409   7.3342911583e+01   5.4295315295e+01    0.1302113     0.114267 -85.90 0.0006417685    1.632    0.387
       139 -10.9938    122.9366     68.9002   5.3676048648e+01   4.4306430512e+01    0.4490549    0.2558947  40.93  0.001380794    1.766    0.434
       140  -9.6562     46.0866     70.0134   7.9842754750e+01   5.8080452134e+01    0.2061146    0.1636746  56.68 0.0006550883    1.837    0.456
       141 -10.9175    220.0854     66.7671   3.5722336174e+01   2.3074855449e+01    0.4047882    0.2405614  71.98  0.001839951    1.786    0.440
       142 -11.1805     59.0865     64.0145   7.2668895576e+01   5.7442502459e+01    0.4219034     0.259329 -45.22  0.001396369    1.676    0.403
       143  -9.3283     52.1589     65.6470   7.5973539229e+01   5.8136322969e+01    0.1881172    0.1178624  16.77  0.000573017    1.659    0.397
       144  -9.5438     21.1352     65.1523   8.9171053324e+01   6.1677436545e+01    0.1534496     0.141126 -48.27 0.0004219674    1.279    0.218
       145 -10.7983     91.5949     62.6875   6.0658760418e+01   5.1971872559e+01    0.5523149    0.2444305  47.17  0.002234889    2.221    0.550
       146 -12.2355     26.8744     56.4271   8.3942135427e+01   6.2893226804e+01     1.003538    0.6474234  -4.03  0.005635488    1.545    0.353
       147  -7.8466     50.9607     56.4656   7.3387026780e+01   6.0004121615e+01    0.4018117    0.1995827  26.07  0.001298172    2.037    0.509
       148 -11.2165     40.9134     57.0560   7.7859409504e+01   6.1224938601e+01    0.4713278    0.2192816  36.45  0.002011333    2.309    0.567
       149 -10.8613     52.0038     61.7983   7.4770066364e+01   5.8885227292e+01    0.3824691    0.2143324  41.61  0.001333951    2.046    0.511
       150 -11.7573     43.4986     62.3971   7.8514999167e+01   5.9899251726e+01    0.2830007     0.214955 -39.17 0.0005398411    1.264    0.209
       151 -10.9697     46.4155     59.1726   7.6212808174e+01   6.0132205705e+01    0.3296774    0.2437668 -53.96 0.0009757509    1.656    0.396
       152 -11.6065    235.1343     60.7162   3.2785387834e+01   2.1016547505e+01    0.3079973    0.2654835  74.28  0.002124059    1.299    0.230
       153  -9.6875    159.1540     62.5670   4.3940645077e+01   3.7054244498e+01    0.3409006     0.102231  49.38  0.001133271    3.338    0.700
       154 -10.0678     51.3246    249.6730   1.0799325124e+02   1.4020395422e+01    0.1352326   0.07670945  60.99 0.0002651401    1.694    0.410
       155 -11.1687    117.2545     55.2803   5.0961704263e+01   4.7739140686e+01     1.244268     0.683794 -65.64  0.004188918    4.312    0.768
       156  -9.8777    109.4391     42.0531   4.8720101987e+01   5.1328142291e+01    0.8659689    0.3170231 -32.58  0.003401727    3.031    0.670
       157 -10.3993    113.7441     38.1869   4.6403174132e+01   5.0873365279e+01    0.2911454    0.2089121 -21.32 0.0003419906    1.619    0.382
       158 -11.9574    117.8046     44.1369   4.7330323647e+01   4.9196561620e+01     0.556325    0.4776027  48.91  0.002152287    1.046    0.044
       159  -9.2692    229.3336    248.3179   6.9944781458e+01  -9.9664572717e+00    0.1278519    0.0750236  -7.17 0.0007048258    1.694    0.410
       160  -9.3087    113.5860     60.7561   5.3624537380e+01   4.7700328408e+01     0.194469    0.1336648 -47.11 0.0009557342    1.632    0.387
       161  -9.2528    135.6068     58.5748   4.7614796074e+01   4.3093890915e+01    0.2666709    0.1359146 -18.83 0.0009488552    3.520    0.716
       162  -9.4014    106.5892     58.7845   5.4910933603e+01   4.9523343991e+01    0.1879296    0.1323442 -47.98 0.0009391399    1.632    0.387
       163 -10.0586     91.6777     57.1591   5.8796555505e+01   5.2865439105e+01    0.2347967    0.1831049  52.69 0.0006006717    1.361    0.265
       164 -10.3875     87.6434     56.3916   5.9820922566e+01   5.3784847981e+01    0.4671023    0.1999858 -28.55   0.00175057    3.043    0.671
       165 -10.4008    237.9456     55.8556   3.1547208058e+01   2.1177457210e+01    0.1642932    0.1496785 -64.64 0.0003660409    1.240    0.193
       166 -10.1025    157.9213     54.6918   4.2075890526e+01   3.8515340204e+01    0.4162647    0.2345934 -89.36  0.001621386    2.988    0.665
       167  -9.8096    155.1058     49.6439   4.1230302555e+01   3.9882198694e+01    0.5184106    0.2678459  -9.60  0.001452902    6.900    0.855
       168  -9.3527     67.1369     55.1728   6.6546414457e+01   5.7721689291e+01    0.1653245    0.1627317 -21.03 0.0006385372    1.290    0.225
       169 -10.1991      8.2408     54.5889   9.2159751407e+01   6.4756566092e+01    0.2351014    0.2078472 -42.97  0.001399046    1.249    0.200
       170 -11.2874     60.7135     47.8739   6.6382891937e+01   5.9975023913e+01    0.7056845    0.3860413 -28.30  0.003433602    1.941    0.485
       171 -10.6183     39.2956     43.9254   7.3920189101e+01   6.3730707127e+01    0.3336096    0.2083321   5.73  0.001074518    1.664    0.399
       172 -11.4947     45.0543     48.7901   7.3167757561e+01   6.2156908393e+01    0.4816682    0.3479486 -34.22  0.002842694    1.340    0.254
       173 -10.7678     44.4441     43.9657   7.1652615212e+01   6.3041165402e+01    0.3412052    0.2170523  26.20 0.0004346487    1.462    0.316
       174  -9.6683    230.6827     52.2986   3.1584905623e+01   2.3075915879e+01    0.1276067   0.07674782 -68.77 0.0002876065    1.614    0.380
       175  -9.0786     93.5298     52.5743   5.6679081510e+01   5.3208716839e+01    0.1394345    0.1221337  25.79  0.000203237    1.039    0.037
       176 -10.5186    245.4865     51.4858   2.9991814014e+01   2.0376395189e+01    0.1192963    0.0925713 -65.66 7.123898e-05    1.004    0.004
       177 -10.5333    240.1366     51.0759   3.0414619903e+01   2.1430963611e+01    0.1694517    0.1548143 -62.26  0.001011751    1.278    0.217
       178 -10.1250    175.5138     48.6589   3.7630484018e+01   3.5328557782e+01    0.2363888    0.1431755  46.78  0.001175405    1.868    0.465
       179 -10.4794     51.8070     48.2872   7.0122044882e+01   6.1286604025e+01     0.242015    0.2042033  -7.29  0.000702556    1.054    0.051
       180 -10.0015      2.2080     48.8158   9.3459490284e+01   6.6247864856e+01    0.2121718    0.2018711  -4.51  0.001254483    1.353    0.261
       181 -10.1459    200.0256     45.0194   3.3470049250e+01   3.0387170470e+01    0.3886768    0.1887372  89.48  0.001613959    2.965    0.663
       182 -10.0365    146.1237     47.1921   4.2211192882e+01   4.2300702375e+01    0.2284253    0.1972397 -36.01  0.001231544    1.278    0.217
       183 -11.5777     20.7746     45.8965   8.3349152065e+01   6.5429489336e+01     0.372865    0.2188646 -35.63 0.0005113792    1.449    0.310
       184  -9.9144     17.4436     41.8844   8.3606692389e+01   6.6445397757e+01    0.2369913    0.1419525  -7.00 0.0009394729    1.622    0.384
       185 -10.4951     26.3229     43.0291   7.9645643205e+01   6.5391024655e+01    0.2384803    0.2023095 -16.01 0.0009689811    1.138    0.121
       186 -10.5945     22.0657     37.0462   7.9529919104e+01   6.6840792191e+01    0.4943523    0.2588686  41.76   0.00243609    2.867    0.651
       187 -10.2220     13.2333     47.4672   8.7576627853e+01   6.5776883268e+01    0.3387279    0.1584893 -32.29  0.001725849    1.890    0.471
       188 -10.0818    138.4922     44.7201   4.2992892455e+01   4.4399275668e+01     0.337652    0.2060112  23.85  0.001464779    2.648    0.622
       189 -10.0055    134.0141     45.7733   4.4213080017e+01   4.5291185760e+01    0.3139586    0.1426521  55.51 0.0006703476    1.956    0.489
       190 -10.7813     32.6696     44.4764   7.7161338298e+01   6.4444843858e+01    0.3630254    0.2061933  15.70  0.001523915    1.742    0.426
       191 -10.8990     33.0132     41.4884   7.5894702877e+01   6.4907583525e+01    0.3154329    0.1693676  22.79  0.001608542    1.777    0.437
       192 -10.7909    155.8348     42.4163   3.9165226795e+01   4.0684051584e+01    0.2721739    0.2514434  16.85 0.0008776607    1.321    0.243
       193 -11.3444      4.9420     36.3807   8.8161499150e+01   6.8388359016e+01    0.3656001    0.2891132 -26.48  0.001603907    1.101    0.092
       194 -10.3288     11.3844     30.8060   8.2702128176e+01   6.8856116127e+01    0.2806722    0.1507682 -28.24   0.00105872    1.595    0.373
       195 -10.4305      7.3744     30.3806   8.4709469894e+01   6.9246705302e+01    0.3455519    0.1627639  -1.19  0.001755537    2.350    0.574
       196 -10.1197     92.6416     41.5451   5.3152157549e+01   5.4973208785e+01    0.3719783    0.2065911  51.73  0.001797843    1.699    0.411
       197 -11.0571    231.8941     39.1293   2.8889725829e+01   2.4613649283e+01    0.3270008    0.1548063 -54.68  0.001750853    1.841    0.457
       198 -10.6847     78.3648     37.1756   5.6036067037e+01   5.8397883037e+01    0.5060892    0.3870714 -77.05  0.002413624    2.407    0.585
       199 -11.2456     79.6921     32.7803   5.3968583677e+01   5.8706659178e+01    0.5148426    0.2659327  31.50  0.002412287    2.029    0.507
       200  -9.4591     54.1871     26.7397   6.0727516097e+01   6.4063010876e+01    0.1821711    0.1491485  -5.74  0.001190349    1.160    0.138
       201 -11.1211     60.6926     36.3829   6.2043866874e+01   6.1695989607e+01    0.3780254    0.2605824  -7.17  0.001412423    1.534    0.348
       202 -12.2024     57.6747     30.6223   6.0933634756e+01   6.2983574934e+01    0.4013887    0.2832211   3.24  0.001115866    1.420    0.296
       203 -11.3623     48.5525     30.5451   6.4609072235e+01   6.4455085940e+01     0.634561    0.2342984  34.77  0.002775979    2.501    0.600
       204  -9.3466    206.4838     37.4604   3.1084893911e+01   2.9998397749e+01    0.1232324     0.103298 -79.96 0.0004331939    1.027    0.026
       205  -9.7301    132.8073     36.9993   4.1869829541e+01   4.6696086523e+01    0.2255083    0.1432131 -65.74  0.001078928    2.148    0.535
       206 -10.2272    176.7465     35.6592   3.4278052204e+01   3.6747000707e+01    0.2401613    0.1802182 -66.15 0.0008732711    1.298    0.230
       207  -9.6133     93.9505     35.6723   5.0715820222e+01   5.5464865574e+01    0.1883124     0.147654  49.09 0.0006966593    1.170    0.145
       208  -9.7079    175.4700    246.4637   8.0375049809e+01  -2.7509616560e+00    0.1302584     0.110734  10.97 0.0001592577    1.047    0.045
       209 -11.6518    107.0839     31.6934   4.5886052432e+01   5.3130040821e+01    0.6396213    0.3518457  12.92   0.00252724    3.510    0.715
       210 -11.9320    114.3869     24.9778   4.1994712448e+01   5.2257540165e+01    0.6025522    0.2479637  56.20  0.001683241    2.014    0.504
       211  -9.9857    170.1357     33.1849   3.4580123309e+01   3.8549478745e+01    0.2342756    0.1519261  57.84  0.001297494    1.459    0.315
       212 -11.3136    126.4504    241.6895   9.0453410094e+01   5.2993783731e+00    0.3211354    0.2491036  54.82  0.001809622    1.421    0.296
       213 -11.6890    164.3012     27.6562   3.4010863859e+01   4.0529054251e+01    0.2405266    0.2137049  83.17 0.0005753758    1.051    0.049
       214 -10.1415     67.9309     32.1636   5.7713785438e+01   6.0997280775e+01    0.2431718    0.1987282  40.50 0.0008545353    1.228    0.186
       215  -9.0508    148.4154     32.4734   3.7722068820e+01   4.3631999042e+01    0.1297095    0.1143078  79.41  7.09371e-05    1.037    0.035
       216  -9.0793    229.9635     30.9731   2.7490840350e+01   2.6025703561e+01    0.1400362    0.1090137 -78.37 0.0003553287    1.052    0.049
       217 -10.5614    183.4546     37.9927   3.3945099703e+01   3.4946963775e+01    0.2222938    0.1653074  77.29 0.0001416526    1.213    0.175
       218 -10.2532    243.5094    242.4944   6.6406910092e+01  -1.0713916525e+01    0.1210044   0.08894072 -10.24 0.0008104781    1.024    0.023
       219 -10.6177    131.1373    241.0777   8.9306168027e+01   4.7200188959e+00     0.208551    0.1754789   2.50  0.001075174    1.234    0.190
       220 -10.5757     67.8471    240.8832   1.0362048896e+02   1.3792315436e+01    0.1879004    0.1792441  -3.27  0.001230711    1.286    0.222
       221 -11.1464    147.0542    237.9034   8.5249609267e+01   2.9460287162e+00    0.4304797    0.2697209  48.34  0.002128397    1.813    0.448
       222  -9.3314    199.4447    234.7977   7.3489422007e+01  -4.0812095355e+00    0.1803067    0.1074831 -27.46 0.0007488756    1.635    0.388
       223  -8.9825     15.4819    234.0036   1.1431009242e+02   2.1341368948e+01     0.163606   0.07970748 -53.95 0.0008095394    2.489    0.598
       224 -10.6923    247.0909    230.9016   6.3817731268e+01  -9.4040723119e+00    0.1731759     0.145614 -13.91 0.0008467636    1.235    0.190
       225 -10.9716    198.3219     29.2534   3.0197972638e+01   3.2758112883e+01    0.3207268    0.2177256  61.31  0.001943082    1.492    0.330
       226 -11.0201    189.1041     27.7585   3.0889913644e+01   3.4942120057e+01    0.3128428    0.2832299  -0.56  0.001592915    1.568    0.362
       227  -9.2259     99.5231     30.5263   4.7402940385e+01   5.4905391359e+01     0.130604    0.1147748  46.01 6.742675e-05    1.050    0.047
       228  -9.5041     42.8858     28.1208   6.6055360510e+01   6.5631467614e+01    0.1662873    0.1186008   3.25  0.001017642    1.265    0.209
       229 -11.6072    183.5270     25.3492   3.0984762025e+01   3.6453290730e+01    0.4841454    0.2534575  50.30  0.002457165    2.170    0.539
       230  -9.7394    150.1085     27.1600   3.5997370710e+01   4.3848225316e+01    0.4753812    0.1510967  55.41 0.0002496869    2.633    0.620
       231 -11.5485    152.8219     24.4448   3.4848362015e+01   4.3521049685e+01    0.3795373    0.2594101  81.47  0.002157999    1.399    0.285
       232  -9.6861    230.7510     26.4434   2.6559811926e+01   2.6424814975e+01    0.1472029   0.09595624  67.08 0.0009406686    1.588    0.370
       233 -11.1894    143.6584     25.1502   3.6487994190e+01   4.5556877337e+01    0.3484385    0.1737491  66.10  0.001687825    1.772    0.436
       234  -9.9116    233.4683    227.4751   6.5658163377e+01  -7.2816228069e+00    0.2038992    0.1083986 -47.32   0.00102857    2.242    0.554
       235  -9.9083    169.0701     23.7830   3.2397958464e+01   3.9876178525e+01    0.2929963    0.1385873  60.79    0.0014506    1.848    0.459
       236  -9.2003     22.3204    223.6504   1.1216073970e+02   2.2960114926e+01    0.1382908   0.07527203  64.02 0.0007048505    1.741    0.426
       237  -9.2060    153.2832    219.3339   8.0855604564e+01   5.6570438046e+00    0.1445702    0.1038881 -12.18 0.0003264357    1.617    0.382
       238 -10.0456    164.7163    211.9962   7.6973780372e+01   5.3211067448e+00    0.2378667    0.1964489  22.52 0.0006204304    1.144    0.126
       239 -10.5602    127.1859     16.5767   3.6842509849e+01   5.0209108892e+01     0.260052    0.1696024  51.41 0.0008978469    1.350    0.259
       240  -9.9929    152.8575    207.2527   7.8859822022e+01   8.2382690995e+00    0.3155235     0.217363 -66.87  0.001454606    1.989    0.497
       241  -9.0319     61.4862    206.4921   1.0137317031e+02   2.2499438400e+01    0.1385535    0.1260824  73.67 0.0008104736    1.006    0.006
       242 -10.3414     89.2243     16.6283   4.5170163243e+01   5.8557352146e+01    0.2975488    0.1595748  48.50   0.00120837    1.522    0.343
       243  -9.8678     85.0285     18.0000   4.6822344349e+01   5.9291038363e+01    0.2677363   0.09568155  50.88   0.00116215    2.246    0.555
       244  -9.4215    101.0000    204.0125   9.1052944511e+01   1.7433102645e+01    0.2347298   0.08310944 -58.53 0.0007990483    2.919    0.657
       245  -9.7764     59.6617     23.8981   5.7434217849e+01   6.3486256363e+01    0.1663806    0.1390986  -4.25 0.0004613344    1.179    0.151
       246 -10.6543     13.7724     23.5437   7.8514005723e+01   6.9793609976e+01    0.2020621    0.1505372 -13.18 0.0002534351    1.039    0.038
       247  -9.2629     78.3536    203.7281   9.6774124669e+01   2.0881668050e+01    0.1507965    0.1003286  60.23 0.0003278462    1.637    0.389
       248 -10.2904    216.5115     20.8240   2.6677416294e+01   2.9930315433e+01    0.1923267    0.1625916  65.13 0.0005931794    1.413    0.292
       249  -9.3465    233.5384    196.4980   6.0059210192e+01  -2.1513586302e+00    0.1316559    0.1062708 -21.25 0.0008094292    1.004    0.004
       250  -9.8023     16.2448    191.2909   1.1099152079e+02   3.1218428066e+01    0.1826164     0.156223 -78.37  0.001154692    1.098    0.089
       251  -9.6442     74.5082     19.7351   5.0623113515e+01   6.1214218674e+01    0.2172612    0.1420892  43.87 0.0004894235    1.286    0.223
       252 -11.2257    246.1443     19.6291   2.4142162527e+01   2.4309120619e+01    0.1961027    0.1144968 -55.12 0.0006879367    1.363    0.266
       253  -9.3063    171.5182    190.4890   7.1421599600e+01   8.6485721863e+00    0.1484454    0.1342769 -10.26 0.0001973612    1.026    0.025
       254 -10.2846     46.7221     19.2383   6.0602947529e+01   6.6183713827e+01    0.2685097    0.2082138   6.86  0.001789046    1.096    0.088
       255  -8.9568      1.4892     20.4971   8.4194431441e+01   7.1282309090e+01    0.1164783   0.08316532 -16.74 0.0008104143    1.029    0.028
       256  -9.3229    194.7624     19.4002   2.8425150146e+01   3.4660326883e+01    0.1579606   0.09710166  65.70 0.0002781622    1.508    0.337
       257 -11.9213      4.4721    184.3761   1.1328484285e+02   3.3898765926e+01    0.6166785    0.3880177  88.37  0.002903206    1.400    0.286
       258  -9.7483    190.9627     17.9800   2.8502784720e+01   3.5639004812e+01    0.1902881    0.1497658 -82.05  0.000533974    1.063    0.059
       259  -9.3835     86.0248    185.5288   9.2074007713e+01   2.4272358882e+01    0.2253658    0.1456779  31.92 0.0009519621    1.567    0.362
       260  -8.8643    239.5254    184.5226   5.6764111122e+01  -8.9281833395e-01    0.1304587    0.1067818 -27.53 5.914375e-05    1.039    0.037
       261 -10.7348    186.4962     15.1322   2.8332921078e+01   3.6917537308e+01     0.237202    0.1803932 -88.80 0.0004896207    1.097    0.088
       262  -9.5078     28.1282    175.8441   1.0645329490e+02   3.3993747375e+01    0.1875709    0.1492408 -50.43 0.0006776438    1.310    0.237
       263 -10.7216    238.7732     15.5778   2.3938581434e+01   2.6152459784e+01    0.1549795   0.08538071 -87.19 0.0007888741    1.642    0.391
       264  -9.4827     51.9944    173.7062   9.9660392059e+01   3.1961143584e+01    0.1942953    0.1844448  55.72 0.0004404067    1.100    0.091
       265  -9.8141     35.2309    169.1901   1.0373738746e+02   3.5000726985e+01    0.1937903    0.1491629  69.42 0.0004798329    1.335    0.251
       266  -9.9384      5.0029     13.0000   7.8928884596e+01   7.2131605467e+01    0.2548431     0.138946  17.43  0.001601836    1.641    0.391
       267 -11.6085      9.3853    166.9350   1.1053059102e+02   3.7871451951e+01    0.3095411    0.3000046 -61.62   0.00120525    1.195    0.163
       268 -11.0316     13.8858    159.1540   1.0851814419e+02   3.9505640676e+01    0.3535061    0.1673752 -72.92  0.001623954    1.802    0.445
       269  -8.7916    152.2953    166.6863   7.1095721874e+01   1.7361743038e+01    0.1506164    0.1248291  85.45 0.0004585648    1.600    0.375
       270  -9.9159     18.7661    164.8979   1.0778952225e+02   3.7641412962e+01    0.2757438    0.1915923 -15.21  0.001451345    1.934    0.483
       271 -10.0784    204.9470    163.1588   5.8819999380e+01   8.4837351560e+00    0.2491903     0.188412 -39.71   0.00064698    1.189    0.159
       272  -9.8361     39.6075    162.4521   1.0161918963e+02   3.6296938587e+01    0.3527559    0.1817921  64.59  0.001379804    2.693    0.629
       273  -9.6124     53.7810    156.1072   9.6508948614e+01   3.6346188322e+01    0.3119281    0.1716429  89.24  0.001165424    2.704    0.630
       274 -10.4652      9.4314    155.7075   1.0939563799e+02   4.0717331561e+01    0.2509916    0.1144214 -78.32  0.001076146    1.974    0.493
       275 -10.1330    104.7708    154.1322   8.1037571894e+01   2.9198241214e+01    0.2965214    0.2491584  10.76  0.001441472    1.323    0.244
       276 -11.9421     22.6796    149.2871   1.0482353407e+02   4.1334271152e+01    0.6977371    0.3253165 -34.23  0.002649985    2.870    0.652
       277 -11.0215     15.7107    147.8884   1.0671186174e+02   4.2253611930e+01    0.2610801    0.2557136 -84.11 0.0007316644    1.151    0.131
       278 -10.1343      3.4571    153.0025   1.1078815243e+02   4.1811668133e+01    0.3025227    0.1585385  55.44  0.001459162    2.165    0.538
       279  -9.2594    140.6842    152.3053   7.0870827993e+01   2.2931878669e+01    0.1566846    0.1267453  82.06 0.0002655198    1.625    0.385
       280 -10.1688     30.9853    151.9615   1.0270803743e+02   3.9897739674e+01    0.2211516    0.1957986 -64.75 0.0008366407    1.035    0.034
       281  -9.7747     64.0326    150.3123   9.2416630714e+01   3.6554030192e+01    0.2355857     0.123507  -1.19 0.0007046438    4.300    0.767
       282 -11.2303     47.9026    146.9824   9.6809328744e+01   3.9434301106e+01     0.635155    0.4134648 -23.97  0.002898577    1.965    0.491
       283 -10.3430      3.1319    147.5295   1.1032555430e+02   4.3216051422e+01    0.2048984    0.1499245 -72.03 0.0009247849    1.125    0.111
       284 -11.8616      2.8746    141.9914   1.0981389411e+02   4.4631578225e+01    0.4641618    0.3544825  54.90  0.002793611    1.453    0.312
       285  -9.4643     74.2232    145.8324   8.8440517770e+01   3.6289079776e+01    0.2126101    0.1703831 -32.21 0.0005252821    1.323    0.244
       286 -11.1634     33.3203    144.6458   1.0095364049e+02   4.1580196031e+01    0.3510007    0.2843885  54.83 0.0007350993    1.357    0.263
       287 -11.4777     12.5231    136.7608   1.0628970025e+02   4.5334186970e+01    0.5813873    0.3354278 -61.47  0.002988229    1.423    0.297
       288  -9.9315     40.5597    138.8631   9.7768815792e+01   4.2358551399e+01    0.4401647    0.1528295 -61.97  0.001609913    2.447    0.591
       289  -9.3858    217.1771    138.7805   5.1473161368e+01   1.1081825459e+01    0.1861381    0.1544635 -17.18 0.0004944532    1.313    0.238
       290  -9.2990     79.2380    137.9899   8.5277692547e+01   3.7555472574e+01    0.2085799    0.1248177 -56.40 0.0008768775    1.600    0.375
       291  -9.8756     32.1059    137.7044   1.0027513239e+02   4.3497745806e+01    0.2657925    0.2082371  47.90 0.0009653214    1.427    0.299
       292 -11.3359     22.2972    136.0093   1.0313212899e+02   4.4791692135e+01    0.4910068    0.4036501  37.78  0.002336925    1.375    0.273
       293 -11.1139     30.0444    133.0614   1.0020417435e+02   4.4886333988e+01    0.4732291    0.2400725 -46.46 0.0007106361    1.834    0.455
       294  -9.3389     47.4451    134.9994   9.4878864045e+01   4.2609460570e+01    0.2264231    0.1323619 -62.78  0.000706992    1.568    0.362
