#   1 NUMBER                 Running object number                                     
#   2 MAG_AUTO               Kron-like elliptical aperture magnitude                    [mag]
#   3 X_IMAGE                Object position along x                                    [pixel]
#   4 Y_IMAGE                Object position along y                                    [pixel]
#   5 X_WORLD                Barycenter position along world x axis                     [deg]
#   6 Y_WORLD                Barycenter position along world y axis                     [deg]
#   7 A_WORLD                Profile RMS along major axis (world units)                 [deg]
#   8 B_WORLD                Profile RMS along minor axis (world units)                 [deg]
#   9 THETA_WORLD            Position angle (CCW/world-x)                               [deg]
#  10 FWHM_WORLD             FWHM assuming a gaussian core                              [deg]
#  11 ELONGATION             A_IMAGE/B_IMAGE                                           
#  12 ELLIPTICITY            1 - B_IMAGE/A_IMAGE                                       
         1 -12.7525    215.8690      7.5503   5.6383999678e+01   3.1048190467e+01    0.8649359    0.6715782  73.94  0.002712233    1.226    0.184
         2 -13.0950    192.6333     32.4297   6.4465095999e+01   3.3462164086e+01     1.463776     1.221333   4.51  0.005869937    1.748    0.428
         3 -13.0966    200.6787     25.9110   6.1944355740e+01   3.2391927464e+01     1.333442    0.9913582 -37.83   0.00671602    1.501    0.334
         4 -11.6508    207.3486     18.3153   5.9503492398e+01   3.1758977859e+01     0.429947    0.3786323  45.03  0.001146391    1.486    0.327
         5  -9.1079    164.9896     11.9988   6.3114538868e+01   4.2227454263e+01    0.1520696    0.1314852  77.58 0.0004049784    1.036    0.035
         6  -9.8096     37.5128    243.4977   1.4187343637e+02   1.8816147939e+01    0.3560885    0.1638868  62.79  0.001808927    1.989    0.497
         7 -10.4392    155.4221    247.1803   1.1904128818e+02   2.0054929144e-01    0.4070342    0.1817095 -56.88  0.001624304    2.963    0.662
         8 -10.6510    166.7661    249.2490   1.1705520421e+02  -2.0404260202e+00     0.522711    0.1708071  32.56  0.001809399    3.574    0.720
         9 -10.6640    149.8349    246.2222   1.2003887947e+02   1.3057115366e+00     0.408729    0.2656751 -75.19   0.00202198    2.371    0.578
        10 -11.7193    133.1989    249.0336   1.2380964444e+02   3.5707059381e+00    0.8872815    0.2826957  40.71  0.003460698    2.660    0.624
        11 -10.1104    121.3631    248.5607   1.2613983782e+02   5.6041985523e+00    0.3054285    0.2326305 -77.22  0.001560878    1.504    0.335
        12 -10.6592     83.1522    246.4056   1.3350280481e+02   1.2019754190e+01    0.3177161    0.2232504 -69.00 0.0007448167    1.496    0.331
        13 -10.6017     70.6711    250.2595   1.3629052684e+02   1.3071369768e+01    0.4722878    0.1475093  39.63  0.001806479    2.824    0.646
        14 -10.6388     73.8000    246.8558   1.3536490859e+02   1.3299771408e+01    0.2758324    0.2323062  65.75 0.0007625728    1.089    0.082
        15 -10.3255     62.9862    250.1660   1.3772868774e+02   1.4164018714e+01    0.2780508    0.1924254  37.85  0.001207831    1.568    0.362
        16 -13.1573     51.0458    234.2606   1.3856975532e+02   1.9016386049e+01     1.760422    0.9271065  67.96  0.009195138    1.865    0.464
        17 -11.4058     19.1247    242.6381   1.4508322174e+02   2.1127564146e+01    0.4426359    0.2201133  71.32 0.0004793413    1.753    0.430
        18 -14.6907      8.5035    203.1374   1.4427562562e+02   3.0600851718e+01     5.375413      1.27009 -71.05   0.01119001    3.194    0.687
        19 -15.1990     45.0028    198.7260   1.3629514767e+02   2.7676001522e+01     8.761641     3.565987  65.17    0.0230511    3.630    0.725
        20 -10.2152    155.2092    228.9116   1.1629709283e+02   3.5838228494e+00    0.2629878    0.1751512  14.59  0.001199731    2.066    0.516
        21  -8.0691     44.5636    247.4681   1.4090059030e+02   1.7138500825e+01    0.1225034   0.08919242  71.77 0.0002045972    1.067    0.063
        22 -10.0137    147.4610    229.5245   1.1803521889e+02   4.8227703431e+00    0.3021556    0.1239901  39.37  0.001221372    2.208    0.547
        23 -11.0913     16.5322    198.8847   1.4232816506e+02   3.0779628541e+01    0.4370174    0.2027635  50.95   0.00090169    2.055    0.513
        24 -10.0505    152.6722    220.7704   1.1551956136e+02   5.6184661757e+00    0.2472175    0.2372719 -30.39 0.0005742573    1.134    0.118
        25 -10.1951     68.8119    245.2034   1.3616432703e+02   1.4342689685e+01    0.2479049    0.1969647 -64.76  0.001289927    1.444    0.307
        26 -12.4876     43.7863    217.1526   1.3842286556e+02   2.3638255277e+01    0.5558129    0.4856329 -72.54  0.001491044    1.297    0.229
        27 -11.9815    240.2905    243.2888   1.0187664422e+02  -1.2437135830e+01    0.2309939    0.2030787   2.24 0.0002555592    1.195    0.163
        28  -9.1995    189.4737    188.9576   1.0174941307e+02   5.1762384329e+00    0.3846439    0.1883681 -58.95  0.001343751    3.204    0.688
        29 -11.0900     68.1071    186.8644   1.2957373603e+02   2.7444925598e+01    0.4248568     0.279321 -43.51  0.001369447    1.871    0.466
        30 -10.9878     72.7336    180.7406   1.2758581751e+02   2.8262003145e+01    0.3266201    0.2496909 -48.91 0.0007805907    1.429    0.300
        31  -9.5772     28.3521    240.9292   1.4333625303e+02   2.0429094080e+01    0.2767756    0.1340766  49.38 0.0005200567    1.750    0.429
        32  -8.6504    198.8323    179.0261   9.7779114140e+01   5.3784029308e+00    0.2338123    0.1671867 -68.41 0.0007586039    1.965    0.491
        33 -12.2564     87.6557    163.6426   1.2103154103e+02   3.0174264174e+01      2.61376    0.9796232  53.76  0.003365971    4.122    0.757
        34 -12.9382     68.0303    145.1977   1.2291275160e+02   3.7692323835e+01     2.948254     1.450295 -85.91  0.003545076    5.194    0.807
        35  -9.5785    228.4877    173.0006   9.0750405669e+01   1.0262988322e+00    0.2203105    0.1275347 -39.72  0.001031466    1.587    0.370
        36 -12.5156     69.2812    166.4911   1.2624705019e+02   3.2252137084e+01    0.5441439    0.2997021 -47.69  0.001357908    1.918    0.479
        37 -10.6124     81.6803    170.0047   1.2366802789e+02   2.9548079673e+01    0.2936006    0.2660695 -77.91 0.0004097467    1.027    0.026
        38 -10.1907    245.6584    165.6340   8.6200516957e+01  -6.2743603601e-01    0.2401455    0.2349312  58.63  0.001013054    1.227    0.185
        39  -8.8479    101.8509    162.0836   1.1706500620e+02   2.8173201778e+01    0.2125092    0.2006689 -71.52 0.0002651523    1.036    0.035
        40 -10.0873    246.3156    160.8235   8.5105761219e+01   1.2512563449e-01    0.2421652    0.2249133 -55.69 0.0002463163    1.196    0.164
        41 -10.2023    246.4709    155.9809   8.4084132519e+01   9.7327185332e-01    0.2954212    0.2363016  10.63 0.0004714098    1.498    0.333
        42  -8.1471    167.5820    158.5217   1.0014871344e+02   1.6035598560e+01    0.1532951    0.1490905 -35.83 9.902456e-05    1.030    0.030
        43 -10.4072    214.4468    153.9238   8.9337692688e+01   7.3397067540e+00    0.2400236    0.2291763  42.36  0.000183076    1.126    0.112
        44 -10.7626     41.0556    148.3683   1.3077657900e+02   4.0254496885e+01    0.3617392     0.247313 -60.85  0.001431314    1.256    0.204
        45 -10.2943    101.3951    146.0822   1.1395757795e+02   3.2172862846e+01    0.5762687    0.3700966 -24.19   0.00193886    2.440    0.590
        46 -11.4296     89.5241    145.8729   1.1713688853e+02   3.4254429014e+01    0.3023174     0.268535 -43.42 0.0005965814    1.158    0.137
        47  -9.6633    102.8142    236.3622   1.2839528953e+02   1.1000346078e+01    0.2129421    0.1674369  89.11 0.0006103827    1.300    0.231
        48  -9.0412    233.5791    136.0983   8.2040518091e+01   7.0317655632e+00    0.2065424    0.1907304  89.18  0.001208191    1.205    0.170
        49  -8.8944    111.2160    134.0471   1.0862745063e+02   3.3273676938e+01    0.2632391    0.2159162  -1.42  0.000606583    1.555    0.357
        50 -13.3534      7.7575    245.2016   1.4718012697e+02   2.1833428300e+01     1.628926     1.021325  55.62   0.01136985    1.347    0.258
        51  -9.8487     98.5591    130.7096   1.1135254652e+02   3.6393271560e+01    0.2820325    0.2355551 -12.21  0.000872889    1.449    0.310
        52 -10.1159     43.9587    130.4799   1.2702702756e+02   4.4279802798e+01    0.2102343    0.1677152  62.52  0.001209322    1.434    0.303
        53 -10.2001     26.9218    123.5104   1.3076478295e+02   4.7612936622e+01    0.2139931    0.1525609 -47.66 0.0007101612    1.281    0.219
        54  -8.7840    107.8004    121.9413   1.0667910362e+02   3.6765925387e+01    0.2148286    0.1929465 -30.16 0.0002911624    1.152    0.132
        55  -9.4572    167.4025    112.8155   8.9335925637e+01   2.6006742113e+01    0.3852749    0.2769821 -75.80  0.001479676    1.821    0.451
        56 -10.9496     43.3930    109.7032   1.2317873572e+02   4.9240444301e+01    0.3090792    0.2927288 -15.45   0.00122365    1.157    0.136
        57 -10.2338    243.0066     92.9871   7.1330530150e+01   1.2968848478e+01    0.3006296    0.1924115 -18.75  0.001331305    2.624    0.619
        58  -8.4322    174.4660     89.4978   8.1871813298e+01   2.8940308116e+01    0.1489618    0.1436694 -87.02 8.004971e-05    1.027    0.027
        59  -9.8671    230.3753     80.8938   7.0451469379e+01   1.7665096913e+01    0.2304107    0.2021345  78.21 0.0001784039    1.169    0.145
        60  -8.8073    157.1419     78.8248   8.2626430273e+01   3.4968705226e+01    0.2028105    0.1796599  16.79 0.0008141196    1.321    0.243
        61  -9.4187    234.8935     76.8927   6.8974826122e+01   1.7361820360e+01     0.190166    0.1867819 -44.93 0.0005165841    1.280    0.219
        62  -8.2236    117.0946     72.1393   9.0330310985e+01   4.5179303591e+01    0.1782606    0.1661996 -83.18 0.0002531152    1.236    0.191
        63 -10.2665    129.5385     49.8776   8.0409008278e+01   4.5988983091e+01    0.2405263    0.2030456  47.45 0.0002610011    1.091    0.084
        64 -10.4145     38.5408    240.4958   1.4145329036e+02   1.9302357053e+01    0.3259153    0.2167997  72.92  0.001548505    1.224    0.183
        65 -10.7018     88.0772    243.0773   1.3217324339e+02   1.1944049859e+01    0.2919599    0.1861743  74.07 0.0006025182    1.649    0.394
        66  -9.7498     36.8073    248.1606   1.4235023510e+02   1.7965024170e+01    0.2541257    0.1685242  42.42   0.00090217    1.548    0.354
        67  -8.7666     35.7342     37.3301   1.0571299304e+02   6.4215265079e+01    0.1967234    0.1251817  34.63  0.001200862    1.783    0.439
        68  -8.8454     28.8219     35.1723   1.0778622862e+02   6.5286316584e+01    0.2723318    0.1314113  36.30  0.001323216    2.451    0.592
        69  -9.2445    224.9631     32.2619   6.0634268698e+01   2.6115390361e+01    0.2916932    0.1709929 -43.56  0.001176155    1.646    0.393
        70  -8.5702      1.8124     25.5865   1.1634461675e+02   6.9013446984e+01    0.1309461    0.0897295  21.50 0.0009457205    1.685    0.407
        71  -8.7022    170.7380     16.4489   6.3466252809e+01   4.0435519304e+01    0.1825912    0.1005222  58.12 0.0009394167    1.590    0.371
        72  -9.2215     40.4568    246.6616   1.4158233761e+02   1.7815446060e+01    0.2812153    0.1649544  86.92 0.0008391753    1.537    0.349
