#   1 NUMBER                 Running object number                                     
#   2 MAG_AUTO               Kron-like elliptical aperture magnitude                    [mag]
#   3 X_IMAGE                Object position along x                                    [pixel]
#   4 Y_IMAGE                Object position along y                                    [pixel]
#   5 X_WORLD                Barycenter position along world x axis                     [deg]
#   6 Y_WORLD                Barycenter position along world y axis                     [deg]
#   7 A_WORLD                Profile RMS along major axis (world units)                 [deg]
#   8 B_WORLD                Profile RMS along minor axis (world units)                 [deg]
#   9 THETA_WORLD            Position angle (CCW/world-x)                               [deg]
#  10 FWHM_WORLD             FWHM assuming a gaussian core                              [deg]
#  11 ELONGATION             A_IMAGE/B_IMAGE                                           
#  12 ELLIPTICITY            1 - B_IMAGE/A_IMAGE                                       
         1 -14.8228     68.5157    144.2122   1.0608905897e+02   3.7250644086e+01     5.192914     1.941342  57.80    0.0039738    4.294    0.767
         2 -14.5155    198.8205     37.2400   4.8439655628e+01   3.0799201732e+01     2.044566     1.452352  15.58  0.007057589    1.867    0.464
         3 -14.5417    210.0307     25.3953   4.3857823526e+01   2.9540402865e+01     1.551846     1.049621  -0.29  0.003776934    1.865    0.464
         4 -12.6671     16.9469      3.2922   8.6074278714e+01   7.6483504045e+01    0.7105541    0.4387308 -21.73  0.003947569    1.688    0.408
         5 -12.0672      1.9471     46.8452   1.1406318277e+02   6.8105993828e+01     1.390012   0.03848025 -69.53  0.003527968    6.503    0.846
         6 -13.8870      3.2718     11.4921   1.0187749406e+02   7.6160261152e+01     2.234757    0.7100065 -59.84  0.009615978    2.567    0.610
         7  -8.8816    152.2913      8.6880   4.4525309333e+01   4.5825793871e+01    0.1511917   0.09786451 -55.59 0.0002122025    1.588    0.370
         8  -9.0941    120.6499      8.3246   4.9000912663e+01   5.4183367685e+01    0.1555079    0.1015667 -59.04 0.0007048707    1.753    0.430
         9 -10.1365     60.6046      7.7635   6.4685126001e+01   6.8560227264e+01    0.1874062     0.116412 -35.96 0.0003112484    1.587    0.370
        10 -11.9912     43.9325      4.6680   7.0111654817e+01   7.2188337113e+01    0.5216702    0.2964375  11.56  0.002252819    2.737    0.635
        11 -12.4620    234.2498      2.5018   3.5977763444e+01   2.6418624374e+01    0.6980007     0.299955  80.51   0.00329456    2.548    0.608
        12 -11.2448     52.7868      2.9239   6.4755701937e+01   7.0743719513e+01    0.2244443    0.2137564  56.14  0.001032032    1.260    0.206
        13 -10.9061     61.9444      1.8567   6.0385989974e+01   6.8988398404e+01    0.2760954    0.1666513  50.22  0.001054541    1.628    0.386
        14 -11.0368    148.2067     44.4044   5.8251551362e+01   4.2492412921e+01    0.3105922     0.256973 -71.77 0.0004880419    1.317    0.241
        15 -10.9445    139.7429    248.9533   1.0335064030e+02   8.4329376183e+00     0.240524    0.1516893 -68.32  0.001578059    2.647    0.622
        16 -13.4451     47.7183    222.3082   1.1821922560e+02   2.3722714468e+01    0.9252593    0.5409659  77.68  0.003121655    1.687    0.407
        17 -13.3451     15.4427    192.8398   1.2320948508e+02   3.2508008939e+01     0.655852     0.257394 -64.94  0.002170573    2.732    0.634
        18 -14.2547     85.4758    229.6861   1.1147439310e+02   1.8076668889e+01     1.268718     1.067145  64.67  0.003310286    1.163    0.140
        19 -14.4997     46.2541    203.5761   1.1733464003e+02   2.7306240991e+01     2.700791    0.9183115  54.91  0.009357559    2.663    0.624
        20 -16.6709      6.8805    204.7266   1.2542343820e+02   3.0952170240e+01     8.211377     1.221405 -77.88   0.01005871    5.564    0.820
        21 -10.5476     75.2214    189.8020   1.0994265697e+02   2.6508889014e+01     0.341136    0.1685333  62.40    0.0010544    2.319    0.569
        22 -10.4083     72.2041    186.4494   1.1027457753e+02   2.7565945188e+01    0.2069183    0.1679292  64.36 0.0004447429    1.073    0.068
        23 -10.8777    146.9007    183.2570   9.3631003560e+01   1.7137383562e+01    0.2796215    0.2059446  54.84  0.001168713    1.502    0.334
        24 -10.7208     99.2117    180.8961   1.0355123279e+02   2.4945843144e+01    0.2877425     0.235991 -20.59  0.001733896    1.654    0.395
        25 -11.4304    141.0003    174.3690   9.3423289307e+01   1.9639223172e+01    0.5513343    0.3666193  78.03  0.002531393    2.776    0.640
        26 -12.1904     69.6864    176.4815   1.0980745111e+02   2.9935078581e+01    0.3587943    0.2647366 -32.09  0.002037871    2.014    0.503
        27 -12.0683     73.8127    171.6226   1.0828692122e+02   3.0415625939e+01    0.3107004    0.2477507 -38.93  0.001240223    1.641    0.391
        28  -9.5597     40.8552    178.0965   1.1668715055e+02   3.3027902012e+01    0.1835189    0.1279382  63.92 0.0002732592    1.206    0.171
        29  -9.2069    219.2604    177.6267   7.9291876266e+01   6.5753801570e+00    0.1057582   0.09257454 -47.51 0.0006978051    1.657    0.397
        30 -12.9631     89.2375    155.3523   1.0234387591e+02   3.1739334176e+01     1.812953    0.8948523 -73.47  0.002516374    2.609    0.617
        31 -13.5715     48.9194    108.0707   1.0622581887e+02   4.8615485438e+01     1.960123     1.208473 -88.62  0.009336784    1.756    0.431
        32 -14.3970     29.5246    248.4240   1.2279995787e+02   2.1271460861e+01    0.7569593    0.4669468  21.98  0.005294726    2.085    0.520
        33  -9.7093     84.5183    173.9329   1.0603548876e+02   2.8460971017e+01    0.1714597    0.1227766 -67.74 0.0003229645    1.460    0.315
        34  -9.5177     48.5926    171.1241   1.1427718359e+02   3.3662163742e+01    0.2273708    0.1549072 -29.13  0.001198797    2.491    0.598
        35  -9.5584     37.4530    167.9707   1.1669264264e+02   3.5579758589e+01    0.2736022   0.09617424  48.68  0.001219956    2.427    0.588
        36  -8.9904     42.4750    167.4428   1.1542855516e+02   3.5154610123e+01     0.125334    0.1020797  69.31 0.0001569152    1.014    0.013
        37 -10.1639     32.4328    165.0330   1.1768309047e+02   3.6749439534e+01    0.1971444    0.1739458   8.34 0.0008132491    1.545    0.353
        38  -9.9528    159.7957    163.3073   8.7564898803e+01   1.8416675379e+01    0.2200681    0.1816212 -57.10  0.001285257    1.440    0.306
        39  -9.4174     49.0308    160.7727   1.1318098939e+02   3.5900522112e+01    0.1769895    0.1465743  62.53 0.0005551224    1.065    0.061
        40 -16.0510     60.6541    247.2418   1.1727167931e+02   1.8212863728e+01     8.970269     2.642407  25.75  0.008243144   10.732    0.907
        41 -10.0181     48.4963    153.9933   1.1261699410e+02   3.7505155844e+01    0.2507234    0.1468177  52.23 0.0007186509    1.566    0.362
        42 -11.1666    133.5915    144.4390   8.9646546472e+01   2.6616142519e+01     1.083497    0.2624133 -53.63   0.00274674    6.183    0.838
        43  -8.8667    112.5042    150.5449   9.5806574935e+01   2.9056077853e+01    0.1366599    0.1286796  60.55 0.0001468233    1.007    0.007
        44 -12.6291     55.2143    146.8431   1.1002163855e+02   3.8362624715e+01    0.6743491     0.601143  44.23  0.004270802    1.209    0.173
        45 -10.5645    174.2867    148.5633   8.1758825880e+01   1.8379590916e+01    0.3261618    0.2484633 -56.46  0.001194453    1.632    0.387
        46 -11.7143     40.6475    145.8790   1.1384165504e+02   4.0278002612e+01    0.3920205    0.3094293 -34.19  0.002318465    1.732    0.422
        47 -10.7434     84.0710    143.4766   1.0181972572e+02   3.5180662439e+01     0.309299    0.2162092  62.44 0.0009729096    1.485    0.327
        48 -11.0990    102.8735    140.2222   9.6344293505e+01   3.2911247999e+01    0.5238118    0.3427195 -24.22  0.002269506    2.505    0.601
        49 -12.4737     90.2676    140.3573   9.9657825149e+01   3.4935466604e+01    0.2789202    0.2612438 -60.40 0.0005528294    1.133    0.118
        50 -13.2286     44.6574    129.9762   1.1085600313e+02   4.3658729502e+01    0.7349217    0.4439071 -89.05  0.002633058    1.644    0.392
        51 -10.5552    106.0351    130.4978   9.3636587349e+01   3.4537707226e+01    0.3749299    0.2844773 -63.89  0.001934109    1.344    0.256
        52 -11.3792     32.0657    131.3940   1.1471061704e+02   4.4649570415e+01    0.2686625    0.2394231 -27.81 0.0009834907    1.474    0.322
        53 -10.3109    111.8166    130.6039   9.2153892842e+01   3.3486582601e+01    0.2953944    0.2369655  -0.00 0.0009905354    1.684    0.406
        54 -11.2697    135.7199    127.7374   8.5611223785e+01   2.9613760488e+01    0.4949422    0.1649104 -49.40  0.001639404    3.150    0.683
        55 -12.5602     82.5511    162.4669   1.0501895224e+02   3.1170271001e+01    0.6511385     0.342898  59.16  0.002973944    2.148    0.534
        56 -10.4846    160.4321    127.8476   8.0086177224e+01   2.4722476390e+01    0.3558341     0.247633 -51.90  0.001740159    1.570    0.363
        57 -11.1404     99.1250    126.7223   9.4712670199e+01   3.6596053173e+01    0.2844225    0.2468385  -8.40 0.0006255701    1.456    0.313
        58 -11.2219    118.7883    123.6943   8.8872297916e+01   3.3718283592e+01    0.4971558     0.316696   4.96  0.001775117    3.476    0.712
        59 -10.0374    108.0621    119.2021   9.0678258256e+01   3.6716463063e+01    0.2066598    0.2016967  83.34 0.0003778623    1.029    0.029
        60 -13.7581     70.5542    157.6640   1.0737915924e+02   3.3898238808e+01    0.5476483    0.4914925 -37.25  0.001798259    1.397    0.284
        61 -10.0200    168.3703    113.2826   7.4934759699e+01   2.5795568299e+01    0.3546904    0.2361673 -61.99  0.001140615    2.058    0.514
        62 -10.5054    134.6649    112.1015   8.2148585859e+01   3.3058493688e+01    0.3538123    0.1363186 -44.96  0.001239447    2.542    0.607
        63 -11.2233    118.3196    110.1351   8.5791712004e+01   3.6778406348e+01    0.6027627    0.3553304  66.51  0.002297402    2.615    0.618
        64 -10.1188    205.4961    110.2385   6.7373273153e+01   1.8697582373e+01    0.2784295    0.2159098  34.67 0.0009337688    1.374    0.272
        65 -10.0653    134.8215    105.1141   8.0315341485e+01   3.4474578212e+01    0.5337364    0.1622503 -39.76  0.001581452    3.544    0.718
        66 -12.1628     31.5154    109.2090   1.1216959800e+02   5.0225346321e+01    0.4587831    0.2484351 -56.75  0.002251106    1.734    0.423
        67 -11.4703    241.4740     98.9980   5.9445937175e+01   1.3457046641e+01    0.2391577    0.1734148 -19.02 0.0008705361    1.206    0.171
        68 -11.0619    208.4049    196.9199   8.4424087451e+01   5.7104862585e+00    0.1880757     0.145418  32.65 0.0005418742    1.291    0.225
        69  -8.9517    159.7287    197.3046   9.3255481840e+01   1.2882171861e+01    0.1097681   0.09190118  63.74 0.0001945881    1.537    0.349
        70 -11.2363     52.3823     92.2858   1.0195498215e+02   5.2163416020e+01    0.5404981    0.2466534 -53.61  0.002150818    1.973    0.493
        71 -10.1665     41.7643     91.9350   1.0572523887e+02   5.3539410927e+01    0.2062808    0.1996871  67.23 0.0004788605    1.156    0.135
        72  -8.8217    120.6330     88.2900   7.9245979626e+01   4.1025856645e+01    0.1576438    0.1212539 -88.86 0.0007024914    1.708    0.415
        73  -9.6586     75.4790     85.0013   9.2026590955e+01   5.0530109681e+01    0.2032617    0.1962594  67.46 0.0003781072    1.099    0.090
        74 -10.0010    158.1041     81.1362   6.8268949950e+01   3.3938507915e+01    0.2298927    0.2079985  -0.10 0.0004574535    1.194    0.163
        75  -9.2970     57.7947     66.9888   9.3269004843e+01   5.7635000234e+01    0.3201721    0.1312835  52.04  0.001050426    3.815    0.738
        76 -10.7836     13.4478     59.7029   1.1092879031e+02   6.4270337307e+01    0.2440501    0.2067084 -82.90 0.0004403278    1.123    0.109
        77 -13.3648    189.3702     44.1174   5.1661335492e+01   3.2197075885e+01     1.076573    0.6584057  40.80 0.0009209437    1.982    0.495
        78 -10.1486    172.4443    240.2627   9.6743346848e+01   5.3079193533e+00    0.2360758    0.1837525 -72.99  0.001362922    2.445    0.591
        79  -9.6230     43.5149    236.4363   1.1978290876e+02   2.1776303457e+01    0.1046695   0.07794747  52.99 5.081987e-05    1.044    0.042
        80  -9.8702     72.6704    230.1199   1.1394539499e+02   1.9555003853e+01    0.2150427    0.1706834 -14.57  0.001490208    2.065    0.516
        81 -16.6441      9.0212    242.4623   1.2614711826e+02   2.4140420518e+01     1.563127     1.420411  56.00   0.01446191    1.428    0.300
        82 -12.2129      3.7118     30.1859   1.0882788354e+02   7.1982221237e+01     0.680692    0.2847751  21.54  0.003295527    2.750    0.636
        83 -10.4475     34.4588    228.0313   1.2104929786e+02   2.4124741647e+01    0.1842291    0.1234871  40.33 0.0005041304    1.290    0.225
        84 -11.8147    146.6873     50.9812   6.0861532884e+01   4.1864023897e+01    0.5653967    0.3508437 -72.62  0.001588525    2.405    0.584
        85  -9.4676    189.6987     15.0076   4.2659994294e+01   3.5571457530e+01    0.1998124     0.168402 -37.11 0.0005520862    1.096    0.088
        86 -10.0104     56.1315    223.8953   1.1668894723e+02   2.2515699845e+01    0.1657808    0.1076199  57.00 0.0002841104    1.232    0.188
        87  -8.8885    107.2894    210.3171   1.0534500126e+02   1.8432423372e+01     0.107907   0.08891559  -0.38 0.0002506012    1.595    0.373
        88 -13.9779     54.7714    192.8328   1.1472311898e+02   2.8431813742e+01    0.8730221    0.7220543 -46.17  0.003956838    1.627    0.386
        89  -9.5008    111.8299    217.3667   1.0520765452e+02   1.6648490272e+01     0.160493    0.1245078  36.95 0.0006084036    1.101    0.091
        90 -10.1885    113.3917    207.6327   1.0381157779e+02   1.8037802990e+01    0.2155312    0.1700936  62.60 0.0006942826    1.309    0.236
        91 -12.1469    194.1456    197.9843   8.7042101849e+01   7.6349776290e+00     1.105499    0.5801332 -51.25  0.005446177    3.152    0.683
        92  -9.5210     81.8471    194.8188   1.0900589183e+02   2.4667070866e+01      0.17732    0.1577974  42.34  0.001226396    1.158    0.137
