#   1 NUMBER                 Running object number                                     
#   2 MAG_AUTO               Kron-like elliptical aperture magnitude                    [mag]
#   3 X_IMAGE                Object position along x                                    [pixel]
#   4 Y_IMAGE                Object position along y                                    [pixel]
#   5 X_WORLD                Barycenter position along world x axis                     [deg]
#   6 Y_WORLD                Barycenter position along world y axis                     [deg]
#   7 A_WORLD                Profile RMS along major axis (world units)                 [deg]
#   8 B_WORLD                Profile RMS along minor axis (world units)                 [deg]
#   9 THETA_WORLD            Position angle (CCW/world-x)                               [deg]
#  10 FWHM_WORLD             FWHM assuming a gaussian core                              [deg]
#  11 ELONGATION             A_IMAGE/B_IMAGE                                           
#  12 ELLIPTICITY            1 - B_IMAGE/A_IMAGE                                       
         1 -15.0155     67.9066    144.0555   1.1310775873e+02   3.7454900036e+01     4.872799     2.305451  68.16  0.006209479    3.189    0.686
         2 -14.6499    206.1015     19.2062   4.9651267800e+01   3.1208451209e+01     1.899917     1.270412  22.59  0.008750194    1.962    0.490
         3 -14.5431    195.1357     32.6224   5.5189160070e+01   3.2463823400e+01     2.235207     1.422779  27.15  0.008042528    2.034    0.508
         4 -12.3148     19.2315     33.7766   1.0489171315e+02   6.5797978947e+01    0.2928255    0.2360964  46.24   0.00186142    1.761    0.432
         5 -12.3021     31.1082      3.4189   8.7999659760e+01   6.9905203685e+01    0.3142165    0.2948456  48.64  0.002409034    1.786    0.440
         6 -12.3621    194.1676    194.1768   9.5336787555e+01   6.1561496099e+00    0.8641062    0.6117598 -66.53  0.004610721    2.202    0.546
         7 -10.7489    174.1721    249.0660   1.0667777414e+02   2.2694336327e+00    0.2559212    0.1855617  87.62  0.001385934    2.158    0.537
         8 -16.0234    105.5910    247.4968   1.1745399827e+02   1.3057503254e+01     9.398488     1.741133  42.61    0.0343904    4.803    0.792
         9 -12.0058     76.7806    175.5317   1.1528378399e+02   2.9698076851e+01    0.2714209    0.2175568 -55.10  0.001598367    1.528    0.346
        10  -9.7956     99.2408    180.8074   1.1150057915e+02   2.5366451368e+01    0.1849178    0.1462267  73.46  0.000811949    1.096    0.087
        11 -10.7881    144.1263    179.4828   1.0240740900e+02   1.7976518258e+01    0.2053783    0.1914205   1.55  0.001289994    1.352    0.260
        12  -9.8696    197.1951    176.0341   9.1519491343e+01   8.3280747593e+00    0.2894239    0.2113007  73.60 0.0009708765    1.969    0.492
        13 -10.6702    196.0250    170.5867   9.0698986327e+01   9.4229741003e+00    0.3302689     0.307737 -11.33  0.001095319    1.143    0.125
        14 -10.3470    193.1279    164.6602   9.0089626196e+01   1.0972449625e+01    0.3679808    0.2632357 -52.71  0.001903183    1.677    0.404
        15 -12.4532     91.0901    158.3461   1.1008529709e+02   3.1148609868e+01     1.067329    0.6208812 -75.42  0.001852918    1.815    0.449
        16 -14.1458     25.8366    195.3940   1.2640021773e+02   3.1900573404e+01     1.088529     0.270751  49.59  0.005441378    3.065    0.674
        17 -11.3212    138.2526    170.6612   1.0214082012e+02   2.0695269630e+01    0.4373294    0.3391323 -52.16  0.002512429    1.405    0.288
        18 -17.5731      6.2359    240.0829   1.3163452361e+02   2.6189488352e+01     12.15785     1.165407 -77.05   0.01279591    8.129    0.877
        19 -10.4200    145.7634    168.2101   1.0018965148e+02   1.9754851269e+01    0.1769967    0.1614417  13.43 0.0004517028    1.334    0.250
        20  -9.9958    140.0661    156.7191   9.9318724386e+01   2.3049303180e+01    0.2153854     0.181433 -84.91  0.000449125    1.256    0.204
        21  -9.9075     58.4501    176.0357   1.1891903625e+02   3.1987005855e+01    0.2254998    0.1247005  58.61  0.000780355    1.643    0.391
        22 -11.0194    133.7702    144.9947   9.8461064237e+01   2.6604522870e+01    0.9762053    0.2337845 -54.66  0.002542878    5.751    0.826
        23 -10.6163    174.4182    148.9344   9.0591411065e+01   1.7601018024e+01    0.2845592    0.2391362  64.23  0.000854339    1.250    0.200
        24 -10.9705    104.3033    142.1129   1.0454613340e+02   3.2488380197e+01    0.4935404    0.3076378 -32.49   0.00220662    2.606    0.616
        25 -12.3359     91.8667    142.6896   1.0747922758e+02   3.4353838165e+01    0.2454553    0.2206958 -58.49  0.000439917    1.222    0.182
        26 -13.4590     45.2666    129.8120   1.1632361313e+02   4.3223337909e+01    0.6203322    0.3554031 -73.45  0.003565062    1.468    0.319
        27 -10.2697    105.8737    130.6596   1.0205406081e+02   3.4691765353e+01    0.2989439    0.2140944 -63.91  0.001261577    1.347    0.258
        28 -10.6880    160.1280    128.7023   8.9175327464e+01   2.4509675650e+01    0.3841132    0.2030154 -28.38  0.001405125    2.794    0.642
        29 -10.2617    135.6134    128.3355   9.4600582717e+01   2.9685136912e+01    0.2920972    0.1360815 -53.14  0.001142742    2.252    0.556
        30 -11.0605    100.2352    128.2145   1.0292585071e+02   3.6166789884e+01    0.2823334    0.2212962 -35.26 0.0009140954    1.567    0.362
        31  -9.7278    125.5167    127.4818   9.6763034794e+01   3.1831430248e+01    0.2573022    0.1329377 -61.52 0.0009790782    2.299    0.565
        32 -11.2255    118.2231    125.9645   9.8163958222e+01   3.3519822416e+01    0.3427031    0.2425737 -30.27   0.00118593    1.865    0.464
        33 -10.4331    112.9118    131.6595   1.0058833990e+02   3.3254965938e+01    0.3073913     0.243822  14.21  0.001015981    1.798    0.444
        34  -9.6911    108.8366    120.1890   9.9205596071e+01   3.6454405935e+01     0.196884    0.1760538  87.27 0.0003443095    1.103    0.094
        35 -15.0396     11.2006    206.4138   1.2940776893e+02   3.1336293680e+01    0.6978779    0.5224035  39.60  0.003124066    1.797    0.444
        36 -12.9798     84.8552    165.2686   1.1236541106e+02   3.0638426145e+01     1.124356    0.3987058  54.80 0.0006765919    3.261    0.693
        37  -9.9159    167.7293    112.5466   8.3617367010e+01   2.5981371119e+01    0.3147327    0.2282588 -70.60  0.001392695    1.833    0.454
        38 -11.2128    119.2245    110.7048   9.4507099350e+01   3.6607300970e+01    0.3875881    0.2423692  79.08  0.001507049    2.811    0.644
        39 -11.3260     20.1419    111.0942   1.1991766314e+02   4.9604213074e+01    0.2148311    0.1533491  45.96 0.0009848978    1.628    0.386
        40 -10.0141    205.6177    110.0814   7.5273298539e+01   1.7587708288e+01    0.2849672    0.2153745  41.98 0.0006045565    1.322    0.244
        41 -10.1645    109.8717    115.3552   9.7898459802e+01   3.7321948385e+01    0.2233486    0.1816841 -70.84 0.0004185809    1.229    0.186
        42 -13.6755     73.1959    161.2121   1.1426377225e+02   3.3112156858e+01     0.569941    0.4497879 -47.74  0.002589244    1.622    0.384
        43  -9.8187    134.4937    102.9768   8.8834815600e+01   3.5199173134e+01    0.2351726    0.1438754 -46.16  0.001034369    1.597    0.374
        44  -9.4619     24.9385     82.4920   1.1433504124e+02   5.5423296509e+01     0.134995    0.1187069  25.63  0.000335615    1.471    0.320
        45  -8.8998    156.3164     79.3115   7.7065484436e+01   3.4996192949e+01      0.15799    0.1214445  12.62 0.0006440037    1.639    0.390
        46 -10.8090    211.0910    179.9930   8.9704896006e+01   5.0175810449e+00    0.4125677    0.2405428 -21.61  0.001979153    2.175    0.540
        47 -10.9691    158.3222     60.3254   7.0777852054e+01   3.7869202619e+01    0.3780582    0.2836191 -81.32 0.0008159101    1.826    0.452
        48 -10.8828    160.6452     54.1949   6.8310212666e+01   3.8297492361e+01    0.3560541    0.2744832 -81.04  0.001315477    1.695    0.410
        49 -10.9323    207.7993    183.8175   9.1016048944e+01   5.0916405790e+00    0.2761584    0.2452088 -89.61  0.000966157    1.529    0.346
        50 -11.3096     93.2241    236.7412   1.1848246509e+02   1.6444886768e+01     0.222374    0.1540418  65.74 0.0007313753    1.106    0.096
        51 -12.7369    186.0162     39.4472   5.8760428163e+01   3.3956519605e+01    0.7693532    0.4862801  54.34 0.0009484896    1.525    0.344
        52 -16.3163     54.0005    204.9813   1.2232878736e+02   2.7009384931e+01     3.600242      2.66234  88.31   0.02717174    1.148    0.129
        53  -9.5859    150.0170     22.9436   5.9878027857e+01   4.5385705784e+01    0.2323098    0.1725854 -66.89 0.0008212274    1.734    0.423
        54 -12.1351     72.5833    180.8394   1.1670247490e+02   2.9215308380e+01    0.3593996    0.2472678 -43.91  0.002123206    2.206    0.547
