#   1 NUMBER                 Running object number                                     
#   2 MAG_AUTO               Kron-like elliptical aperture magnitude                    [mag]
#   3 X_IMAGE                Object position along x                                    [pixel]
#   4 Y_IMAGE                Object position along y                                    [pixel]
#   5 X_WORLD                Barycenter position along world x axis                     [deg]
#   6 Y_WORLD                Barycenter position along world y axis                     [deg]
#   7 A_WORLD                Profile RMS along major axis (world units)                 [deg]
#   8 B_WORLD                Profile RMS along minor axis (world units)                 [deg]
#   9 THETA_WORLD            Position angle (CCW/world-x)                               [deg]
#  10 FWHM_WORLD             FWHM assuming a gaussian core                              [deg]
#  11 ELONGATION             A_IMAGE/B_IMAGE                                           
#  12 ELLIPTICITY            1 - B_IMAGE/A_IMAGE                                       
         1 -16.1531    164.5421    119.2080   2.2590904559e+01   2.5507375713e+01     7.362019     4.008682  47.08    0.0330004    2.000    0.500
         2 -15.7291    248.7505    185.9117   2.1810825505e+01   2.0405975301e+00     3.668798      0.69028 -35.72   0.01363718    4.432    0.774
         3 -16.0893    236.7928    135.3941   1.4382221061e+01   1.0643833006e+01     4.003313    0.5579013 -37.81   0.01157428    5.766    0.827
         4 -17.6684    244.4422    142.9061   1.4812215599e+01   8.5115802941e+00     2.731988       2.3053 -20.18   0.01830378    1.131    0.116
         5 -15.2266    191.3302    191.5547   3.1902167262e+01   8.0837054675e+00     2.991719     2.325216 -78.81   0.01646489    2.669    0.625
         6 -16.2909    208.1051    178.4563   2.6702994645e+01   7.9506710198e+00     2.821982     2.417969 -84.34   0.01790501    2.083    0.520
         7 -12.9546      4.5403     55.9378   6.4294282699e+01   6.7703832441e+01      2.13387    0.8373034 -79.77  0.008158266    2.906    0.656
         8 -16.8749    245.7651    121.8810   1.0660314519e+01   1.1364889940e+01     4.680861     2.281682 -60.26   0.01578011    4.969    0.799
         9 -12.6913    222.7069     42.6256   3.5634351898e+02   2.6308788245e+01     1.973123    0.3901111 -48.25  0.006906612    3.970    0.748
        10 -13.7202    195.8905     13.2188   3.5136710470e+02   3.5203574361e+01     3.620766     1.019944 -62.10   0.01218845    4.534    0.779
        11 -14.3976    231.2053      8.2312   3.4828114313e+02   2.8661100808e+01     2.923969     1.332674  89.48   0.01651432    2.279    0.561
        12  -9.6460    130.9149      1.8455   3.5344850564e+02   5.1536793279e+01    0.2019388    0.1639396  56.72  0.001215545    1.326    0.246
        13 -10.6470    149.7471    192.9383   4.0380029776e+01   1.3587647231e+01    0.2975475    0.2054908  35.38 0.0008198508    1.415    0.293
        14 -11.7658    152.5164    196.8736   4.0423662892e+01   1.2471250822e+01     0.374449    0.2927057  -8.78  0.002233899    1.287    0.223
        15 -10.2155     84.1119    188.2834   5.5485588977e+01   2.4007138927e+01    0.2360139    0.1892748 -45.44  0.001041411    1.380    0.275
        16 -11.8737    175.7217    222.5857   3.9702186373e+01   5.1795552369e+00     0.463551    0.2438444  22.92  0.002363407    1.770    0.435
        17 -12.0828    173.1988    210.0757   3.8310756467e+01   7.4462603714e+00    0.5371513    0.3400133  46.74  0.002659907    2.114    0.527
        18 -10.6549    112.4628    151.4330   4.1935773640e+01   2.8241793642e+01    0.4475539    0.2694858  52.99  0.001915582    1.910    0.477
        19 -11.4212     67.8812    144.0482   5.3693281586e+01   3.7258141054e+01    0.8166744    0.4169713  56.22  0.003081698    2.381    0.580
        20  -9.6254     80.5594    139.6660   4.8904601449e+01   3.6467249779e+01    0.4849535    0.1458104 -59.50  0.001484825    3.277    0.695
        21 -10.0655    112.4071    133.8012   3.8315629535e+01   3.2400907181e+01    0.2696207    0.2641449 -25.58 0.0003776372    1.054    0.051
        22 -11.3665    172.4256    219.4793   3.9876055099e+01   6.0541008266e+00    0.4168993    0.2144002 -22.79  0.001605951    2.387    0.581
        23 -11.2739    125.8190    127.5551   3.3342996797e+01   3.1310675038e+01    0.4784113    0.2438379 -52.39  0.001270008    1.970    0.492
        24 -11.9598    174.6076    216.3904   3.8999236371e+01   6.2688226309e+00    0.6157769    0.4207788  55.10  0.003379846    2.551    0.608
        25 -12.3962    119.6043    117.8055   3.2649482186e+01   3.4743296447e+01    0.7562026    0.6606724  50.62  0.003455584    1.173    0.147
        26 -10.3206    110.4868    103.6268   3.1529356317e+01   3.9839607964e+01    0.3111147    0.2314297  56.34 0.0008461706    1.421    0.296
        27 -10.8390    114.6221     95.4773   2.8132054247e+01   4.0795148770e+01    0.6170667    0.4437003  -2.45  0.002518205    2.369    0.578
        28 -12.1065    121.4778    103.3483   2.8450026759e+01   3.7604620635e+01      1.05135    0.7145778  61.09  0.004684715    1.680    0.405
        29 -10.5004    102.6485    113.6291   3.6400349156e+01   3.9069293478e+01    0.5456657    0.3027311 -47.24   0.00221259    1.787    0.440
        30 -12.1392    112.5781    111.6411   3.3031834243e+01   3.7568819122e+01     1.255738    0.7583928  27.17  0.004975188    2.226    0.551
        31  -9.9576     69.6062    114.2389   4.7348431780e+01   4.4866249077e+01    0.2246632    0.1371737 -50.40 0.0009475645    1.626    0.385
        32  -9.7829     86.9790    110.8113   4.0601080316e+01   4.2733736548e+01    0.2519179    0.2157526 -56.97 0.0003049695    1.144    0.126
        33 -12.6716     48.1756     95.8755   5.1396990432e+01   5.2955956606e+01    0.5753124    0.5244976  69.16 0.0007926299    1.123    0.110
        34 -12.8333     64.4567    102.9650   4.6613440089e+01   4.8647826009e+01    0.8517698    0.6829854  69.00  0.001328718    1.373    0.272
        35 -14.0115     58.3036     97.7086   4.7709621720e+01   5.0989961872e+01     2.468741     1.179055  36.46  0.006812769    2.090    0.521
        36  -9.1914     96.0961    105.7802   3.6397891174e+01   4.2236137183e+01    0.2357263    0.2085396  75.41 0.0005086328    1.190    0.160
        37  -9.3571     88.0300    104.5016   3.8655755591e+01   4.4102307912e+01    0.2421718    0.1999215 -55.59   0.00047174    1.186    0.157
        38 -13.9448    188.4491    176.1259   2.9726092599e+01   1.1018436679e+01    0.7180043    0.3276574 -41.12  0.002206618    2.014    0.503
        39 -16.1589    178.4465    170.5293   3.0579623000e+01   1.3450447281e+01     3.784494     2.532112  31.94   0.01896336    1.548    0.354
        40  -9.2967    200.7888    218.2224   3.4503320763e+01   2.9086415875e+00    0.1557917     0.130797  -2.18 0.0003502172    1.151    0.131
        41 -12.9472      6.1219     95.0854   6.9854180749e+01   5.7313353356e+01     2.214241    0.5503527 -73.39  0.007205722    3.308    0.698
        42 -13.6977     21.5694     91.3837   6.2222015158e+01   5.7191726193e+01     1.362366     1.070631  51.54  0.005094405    1.342    0.255
        43  -9.3561     90.2354     95.1654   3.5395967541e+01   4.5932902461e+01    0.2687559    0.1966265 -41.96  0.001231966    1.419    0.295
        44 -10.0270    154.8305    222.8727   4.3835387892e+01   7.6818167684e+00    0.1522138    0.1410786  38.29  0.000663108    1.347    0.258
        45  -8.9180    223.9906    246.0000   3.4681919524e+01  -3.0372241907e+00    0.1513761   0.04870875  27.93  0.000615285    2.861    0.651
        46 -11.2339    224.2416    219.4177   3.0799521795e+01   2.1887908279e-01     0.622314    0.2445484  34.44  0.003391799    2.727    0.633
        47 -16.1454    226.9432    166.8027   2.1634713167e+01   7.2783335939e+00     2.539576      1.90303 -89.28   0.01322741    3.567    0.720
        48 -10.8313    166.6312     75.3432   1.1127431547e+01   3.3139017005e+01    0.4834306     0.363978 -19.86  0.001970182    1.638    0.390
        49 -11.1685    174.2503     69.8278   8.4473564712e+00   3.2378487468e+01    0.3575417    0.3030233  54.56  0.001442089    1.343    0.256
        50 -10.3938    246.5524    233.5416   2.9507434701e+01  -3.6283478150e+00    0.2535077    0.1556044  28.35  0.001314408    1.838    0.456
        51  -9.3971     40.0212     66.1598   4.7028371434e+01   6.1654518673e+01    0.2422684    0.1891808 -53.25 0.0004517046    1.227    0.185
        52  -9.1194    229.6763     70.3775   1.8458610118e+00   2.1325472650e+01    0.1356433    0.1148158  58.32 0.0004479721    1.501    0.334
        53  -9.2885    210.7419     62.3320   1.9599874579e+00   2.5962535701e+01    0.2547548    0.1291472  45.28  0.001152311    2.923    0.658
        54 -10.8275    224.0189     59.0434   3.5989828324e+02   2.3906754064e+01    0.3745722    0.2120882 -43.40  0.001831792    1.369    0.270
        55  -8.6860    152.3823    212.8400   4.2899323080e+01   9.6700877855e+00    0.1604385    0.1071529 -31.42 0.0002811666    1.538    0.350
        56  -9.5937      7.0294    201.7634   7.6932018524e+01   2.9386012765e+01    0.1731943     0.138509  48.07 0.0002708112    1.082    0.076
        57 -10.2549    244.6972     54.8299   3.5725496221e+02   2.0812532814e+01    0.1849223    0.1436763 -57.36  0.000404372    1.127    0.113
        58  -9.7243     61.8855    229.4454   6.5251641853e+01   1.7914962031e+01    0.1903502    0.1729307 -62.34 0.0003367534    1.310    0.237
        59  -9.4276    240.4845     47.8079   3.5610990020e+02   2.2424053533e+01    0.1780921    0.1469963 -87.57 0.0006038374    1.358    0.264
        60  -8.8619    249.6583     46.0537   3.5510300456e+02   2.1078322970e+01    0.1628509     0.115465 -43.01  0.001133836    1.096    0.088
        61  -9.1063    200.7231     46.2551   3.5914313808e+02   3.0194702743e+01    0.1521879    0.1471914 -20.43 0.0006964425    1.325    0.245
        62 -11.4141    236.0518     38.4231   3.5444156275e+02   2.4367222996e+01     0.345523    0.2400917 -48.80  0.001637831    1.070    0.065
        63 -11.2910    222.3470    213.3333   3.0166254955e+01   1.2172666553e+00    0.2096675    0.1686323 -10.45 0.0003708092    1.135    0.119
        64 -10.4667    193.7302    223.7596   3.6571860454e+01   2.9193396998e+00    0.3082684    0.2126917  -6.19   0.00118341    1.288    0.223
        65 -11.8739    227.5611     30.3531   3.5326767883e+02   2.6893393913e+01    0.3225396    0.2343232 -47.13  0.001450515    1.086    0.079
        66 -11.8785    156.1791     27.2627   3.5883080586e+02   4.2660320860e+01    0.6944333    0.4360197  80.36  0.003597447    1.552    0.356
        67 -10.8891    153.4962     31.4720   4.4988396270e-01   4.2782892266e+01    0.2637738    0.2205734 -70.48  0.001001979    1.057    0.054
