#   1 NUMBER                 Running object number                                     
#   2 MAG_AUTO               Kron-like elliptical aperture magnitude                    [mag]
#   3 X_IMAGE                Object position along x                                    [pixel]
#   4 Y_IMAGE                Object position along y                                    [pixel]
#   5 X_WORLD                Barycenter position along world x axis                     [deg]
#   6 Y_WORLD                Barycenter position along world y axis                     [deg]
#   7 A_WORLD                Profile RMS along major axis (world units)                 [deg]
#   8 B_WORLD                Profile RMS along minor axis (world units)                 [deg]
#   9 THETA_WORLD            Position angle (CCW/world-x)                               [deg]
#  10 FWHM_WORLD             FWHM assuming a gaussian core                              [deg]
#  11 ELONGATION             A_IMAGE/B_IMAGE                                           
#  12 ELLIPTICITY            1 - B_IMAGE/A_IMAGE                                       
         1 -11.8438     76.6859     25.3255   9.0202811966e+01   6.0061689160e+01    0.3897006    0.2626837  -1.02 0.0004567901    1.539    0.350
         2 -11.3422     90.2049     15.8950   8.2499874249e+01   5.8582095812e+01    0.3215864    0.2087234  -8.54 0.0005045866    1.675    0.403
         3 -10.8016     87.1577     12.1881   8.1948690899e+01   5.9534308607e+01    0.2778633      0.20038  38.51  0.001218453    1.155    0.134
         4 -11.4141     13.1867     20.7261   1.1359642277e+02   6.8831313868e+01    0.2558524    0.1791067 -36.68 0.0008299337    1.333    0.250
         5 -11.0604     41.2286     18.5506   1.0044183541e+02   6.6246387690e+01    0.4037019    0.2711802  -8.21  0.002657976    1.290    0.225
         6 -10.5226    100.1540     18.8713   8.0899367866e+01   5.6285910013e+01    0.3318847    0.2230586 -52.69   0.00175324    2.233    0.552
         7 -10.1947     38.4205      2.7255   9.4689583721e+01   6.8418123949e+01    0.2581219    0.1254161 -31.79  0.001133764    2.114    0.527
         8 -11.1780     22.3863      9.2681   1.0462905154e+02   6.9552586246e+01    0.3301954    0.1875123   9.68   0.00189859    1.647    0.393
         9 -11.7210     30.2666      7.3203   1.0023421243e+02   6.8927666233e+01    0.3325838    0.2493249  12.50  0.001153511    1.177    0.151
        10 -11.6345     35.0280     13.1378   1.0073361490e+02   6.7677920945e+01    0.3838783    0.2172139 -37.54  0.002090063    1.923    0.480
        11 -11.9315     39.7495      9.3168   9.7096666536e+01   6.7536879152e+01    0.5030504    0.2837077  -8.34  0.002182488    1.773    0.436
        12 -10.8101    155.9817     14.1299   6.7830345528e+01   4.4024420721e+01    0.3559956    0.2334739  44.67  0.001925486    1.505    0.336
        13 -10.5981    119.5480     12.0641   7.3925605990e+01   5.2763697577e+01    0.2819013    0.1762911  62.50 0.0009235971    1.473    0.321
        14 -10.6671    148.3728      9.8519   6.7831325771e+01   4.6261218890e+01    0.2561525    0.1787333  44.19 0.0007731659    1.380    0.275
        15 -11.3372    151.5116      7.3819   6.6614374613e+01   4.5731854312e+01      0.32322    0.2519937 -17.78  0.001419403    1.570    0.363
        16 -11.0849     92.8229      8.6385   7.9053193555e+01   5.8746157479e+01    0.3979251    0.1998099 -18.14 0.0009567434    2.240    0.554
        17  -9.4633     88.5341      7.4709   7.9758847174e+01   5.9696524566e+01    0.1672494     0.111177  60.61 0.0007368142    1.653    0.395
        18  -9.8106     10.0814      1.4814   1.0700400512e+02   7.1671481477e+01    0.1749513    0.1052913  -9.75 0.0007491716    1.330    0.248
        19 -11.6145      4.0183      8.9167   1.1326173202e+02   7.1196457117e+01    0.3264286      0.29294  11.55  0.001217855    1.669    0.401
        20 -10.2202      2.2486      2.9873   1.1162096254e+02   7.2113052080e+01    0.1757356    0.1106829   0.46  0.001162524    1.328    0.247
        21 -10.9031     12.7796      8.7606   1.0891759368e+02   7.0522165303e+01    0.3544955    0.1638148  20.97  0.001615043    2.099    0.524
        22 -11.0802      8.9409      5.4638   1.0935189593e+02   7.1272214916e+01    0.2915857    0.1620104  26.78  0.001148195    1.929    0.482
        23  -9.9506     50.2975      1.9158   8.9670724977e+01   6.6825502959e+01    0.2672282    0.1725889  44.39  0.001008828    1.670    0.401
        24 -11.9885     55.8919      5.4568   8.9181830295e+01   6.5635305585e+01    0.4773992     0.332223  14.24  0.002869681    1.190    0.160
        25  -9.9963     61.0415      3.0000   8.6320154264e+01   6.5041762491e+01    0.1646379    0.1393057  24.61 0.0004198453    1.207    0.171
        26 -10.4510    210.0366      7.5044   5.9302741967e+01   3.1631337365e+01    0.1878423    0.1572783 -69.34  0.000935365    1.152    0.132
        27 -11.5218     68.8229      6.3230   8.5145755827e+01   6.3431738913e+01     0.651439    0.2181461  46.09  0.003000327    2.494    0.599
        28 -10.4295    144.8867      5.7226   6.7192119342e+01   4.7456549679e+01    0.2011505     0.170488  15.44 0.0007253259    1.388    0.279
        29 -11.4249    194.6049      4.1245   6.0139369281e+01   3.5634662774e+01    0.2972409    0.2159033 -82.20  0.001791554    1.251    0.200
        30 -10.6433    136.8226      5.0110   6.8337183398e+01   4.9415558238e+01    0.2083417    0.1260689  28.67  0.001079064    1.946    0.486
        31 -10.8980    120.3354      4.4057   7.1219045694e+01   5.3242858967e+01    0.3526527     0.161606  52.05  0.001055103    1.715    0.417
        32  -9.6638    235.4928      4.5073   5.6373899051e+01   2.6136465992e+01    0.1224715   0.09685814 -84.74 -5.111273e-05    1.045    0.043
        33 -10.2044    160.4254      3.2645   6.4141856199e+01   4.3950871854e+01    0.2123841    0.1325494 -14.43  0.001139275    2.122    0.529
        34 -11.3512    130.4742      3.5699   6.9018259406e+01   5.1006081853e+01     0.268971    0.2074198  69.28  0.001656037    1.202    0.168
        35 -11.2834     18.2787      2.8584   1.0366690884e+02   7.0739512128e+01    0.3416749    0.1606963  16.38 0.0007892348    2.132    0.531
        36 -11.7721     80.2661      1.8163   7.9846184966e+01   6.1756292001e+01    0.3491972    0.1497686  48.29   0.00178741    1.882    0.469
        37  -9.2100    204.0217      1.2435   5.8507301169e+01   3.3682244935e+01    0.1610406   0.08866399  74.08 0.0002853672    1.500    0.334
        38 -11.3617    172.2059      2.7181   6.2423216112e+01   4.1157731364e+01     0.236526    0.1933274  86.85 0.0003161799    1.104    0.094
        39 -10.9317     12.5528    130.4117   1.3919790539e+02   4.7094679927e+01    0.3727229    0.1947114  63.83  0.001250019    2.543    0.607
        40 -12.2457      3.0096    248.8666   1.5080836049e+02   2.2587961719e+01    0.7202913    0.2426715  42.27  0.004083508    2.547    0.607
        41 -12.6142      9.3618    245.2485   1.4961638241e+02   2.2607600509e+01     0.499156    0.2097025  37.10  0.002872465    2.583    0.613
        42 -12.2156      5.1354    240.7834   1.5005249952e+02   2.3891915985e+01    0.4797291    0.1903051  51.92  0.002856405    1.988    0.497
        43  -9.3842     21.1733    126.1344   1.3629693483e+02   4.7413067736e+01    0.1610145     0.128913  84.80 0.0004325194    1.287    0.223
        44 -11.7899     23.7229    121.6867   1.3491695169e+02   4.8227287144e+01    0.4360126    0.2333146 -85.34  0.000769566    2.244    0.554
        45 -10.4799      3.6347    118.9191   1.4007201221e+02   5.0286667153e+01    0.1800666    0.1471575 -44.92 0.0005554812    1.277    0.217
        46  -9.7032      9.2922    116.3419   1.3816191519e+02   5.0506622134e+01    0.1261218   0.06950298 -47.02 0.0004004608    1.654    0.395
        47  -9.8230    132.0468    114.2235   1.0215694072e+02   3.3553750655e+01     0.230097    0.2075225   8.65 0.0004653809    1.233    0.189
        48  -9.6084      2.3183    114.2778   1.3981419640e+02   5.1397836604e+01    0.1176247   0.06949367 -45.91 0.0002305522    1.575    0.365
        49  -9.4792     42.3222    112.3397   1.2784478553e+02   4.8654269465e+01    0.1389623   0.08636821 -35.97 0.0007050627    1.720    0.419
        50  -9.8511    249.2159    111.5990   7.7573476980e+01   7.3518953575e+00    0.1818688    0.1307693  43.12 0.0009444731    1.627    0.385
        51 -10.6742     12.9740    108.7004   1.3595787290e+02   5.1970829444e+01     0.170009    0.1427799 -63.15   0.00118195    1.061    0.057
        52 -11.5124      5.0612    108.8067   1.3827088365e+02   5.2448264099e+01    0.3009304    0.2196205  -4.74  0.002011119    1.770    0.435
        53 -10.5496     57.9954    107.8424   1.2210532482e+02   4.7898405104e+01    0.2883568    0.1746488 -26.12  0.001209582    2.156    0.536
        54 -10.1550     34.1505    108.1092   1.2950638741e+02   5.0417054058e+01     0.199925    0.1471904 -45.90 0.0007025363    1.209    0.173
        55  -9.2703     79.6282    106.7152   1.1518313160e+02   4.5127937235e+01    0.1467146    0.1080082 -14.51 0.0007017435    1.707    0.414
        56  -9.7586    113.4916    102.5243   1.0409255978e+02   3.9987783705e+01     0.150059      0.14703 -16.44 0.0001171616    1.001    0.001
        57  -9.8977     66.6217    101.7483   1.1798880317e+02   4.8140631368e+01    0.1963299    0.1244924 -61.08 0.0009489744    1.626    0.385
        58 -10.8751     57.5741    101.5419   1.2079569059e+02   4.9368127773e+01    0.2655306    0.2399126  86.57  0.001255542    1.301    0.232
        59  -9.9337      4.9876    102.0552   1.3727239970e+02   5.3935614663e+01    0.1466118    0.1070894 -62.36 0.0004302616    1.059    0.056
        60  -9.8056     88.1558    101.4173   1.1123351344e+02   4.4923451866e+01    0.1847242    0.1371308  49.22 0.0009173985    1.504    0.335
        61  -9.2492     12.4346    101.4296   1.3492847061e+02   5.3615352595e+01    0.1190139   0.09575368 -62.30 9.002702e-06    1.049    0.047
        62  -9.8223     62.3589     99.0856   1.1868783393e+02   4.9301905642e+01    0.1987983    0.1213508 -63.84 0.0009408012    1.800    0.444
        63 -12.2203     17.7150     95.5120   1.3223338557e+02   5.4550267691e+01    0.4960555    0.3682217 -39.92  0.003258792    1.235    0.190
        64  -9.4511    129.5007     97.5091   9.8316785664e+01   3.7662393697e+01    0.1527134     0.150178  18.82 7.698399e-05    1.007    0.007
        65  -9.6634    101.0811     96.2266   1.0594808141e+02   4.3741157551e+01    0.3532628    0.2055471 -61.93  0.001407256    2.352    0.575
        66  -9.6985     83.9846     94.2180   1.1059123713e+02   4.7169939684e+01    0.1892388    0.1160887  36.38 0.0008787084    1.709    0.415
        67  -9.7422     37.8859     93.6573   1.2533623333e+02   5.3274465174e+01    0.2454898     0.144554 -48.08  0.001326628    1.414    0.293
        68 -11.1348     27.4291     91.0311   1.2819809812e+02   5.4778323002e+01    0.4917045    0.3345625  60.26  0.002746288    2.143    0.533
        69  -9.7788     25.4716     84.9733   1.2754108789e+02   5.6229129140e+01     0.221034    0.1545926 -70.19  0.001038096    1.515    0.340
        70 -10.3419     58.4486     91.5594   1.1807659457e+02   5.1441933928e+01    0.2700328    0.1653678 -24.78 0.0007079629    1.970    0.492
        71 -11.4656     11.0916     88.1604   1.3297730005e+02   5.6569397515e+01    0.5446187    0.1932617 -61.22   0.00259127    2.145    0.534
        72 -10.4776     17.1346     88.8492   1.3113420116e+02   5.6026557189e+01    0.4142429    0.2160669 -21.84  0.002120089    2.463    0.594
        73 -11.4049     76.2981     89.2707   1.1166593591e+02   4.9432541283e+01    0.2667757    0.2223578 -35.69 0.0003910825    1.107    0.097
        74 -10.6312      1.8284     89.7893   1.3624548729e+02   5.6748961201e+01    0.2007206    0.1268759 -63.30 0.0002682226    1.238    0.192
        75 -10.0592    107.6573     89.3025   1.0205591340e+02   4.3906129646e+01    0.1473121    0.1199616  85.47 0.0007039105    1.679    0.404
        76 -10.6572     78.9423     94.9697   1.1237282385e+02   4.7815854181e+01    0.2104451    0.1894474 -27.35 0.0003186019    1.047    0.045
        77  -9.7529     43.9165     89.5003   1.2238016526e+02   5.3563648727e+01    0.2198523    0.1203646  33.92  0.001117954    2.068    0.516
        78  -9.1323     40.5085     87.2502   1.2298325390e+02   5.4393662434e+01    0.1232606   0.09160817  62.02 0.0006766412    1.939    0.484
        79  -9.5103    124.1739     86.8342   9.6701042418e+01   4.0964058004e+01    0.2104068    0.1792358   5.62 0.0005689595    1.314    0.239
        80  -9.5801     72.2221     84.1487   1.1155938935e+02   5.1107057004e+01    0.2927335    0.1432498 -35.67  0.001233763    2.163    0.538
        81 -10.3859     54.5626     84.4885   1.1753835394e+02   5.3417625599e+01    0.2453883    0.2006163 -56.73 0.0008573093    1.259    0.206
        82  -9.9534    100.5491     82.3151   1.0210449387e+02   4.6672156202e+01    0.2824438    0.1387994 -47.06 0.0007562243    2.099    0.524
        83  -9.5267     78.1659     83.3422   1.0939431113e+02   5.0362504507e+01    0.1875587    0.1254674  44.90  0.000403094    1.686    0.407
        84 -10.2622      3.9771     82.7912   1.3430421685e+02   5.8108564803e+01    0.2174741    0.1348302 -60.00 0.0009266034    1.255    0.203
        85 -11.3083     63.9395     79.4118   1.1297383464e+02   5.3248083522e+01    0.6378841    0.3912506 -38.17   0.00327358    1.501    0.334
        86 -11.6609     55.9714     75.5201   1.1459533942e+02   5.5069414303e+01    0.4317621    0.2703328  19.38  0.002049553    1.789    0.441
        87 -10.1183     89.3091     80.3232   1.0495745181e+02   4.9112491940e+01    0.2684028    0.1872539 -52.42 0.0007528845    1.566    0.361
        88  -9.2804    250.3252     80.7073   7.0712193396e+01   1.2352972827e+01    0.1408107   0.09371473 -69.96 0.0006758553    1.618    0.382
        89  -9.4819     23.8508     79.1767   1.2678995657e+02   5.7567589975e+01    0.1776935     0.116143 -35.93  0.001072005    1.354    0.261
        90 -10.4617    176.4296     77.4157   8.1784728873e+01   3.0292109617e+01    0.3329163    0.2595508  31.92   0.00160595    1.514    0.339
        91  -9.1146     91.9236     77.0000   1.0313883578e+02   4.9292547211e+01    0.2332536   0.07930437  41.07 0.0008077988    2.980    0.664
        92  -9.8997     74.9818     75.7181   1.0819571302e+02   5.2370417236e+01    0.1807879    0.1628512   3.71 0.0002221464    1.081    0.075
        93 -10.4198     15.1059     75.8222   1.2908671220e+02   5.8886268741e+01    0.1649942    0.1458968 -58.74 0.0006625715    1.203    0.169
        94 -10.9998     32.0540     72.9902   1.2237653157e+02   5.8141817031e+01    0.1833221    0.1609338 -16.46  0.001260603    1.144    0.126
        95 -11.1434     35.9786     71.9895   1.2070198257e+02   5.7977845588e+01    0.4370091    0.2652279 -53.13  0.001459018    1.484    0.326
        96  -9.1799    224.2879     74.2818   7.2837867974e+01   1.9189601602e+01    0.1294394     0.112685  24.37 0.0002228196    1.524    0.344
        97  -9.5324    136.4921     74.4734   8.9847276649e+01   4.0492397223e+01    0.1498737    0.1431431  39.47 0.0002316146    1.002    0.002
        98 -11.0801      3.6452     73.7974   1.3266335180e+02   5.9975774937e+01    0.3054354    0.1922465  15.97 0.0008931276    1.924    0.480
        99  -9.2020     90.7003     69.3370   1.0114257650e+02   5.0938684531e+01     0.132759    0.1138913 -82.51 0.0003238555    1.660    0.397
       100  -9.5304     96.1130     73.3758   1.0073008852e+02   4.9208135912e+01     0.265549    0.1344073  45.34 0.0004342987    2.042    0.510
       101  -9.9516     81.0085     72.5013   1.0523554960e+02   5.2023610483e+01    0.2516427    0.1745718 -82.69  0.001022409    3.288    0.696
       102 -10.4306    105.9651     71.3566   9.7150831633e+01   4.7672425000e+01    0.2519398    0.2026618 -21.58  0.000559171    1.276    0.216
       103  -9.5384     45.9667     68.8822   1.1623443158e+02   5.7554457124e+01    0.2339296    0.1783648 -87.33  0.001268865    2.277    0.561
       104  -9.8367     10.2836     69.2020   1.2931652885e+02   6.0527342398e+01     0.201027    0.1083658 -44.12  0.001195922    1.434    0.303
       105  -9.9468    114.3986     66.6303   9.3259890253e+01   4.6765035924e+01    0.2627074    0.1664685  59.02 0.0007789831    1.866    0.464
       106 -12.0196     34.1320     65.1410   1.1950279741e+02   5.9492601948e+01    0.3767588    0.2462875 -23.47 0.0004012721    1.480    0.324
       107 -11.3966     38.9605     62.5357   1.1695591866e+02   5.9513793936e+01    0.7150276    0.2725973 -30.33  0.002667685    3.721    0.731
       108 -10.4708    131.7796     64.7733   8.8092060311e+01   4.3236976568e+01    0.4036077    0.2647172  58.71  0.001867624    1.587    0.370
       109 -10.1718     15.8515     64.0283   1.2603079395e+02   6.1188996640e+01    0.2889271    0.1902527  21.31  0.001867994    1.766    0.434
       110  -9.2343     72.6444     63.7926   1.0527246706e+02   5.4958459185e+01    0.1848454    0.1191566 -49.12 0.0005880535    1.701    0.412
       111 -10.7274     62.6781     61.9043   1.0811876922e+02   5.6763600060e+01    0.2522531    0.2087198 -26.52 0.0008832159    1.083    0.076
       112 -11.1014      9.5507     60.3629   1.2748907281e+02   6.2301131741e+01    0.3507524    0.1756011 -37.95  0.000421662    1.628    0.386
       113 -11.1121      3.5083     60.9184   1.2990318497e+02   6.2533290878e+01    0.3449904    0.2224379  65.16   0.00150458    2.994    0.666
       114 -10.8469      3.0667     53.9144   1.2837808995e+02   6.3888301874e+01     0.448285    0.1547506 -34.04  0.002163312    2.695    0.629
       115 -11.2473     16.7540     45.0421   1.2039853371e+02   6.4639143703e+01    0.3802089    0.2569837  26.18  0.002547688    1.748    0.428
       116 -10.7098     20.5187     51.0663   1.2068633190e+02   6.3283285900e+01    0.3369772    0.1908337 -36.81  0.001028688    1.413    0.292
       117  -9.9762     23.8508     61.8995   1.2246250939e+02   6.1008178746e+01    0.1837094    0.1425291 -36.65 0.0008026365    1.022    0.021
       118 -12.9068     20.7263     56.8668   1.2227264170e+02   6.2202427412e+01    0.3610732    0.3348586  24.52 0.0007486361    1.410    0.291
       119  -9.3945    100.9918     61.5124   9.5474183462e+01   5.0365463217e+01    0.1816081    0.1257147  70.24 0.0007088166    2.332    0.571
       120 -10.1817     60.5129     57.7183   1.0753155908e+02   5.7806944276e+01    0.2677374    0.2300731 -62.54 0.0009979476    1.603    0.376
       121 -10.4452     54.6530     58.3269   1.0984940253e+02   5.8478393244e+01    0.3359492    0.2703376  68.31  0.001918725    2.139    0.533
       122  -9.1282     54.2884     55.3172   1.0900216453e+02   5.9055096246e+01    0.4798201    0.2419979   3.05  0.001736524    4.266    0.766
       123 -11.6193     83.4732     56.9553   9.9414059241e+01   5.4363369895e+01    0.2742121    0.2309515  -8.19 0.0002873034    1.107    0.096
       124 -11.8961     87.8477     53.7061   9.6909746263e+01   5.4118083391e+01    0.4149943    0.2840297  37.94  0.001374078    1.410    0.291
       125 -10.0370    224.9854     55.6249   6.8438213890e+01   2.1950187412e+01    0.3317605    0.2416812   6.44   0.00156246    2.528    0.604
       126 -10.4601     99.8137     56.1454   9.4055620015e+01   5.1473337964e+01    0.1916307     0.183157 -17.22 0.0004188635    1.141    0.124
       127 -11.2958     10.8866     48.4523   1.2380319547e+02   6.4437758657e+01    0.5579251    0.2562065  23.52  0.003193279    2.451    0.592
       128 -10.8788    114.6571     53.8688   8.9090090328e+01   4.8775207542e+01    0.3178372    0.2608647  32.35 0.0009588656    1.144    0.126
       129  -8.8230    165.6555     54.2730   7.7513973926e+01   3.6706018823e+01    0.1482754    0.1096414 -83.24 0.0003239091    1.620    0.383
       130 -10.1273    106.2021     53.2433   9.1229574304e+01   5.0645679389e+01    0.2678189    0.2279013 -68.48  0.001384284    1.586    0.369
       131 -12.2051     66.3467     52.4699   1.0369499848e+02   5.7865412242e+01    0.5617822    0.2229949  34.08  0.001480403    2.586    0.613
       132 -10.0343     34.5031     53.4350   1.1589406959e+02   6.1630081860e+01    0.2679929    0.1443844 -29.83 0.0009508373    1.731    0.422
       133  -9.1456    176.0376     52.2345   7.5035852886e+01   3.4415183845e+01    0.1884003    0.1125273  60.42 0.0003439025    1.537    0.349
       134 -10.0179     98.3008     50.3650   9.2558578084e+01   5.2668312924e+01    0.2263853    0.1536928  12.74  0.001115067    1.745    0.427
       135  -9.5234    211.8822     48.8389   6.8601296307e+01   2.6054705989e+01     0.191268    0.1433278 -79.69  0.001022875    1.305    0.234
       136 -10.1234     38.0637     48.9906   1.1307899636e+02   6.2047607794e+01      0.18495    0.1403441 -20.64 0.0005440515    1.094    0.086
       137  -9.5482     71.4214     57.6985   1.0369413856e+02   5.6215190062e+01    0.1705809    0.1147628 -27.19 0.0002983686    1.427    0.299
       138  -9.6662     52.9911     48.4826   1.0718085112e+02   6.0382108195e+01    0.2532508     0.144866  12.14  0.001278108    2.091    0.522
       139 -10.2778    104.2758     47.1755   8.9736262391e+01   5.1944956458e+01    0.3065339    0.1708011  35.15  0.001415203    1.796    0.443
       140 -10.1305     31.0489     46.1216   1.1491945443e+02   6.3243673110e+01    0.2071686    0.1612854 -43.24  0.001400845    1.313    0.238
       141 -10.3466     78.3212     45.7636   9.7241824744e+01   5.7018742652e+01    0.3043689    0.1943198  37.23   0.00101408    1.506    0.336
       142  -8.9332     68.6262     46.7142   1.0088885375e+02   5.8445239554e+01    0.1358464    0.0895406   4.06 0.0002655766    1.715    0.417
       143  -9.4390     64.9774     46.2515   1.0201413092e+02   5.9071925800e+01    0.1740334    0.1417548  18.49   0.00108868    1.158    0.137
       144  -9.3309     91.3629     44.7654   9.2718383952e+01   5.4829975227e+01    0.1760287    0.1196222 -19.22 0.0004923186    1.542    0.351
       145 -11.0329     19.9808     31.5405   1.1455830127e+02   6.6631277612e+01    0.5581732     0.264575  -2.16  0.002441513    2.912    0.657
       146 -10.9163     25.7213     43.9525   1.1637038570e+02   6.4102437129e+01    0.2878887     0.221886 -51.95  0.001133553    1.508    0.337
       147 -10.1872     30.4443     30.6844   1.0975579427e+02   6.5789926353e+01    0.1907158    0.1605878  21.15  0.001389012    1.436    0.304
       148 -10.7496     22.8248     38.6237   1.1580229104e+02   6.5247705510e+01    0.2140074    0.1794871  16.10 0.0009078404    1.397    0.284
       149 -11.3192     26.4090     35.7143   1.1328863930e+02   6.5400780882e+01    0.3785103    0.1915458 -27.99   0.00169197    1.789    0.441
       150 -10.6423     70.1585     41.3619   9.8431704348e+01   5.9016733224e+01     0.339027    0.2139948 -21.64  0.001851381    1.579    0.367
       151 -10.1479      3.4482     41.5933   1.2490886186e+02   6.6103756543e+01    0.3710205    0.1371992 -23.60  0.001698109    3.350    0.701
       152 -10.1329    181.6071     40.8591   7.1054856879e+01   3.4609464509e+01    0.3115485    0.1932662  76.94  0.000805996    1.643    0.391
       153 -10.8538    139.5410     40.4109   7.8740867267e+01   4.5012161484e+01    0.2699811    0.2311129 -58.29  0.001211687    1.345    0.257
       154  -9.2274    159.5972     40.5012   7.4746151727e+01   4.0129106909e+01    0.1399026    0.1276266  62.67  0.000802437    1.024    0.024
       155  -9.3457     43.1851     40.6330   1.0819317383e+02   6.2859948843e+01    0.1540413    0.1005784  12.70 0.0005436965    1.518    0.341
       156  -9.1326    134.3144     39.6971   7.9665327636e+01   4.6338573056e+01    0.1976537    0.1413567  72.09 0.0007439214    1.563    0.360
       157 -10.1471    131.0611     37.6082   7.9735028754e+01   4.7364372599e+01    0.2765803    0.2259328 -54.65  0.001227085    1.460    0.315
       158 -12.0549    121.5880     36.8723   8.1715455106e+01   4.9619665001e+01    0.4703475    0.4239351  56.26  0.002047655    1.129    0.114
       159  -9.4008    101.5263     39.4648   8.7860925872e+01   5.3578058665e+01    0.1370357    0.1172476  22.78 3.489292e-05    1.046    0.044
       160 -10.4657     12.8726     38.2064   1.1988233923e+02   6.6093823251e+01    0.2833019   0.05019516 -50.28  0.001069544    4.054    0.753
       161  -9.1630    236.5394     37.5821   6.3088903753e+01   2.1860697183e+01    0.1307636     0.108944 -80.33  9.66618e-05    1.020    0.019
       162 -10.4643     36.0597     41.2398   1.1124951538e+02   6.3555339424e+01    0.3134539    0.1775535 -27.25  0.001503506    1.592    0.372
       163 -10.8039      2.0855     35.8512   1.2379040863e+02   6.7171358566e+01    0.2295721    0.1581735 -33.50  0.001684175    1.057    0.054
       164  -9.8370     90.2480     35.4373   8.9731090110e+01   5.6324608834e+01    0.1811436    0.1210461  54.31 0.0009559304    1.688    0.408
       165 -11.0137    134.1314     33.9988   7.7908586256e+01   4.7095665089e+01     0.212385    0.1727894  46.56 0.0003012863    1.096    0.087
       166  -9.4798     54.6627     34.6495   1.0154989674e+02   6.2299111303e+01    0.1740769     0.107202  15.46 0.0009421313    1.656    0.396
       167 -10.7439     50.3210     33.7306   1.0285937256e+02   6.3018413895e+01    0.2113208    0.1911857  29.03 0.0004116438    1.445    0.308
       168 -10.5351    145.0246     32.9831   7.5331873789e+01   4.4628998077e+01    0.2021505    0.1780979  56.13            0    1.003    0.003
       169  -9.5381    166.4639     31.0607   7.0870059717e+01   3.9613158091e+01    0.1878928    0.1385683 -32.17 0.0004167809    1.533    0.348
       170 -10.1504    127.1836     30.7378   7.8400612045e+01   4.9095274631e+01     0.293858    0.1604442  48.22 0.0009381569    1.593    0.372
       171 -11.5918     44.0926     29.2000   1.0356709411e+02   6.4464058187e+01    0.4629646    0.2777422 -21.40   0.00202322    1.529    0.346
       172  -9.7925    205.2105     30.4077   6.5098734132e+01   3.0146685094e+01    0.1958056    0.1151577  82.46 0.0009472984    1.678    0.404
       173 -10.2998    149.0919     28.8813   7.3316012760e+01   4.4128837558e+01    0.4522822    0.2790198 -83.20  0.001987502    2.435    0.589
       174 -10.4541     69.1044     27.8301   9.3706691227e+01   6.1038907377e+01    0.2637375    0.2278658 -54.59  0.001686907    1.772    0.436
       175 -10.2201      7.4271     28.0157   1.1888351545e+02   6.8136251382e+01    0.1894287    0.1601879  16.09 0.0009518143    1.506    0.336
       176  -9.9082    140.5779     26.9377   7.4369329522e+01   4.6394904903e+01    0.2987886    0.1658832  64.41  0.001296052    1.690    0.408
       177 -11.5372     17.2154    249.2733   1.4857987960e+02   2.1003273881e+01    0.2454847    0.1402149  36.40  0.001579079    2.101    0.524
       178 -11.0120     74.6982     21.6794   8.9432564576e+01   6.0833927116e+01    0.2874299    0.1922855 -13.10  0.000794265    1.497    0.332
       179  -9.9365    218.7591     25.6306   6.2412924535e+01   2.7508031661e+01    0.2321525    0.1304336 -58.01 0.0005983657    1.755    0.430
       180 -10.3797    114.0247     25.2863   7.9658502706e+01   5.2662172520e+01     0.227511    0.1947209 -31.91  0.000759904    1.339    0.253
       181  -9.3906     18.3301     26.3426   1.1339071385e+02   6.7572884873e+01    0.1210278   0.06522205 -18.91  0.000105427    1.748    0.428
       182  -9.5435    181.4890     25.5322   6.7065112891e+01   3.6546971939e+01     0.137137    0.1176553  77.18 4.445697e-05    1.006    0.005
       183  -9.8603    153.7889     25.5731   7.1487689430e+01   4.3361840763e+01    0.3052442    0.1276837  72.09  0.001125785    2.849    0.649
       184 -10.0342     59.0801     24.3765   9.5907845441e+01   6.3046817244e+01    0.2289516    0.1446349 -10.71   0.00105469    1.574    0.365
       185 -10.1493     51.2299     24.0261   9.8715763548e+01   6.4225165014e+01    0.3141546     0.249207 -87.26  0.001595137    3.815    0.738
       186  -8.9033     89.4000     22.7896   8.5322207097e+01   5.8012426704e+01    0.3142972    0.1171311 -28.37  0.001348756    2.851    0.649
       187  -9.1133    229.5022    247.5569   1.0842652411e+02  -1.1580436930e+01    0.1238372   0.09823505  15.97 0.0003738185    1.007    0.007
       188 -10.6060     34.2393    247.0120   1.4561640045e+02   1.9461963186e+01    0.1600761    0.1138539  75.22 0.0004287152    1.038    0.037
       189  -9.3447    224.6849    246.6622   1.0917557653e+02  -1.0722572346e+01    0.1292406   0.08288681   7.05 0.0007047578    1.698    0.411
       190 -10.6469     19.8438     16.7946   1.0898073211e+02   6.8816579363e+01    0.1779409    0.1280646  12.76 0.0004025857    1.323    0.244
       191 -10.5784     13.1289     15.9470   1.1174421404e+02   6.9521429665e+01     0.336583    0.1462016  22.32  0.001975057    2.309    0.567
       192 -10.2255      1.9162     21.9510   1.1929334519e+02   6.9438153598e+01    0.2169941    0.1246488 -47.63  0.001154027    1.600    0.375
       193 -10.2379    124.5306     21.0215   7.5817430911e+01   5.0770630193e+01    0.2375867     0.196945 -56.62 0.0006850508    1.496    0.331
       194  -9.8316     84.9685     21.1993   8.6033364970e+01   5.9029959720e+01    0.2164385    0.1137505  29.38 0.0009107312    1.927    0.481
       195  -9.3646    136.3172    245.6609   1.2634882734e+02   4.3684958234e+00    0.1345978   0.09042417  67.55  0.000408464    1.706    0.414
       196 -10.5235     31.0044     20.5012   1.0554126834e+02   6.7189558186e+01    0.2222167    0.1395263 -32.48 0.0005296232    1.447    0.309
       197 -10.3186     26.5327     16.6606   1.0591614081e+02   6.8178276320e+01    0.2168029    0.1684251  31.55  0.001566731    1.685    0.407
       198  -9.9218    175.1613     20.6070   6.6688715547e+01   3.8661776300e+01    0.2002186    0.1036368  57.26 0.0005045462    1.676    0.403
       199  -9.3427    131.8385     20.4080   7.4082954189e+01   4.9151931085e+01    0.1964139    0.1015021  49.52 0.0006928493    1.642    0.391
       200  -9.6593    217.4734    245.0000   1.1025872294e+02  -9.3625895552e+00    0.2817602   0.06141589  39.81 0.0009394842    3.973    0.748
       201  -9.4859    148.7688     18.8583   7.0406132400e+01   4.5295532673e+01    0.1765322    0.1448146 -87.94 0.0003578762    1.310    0.236
       202  -9.2956     65.3624     18.8351   9.1438773029e+01   6.2727162738e+01    0.1660539    0.1004323 -12.68 0.0009372281    1.688    0.407
       203  -9.5264     58.0031     19.0361   9.4143345149e+01   6.3858393763e+01    0.1594282    0.1499085 -49.49  0.001121313    1.693    0.409
       204 -11.4433     37.8941    242.3522   1.4465753017e+02   1.9914527068e+01    0.4290327    0.1390033  60.68  0.001807838    3.228    0.690
       205  -9.3933     74.2184    243.6337   1.3818882327e+02   1.4773423948e+01    0.1505065    0.1035962  41.92 0.0002182952    1.464    0.317
       206  -9.6788    202.5063    240.4891   1.1239113380e+02  -6.2609751558e+00    0.1983373    0.1181767 -25.73 0.0009398028    2.025    0.506
       207  -9.2988     60.5157    241.0000   1.4049179478e+02   1.7232128683e+01    0.2533726   0.05933448  38.97 0.0009323783    3.916    0.745
       208 -12.6749     25.6836    236.0195   1.4633245881e+02   2.2602764791e+01    0.3917743     0.295506  52.96  0.002646393    1.345    0.256
       209 -10.2213    199.8042     17.1613   6.2619584323e+01   3.3022389522e+01    0.1991948    0.1542472 -78.51 0.0004917028    1.186    0.157
       210 -10.5517    237.0036     15.9991   5.8551873342e+01   2.4492902862e+01    0.1548496    0.1229869 -78.86 0.0007959408    1.015    0.014
       211 -13.4691      9.8817    229.8528   1.4864403143e+02   2.5533071262e+01    0.7209365    0.3812297  86.83  0.004557193    1.522    0.343
       212  -9.9737     64.1242     15.3851   9.0463199631e+01   6.3311007094e+01    0.2173837     0.143853  49.65  0.001292632    1.777    0.437
       213 -10.7656    190.6101     13.9176   6.2939399390e+01   3.5600528640e+01    0.2514064     0.167084  79.44 0.0006129178    1.313    0.238
       214  -9.6432    212.6382     12.3072   6.0103050368e+01   3.0502604261e+01    0.1391428   0.08097693 -72.69 0.0007039492    1.738    0.425
       215 -12.1122      4.1198    232.5686   1.4976690606e+02   2.5579557528e+01    0.4789765    0.2098813  78.94 0.0003837089    1.991    0.498
       216  -9.7531    249.1884    234.1302   1.0249447977e+02  -1.2715169984e+01    0.1843461    0.1354644   6.60 0.0004940819    1.172    0.147
       217  -9.6629    140.2659    227.3854   1.2296788781e+02   7.0238295006e+00    0.2053555    0.1103006  50.09 0.0009451163    1.703    0.413
       218 -10.2180     33.2035    225.0127   1.4418835247e+02   2.3949295035e+01    0.2728791    0.1231507  48.49  0.001492991    1.912    0.477
       219 -10.2392     25.5206    225.0172   1.4558673062e+02   2.4830572824e+01    0.1713051    0.0932146 -78.30 0.0007369268    1.576    0.365
       220 -12.0495      7.9796    217.7896   1.4822076889e+02   2.8152949413e+01    0.2928675    0.2290601  81.83  0.001760478    1.128    0.114
       221  -9.5405    246.4793    216.5447   9.9777490799e+01  -9.8399622260e+00     0.129349    0.1049761   2.51 0.0001671587    1.044    0.042
       222 -11.0664     16.2276    211.9613   1.4633254923e+02   2.8532774648e+01    0.1926763     0.147202  60.81  0.001324746    1.244    0.196
       223  -9.5430    209.8035    211.6167   1.0584744692e+02  -2.9229890106e+00    0.1922822    0.1205723  46.97 0.0009454833    1.664    0.399
       224  -9.8904     20.7721    209.7969   1.4532204146e+02   2.8516984572e+01    0.1665653    0.1030147  72.91 0.0004434237    1.353    0.261
       225  -9.7611    247.0549    207.1632   9.7897324402e+01  -8.5284204956e+00    0.2026251    0.1529167  -4.13 0.0006449304    1.244    0.196
       226 -11.5052      9.1856    203.4647   1.4702983670e+02   3.1020827853e+01    0.2327376    0.1826416  66.37 0.0009068977    1.208    0.172
       227  -9.5633    180.8243    199.3358   1.0951724994e+02   4.7345294204e+00    0.3161286    0.1215492  48.43  0.001109258    2.723    0.633
       228  -9.4973     23.0201    197.4845   1.4388550799e+02   3.0935084345e+01    0.1602823    0.1108067  42.45 0.0004527521    1.573    0.364
       229  -9.9698      6.5036    191.4925   1.4666101887e+02   3.3834145226e+01    0.1991692    0.1111666  71.74 0.0005099953    1.604    0.376
       230  -9.5730     15.3704    185.1795   1.4437262578e+02   3.4405848629e+01    0.1736733   0.08932744 -87.22 0.0009390445    1.696    0.410
       231  -9.5674      1.3122    183.2235   1.4705656710e+02   3.6075026204e+01    0.1613648    0.0811383 -85.34 0.0005813029    1.599    0.375
       232 -10.7886      4.7413    167.4128   1.4504801260e+02   3.9287767960e+01    0.2886435    0.1772238  56.86  0.001285183    1.647    0.393
       233  -8.8234     41.6960    158.3267   1.3550216714e+02   3.7900816266e+01    0.1348297   0.08816161  75.86 0.0007033811    1.646    0.392
       234  -9.0912    247.4706    155.5260   8.7352780190e+01  -6.7087326420e-02    0.1384842    0.1238352 -23.93 9.709399e-05    1.010    0.010
       235 -10.1123      2.8275    153.5707   1.4418787081e+02   4.2538479233e+01    0.2417808   0.07818198  37.87  0.001151946    3.180    0.686
       236  -9.8344     14.9930    150.4924   1.4102095650e+02   4.2300887131e+01    0.1931638    0.1343595 -75.47 0.0005254522    1.140    0.123
       237  -9.8301     23.6712    150.6955   1.3894346502e+02   4.1506105156e+01    0.1235634   0.08219568 -45.95 0.0003727901    1.652    0.395
       238 -10.2838     22.0064    143.1726   1.3841494742e+02   4.3401566315e+01    0.2294054    0.1522869 -73.00  0.001020798    1.228    0.186
       239 -10.9379      3.3168    138.5300   1.4251629159e+02   4.5897050957e+01    0.2564348    0.1515647  63.91  0.001499845    1.913    0.477
