#   1 NUMBER                 Running object number                                     
#   2 MAG_AUTO               Kron-like elliptical aperture magnitude                    [mag]
#   3 X_IMAGE                Object position along x                                    [pixel]
#   4 Y_IMAGE                Object position along y                                    [pixel]
#   5 X_WORLD                Barycenter position along world x axis                     [deg]
#   6 Y_WORLD                Barycenter position along world y axis                     [deg]
#   7 A_WORLD                Profile RMS along major axis (world units)                 [deg]
#   8 B_WORLD                Profile RMS along minor axis (world units)                 [deg]
#   9 THETA_WORLD            Position angle (CCW/world-x)                               [deg]
#  10 FWHM_WORLD             FWHM assuming a gaussian core                              [deg]
#  11 ELONGATION             A_IMAGE/B_IMAGE                                           
#  12 ELLIPTICITY            1 - B_IMAGE/A_IMAGE                                       
         1 -13.9871    166.5604     50.0683   6.9668463423e+01   3.7179506688e+01    0.9522398    0.8346142   5.15  0.003977339    1.493    0.330
         2 -13.8085    181.5166     22.9425   6.0812229963e+01   3.7139489808e+01    0.8205339    0.5604391  81.37   0.00485666    1.294    0.227
         3 -13.6299    183.4550     17.4480   5.9309022794e+01   3.7305322210e+01    0.6803557     0.322659  75.49  0.003363678    1.931    0.482
         4 -10.8871    126.8759    227.9069   1.1870653358e+02   8.1129456051e+00    0.3647569    0.2675574  29.70  0.001907976    1.417    0.294
         5 -19.6707     60.0330    151.6979   1.2278113241e+02   3.7137272829e+01     19.48798     4.549483 -63.05   0.05378155    4.442    0.775
         6 -12.5340    158.6365    227.4499   1.1166313488e+02   2.7464076208e+00     0.325068    0.2707689 -51.39  0.001247554    1.301    0.231
         7 -12.5470    158.8337    223.0901   1.1088472247e+02   3.5835279605e+00    0.3112312    0.2436129 -39.03    0.0014147    1.352    0.261
         8 -12.2962    165.4757    227.0683   1.1012350061e+02   1.6476462069e+00    0.3321559     0.219416 -58.03  0.000910926    1.806    0.446
         9 -12.7393    139.9011    218.5472   1.1431349579e+02   7.8482251366e+00    0.6401011    0.2850854 -61.11    0.0018285    2.933    0.659
        10 -12.2523    174.9864    219.2656   1.0672428710e+02   1.5387390034e+00    0.3400352    0.1787094 -46.89     0.001512    1.975    0.494
        11 -11.8510    151.9508    218.6622   1.1164263345e+02   5.6976558749e+00    0.2636394    0.2148231 -63.08 0.0008916907    1.372    0.271
        12 -12.1435    165.9866    217.3314   1.0832366500e+02   3.4946455624e+00    0.2952055    0.2063188 -46.52 0.0006215958    1.487    0.327
        13 -12.6569    188.3848    213.1185   1.0276779216e+02   4.2731886973e-01    0.3641556    0.2289932 -40.00  0.001766239    1.587    0.370
        14  99.0000     16.9632    206.1488   1.4023495099e+02   2.8696497035e+01    0.7964328    0.4842164 -75.78  0.004636356    1.367    0.269
        15 -11.3679    183.4572    206.0011   1.0247467391e+02   2.6919141347e+00    0.2154683    0.1374228 -44.61 0.0004651538    1.569    0.363
        16 -13.6441    192.5586    194.9093   9.8408524117e+01   3.3037096318e+00    0.9823544    0.5264848 -63.80  0.003444193    3.493    0.714
        17  99.0000      3.8306    180.7311   1.4081932461e+02   3.5873105532e+01    0.6886103    0.3492062 -66.50  0.003731418    1.594    0.372
        18  99.0000      9.7384    190.2107   1.4037173186e+02   3.3119860603e+01    0.7078127    0.3414527  61.03  0.003308221    2.182    0.542
        19 -10.8997      8.5918    184.7415   1.4012602645e+02   3.4516879235e+01    0.3723858    0.1859871 -68.83  0.001893542    1.609    0.379
        20 -11.0396    133.0708    194.6135   1.1171964996e+02   1.4425881087e+01    0.2462731    0.2061164 -73.75  0.001256248    1.282    0.220
        21 -13.2389    148.7864    189.5795   1.0706298234e+02   1.2635604239e+01    0.6504003    0.2914395 -51.69  0.002433588    2.270    0.560
        22 -11.2465    101.5001    243.1216   1.2630394723e+02   9.0908094372e+00    0.1995468    0.1566906  57.27 0.0004513187    1.137    0.120
        23 -10.3764     87.1528    190.8319   1.2222936631e+02   2.3311901607e+01    0.2257085    0.1778042  75.64 0.0005357908    1.308    0.235
        24 -11.6209    202.4415    189.7007   9.5340876353e+01   2.5806506295e+00    0.2727639    0.1336552 -47.71  0.001127459    2.033    0.508
        25 -10.9095    110.2544    189.3778   1.1629871173e+02   1.9794005813e+01     0.232189    0.1814543 -16.01 0.0008106169    1.776    0.437
        26 -12.3369     86.3149    185.1282   1.2152262948e+02   2.4855204928e+01    0.4845217    0.4299241   6.84  0.001639111    1.412    0.292
        27 -10.5387     91.8104    185.5493   1.2021766647e+02   2.3865520081e+01     0.284468    0.1894242  44.75 0.0004733483    1.503    0.335
        28 -10.3436    164.3233    186.6425   1.0290744550e+02   1.0324217157e+01    0.1556026    0.1207925  85.88 0.0007044851    1.770    0.435
        29 -11.8386    185.2318    183.5715   9.7680053839e+01   7.0004788960e+00    0.3296026    0.2080984 -54.17 0.0009829688    1.706    0.414
        30 -12.7333    150.8172    179.7041   1.0462874289e+02   1.4507329787e+01    0.4734232    0.3125653 -68.39  0.001996671    1.925    0.481
        31 -11.2833     99.2015    180.8029   1.1754340994e+02   2.3809864913e+01    0.2663245    0.2428502  31.00 0.0006806067    1.207    0.172
        32 -13.0695    143.1203    173.9733   1.0529332129e+02   1.7348444726e+01    0.5647326    0.3444326 -48.68  0.001807689    1.617    0.381
        33 -12.5602    186.4086    174.4401   9.5538380463e+01   8.7162088882e+00    0.4000277    0.3749907 -49.35 0.0009375173    1.072    0.067
        34 -11.5871    185.4578    169.4854   9.4693575197e+01   9.9636763540e+00    0.2877093    0.2416312 -56.04 0.0008778727    1.220    0.181
        35 -11.4737    135.6543    237.5177   1.1823330657e+02   4.6522933443e+00    0.4054625    0.3132995 -54.06  0.001468195    1.416    0.294
        36 -11.3661     40.6581    173.4641   1.3126933037e+02   3.4045547906e+01    0.4300781    0.2357128 -74.62  0.001311858    1.677    0.404
        37 -11.4719     43.3618    169.8133   1.3008903746e+02   3.4645305361e+01    0.3723834     0.206744 -68.47  0.001620219    1.576    0.365
        38 -10.3501     96.2253    237.1799   1.2667872215e+02   1.1165103818e+01    0.3410241    0.1118926 -62.49  0.001248756    3.368    0.703
        39 -11.4396    124.9181    171.2128   1.0921632694e+02   2.1530747977e+01    0.2737366    0.2239956 -52.72 0.0007988545    1.200    0.167
        40 -10.6945    193.0045    170.2509   9.3270056704e+01   8.3304533358e+00    0.2033901    0.1977685   5.63 0.0004935894    1.063    0.059
        41 -11.5603    117.1340    233.9671   1.2173390120e+02   8.4709854420e+00     0.263348    0.1888521 -54.61 0.0005491087    1.507    0.336
        42 -11.8516    139.2295    167.6262   1.0492028506e+02   1.9617377601e+01    0.2834671     0.254508 -48.09 0.0005046808    1.102    0.092
        43 -11.1164    110.1079    167.8687   1.1232752130e+02   2.5105122815e+01    0.2314233    0.2010815  83.36 0.0002751645    1.215    0.177
        44 -12.2862    100.1299    160.9096   1.1356661386e+02   2.8616737508e+01    0.7174761    0.3062578 -39.56  0.002292846    3.250    0.692
        45 -10.8020    187.7122    163.0203   9.2828563523e+01   1.0908062141e+01    0.2235257    0.1884631 -46.21 0.0005873691    1.131    0.116
        46 -11.1311    124.9921    162.2064   1.0734154373e+02   2.3708987568e+01    0.2660868    0.2197314 -56.30 0.0004384157    1.183    0.155
        47 -11.2596    114.9422    162.1920   1.0992739172e+02   2.5620552166e+01    0.2692305    0.2149019 -58.39 0.0005829402    1.219    0.180
        48 -12.4890    119.9827    157.1366   1.0755517885e+02   2.5910775341e+01    0.4518299    0.3229608 -61.41  0.002049768    1.429    0.300
        49 -12.0811     27.1079    153.6279   1.3207225715e+02   4.0399083115e+01    0.4114472    0.2914015  48.38  0.001611634    1.571    0.363
        50 -13.0161    108.3941    147.0802   1.0844852338e+02   3.0565433033e+01     0.647222     0.380551 -41.31   0.00120188    1.803    0.445
        51 -12.2367    104.2411    152.5316   1.1074563438e+02   2.9976961174e+01     0.493807    0.3395877  38.00  0.001124844    1.524    0.344
        52 -11.2733     98.5872    150.7805   1.1191203418e+02   3.1416799358e+01    0.2802936    0.2602041 -73.27  0.000724249    1.046    0.044
        53 -13.6665    133.7789    145.2706   1.0136522530e+02   2.6044745977e+01     1.414048    0.3547335 -54.49  0.003185706    5.696    0.824
        54 -12.1583    113.8062    151.8698   1.0804317520e+02   2.8376867249e+01    0.5382102    0.3186993 -81.13  0.001811452    3.126    0.680
        55 -10.2892    174.6971    149.3205   9.2594777161e+01   1.6558468984e+01    0.1564889    0.1224033 -83.65 0.0002708711    1.630    0.386
        56 -12.1431    150.5524    229.7663   1.1379885214e+02   3.6741147978e+00    0.4188172    0.2541579 -56.22  0.002008387    1.864    0.463
        57 -11.8243    119.4552    141.0003   1.0410688141e+02   2.9934749791e+01    0.3050159    0.2187176  59.79 0.0009229622    1.610    0.379
        58 -13.0798    115.9363    133.9091   1.0339095740e+02   3.2319098120e+01    0.5080476    0.3355958 -38.37  0.002066202    1.602    0.376
        59 -13.0364    106.0812    131.6698   1.0556883245e+02   3.4736237111e+01    0.5215288    0.3954017 -54.27  0.001246256    1.280    0.219
        60 -12.4609    120.2143    126.4556   1.0043236809e+02   3.3221185069e+01    0.3517213    0.2477674 -41.43 0.0009696289    1.421    0.297
        61 -12.9677    134.8207    122.1099   9.5526072930e+01   3.1187722174e+01    0.5931298    0.2298711 -48.33  0.001984719    2.564    0.610
        62 -10.2906    131.3062    229.6967   1.1800119601e+02   6.9834511265e+00    0.1913068    0.1715077  70.99 0.0002604349    1.145    0.127
        63 -11.7709    108.9927    121.9644   1.0239660975e+02   3.6467426360e+01    0.3378216    0.2140889 -40.76 0.0005649871    1.594    0.373
        64 -11.6030    114.1209    116.8244   9.9672769010e+01   3.6640013858e+01    0.2336881    0.2118875 -86.51 0.0005299493    1.221    0.181
        65 -11.3560    167.8352    112.9704   8.5471655125e+01   2.5882117800e+01    0.4171949    0.2918171 -76.35  0.001287627    1.906    0.475
        66 -11.6619    160.1242    127.6644   9.0788189176e+01   2.4470072187e+01    0.2919472    0.2152837 -57.39  0.001026426    1.393    0.282
        67 -11.8281     94.4284    110.4184   1.0365811024e+02   4.1801596985e+01    0.3188075    0.2438087 -22.37 0.0007172342    1.489    0.328
        68 -10.1241    205.5151    110.4613   7.7571282925e+01   1.8044814196e+01    0.1462605    0.1328382 -63.10 0.0001298897    1.005    0.005
        69 -10.1453    231.2494    113.9581   7.4153591964e+01   1.2080076926e+01    0.1986949    0.1658754 -50.37  0.001141982    1.061    0.058
        70 -12.8907    154.5113     63.5910   7.5441564018e+01   3.7985808686e+01    0.3876477    0.3451751  63.24 0.0009179909    1.056    0.053
        71 -10.2221    139.4426    245.9295   1.1866007093e+02   2.3784772637e+00    0.1859154    0.1333591 -57.35 0.0007217076    1.580    0.367
        72 -12.3678    171.7209     41.7540   6.6726347298e+01   3.7105238997e+01    0.3667593    0.3541175  47.57 0.0009001374    1.225    0.184
        73  -9.8528    128.3222    245.4710   1.2094515505e+02   4.2939173068e+00    0.1255028    0.1187295  57.28 4.269509e-05    1.070    0.065
