#   1 NUMBER                 Running object number                                     
#   2 MAG_AUTO               Kron-like elliptical aperture magnitude                    [mag]
#   3 X_IMAGE                Object position along x                                    [pixel]
#   4 Y_IMAGE                Object position along y                                    [pixel]
#   5 X_WORLD                Barycenter position along world x axis                     [deg]
#   6 Y_WORLD                Barycenter position along world y axis                     [deg]
#   7 A_WORLD                Profile RMS along major axis (world units)                 [deg]
#   8 B_WORLD                Profile RMS along minor axis (world units)                 [deg]
#   9 THETA_WORLD            Position angle (CCW/world-x)                               [deg]
#  10 FWHM_WORLD             FWHM assuming a gaussian core                              [deg]
#  11 ELONGATION             A_IMAGE/B_IMAGE                                           
#  12 ELLIPTICITY            1 - B_IMAGE/A_IMAGE                                       
         1 -15.2489      6.7091     68.9196   6.9615504206e+01   6.4173373887e+01     1.585258    0.9835278 -74.70   0.00510245    1.641    0.391
         2 -12.7962     49.7699     19.7999   2.4372622115e+01   6.8523456740e+01    0.8616534     0.351369  54.94    0.0034302    2.366    0.577
         3 -13.9237      6.7428     43.0371   6.3418298625e+01   7.0604529459e+01     2.432774     1.051873 -24.94  0.009364826    2.829    0.647
         4 -14.4812     41.3537      5.2897   1.9757789676e+01   7.2183387368e+01     1.531183     1.081287  20.29  0.008481734    1.607    0.378
         5 -13.8642      8.8547      2.8490   4.1522724147e+01   7.8509129009e+01     1.103476    0.6767285  40.28  0.004043682    1.653    0.395
         6 -14.4851     26.2600     13.0570   3.3936941736e+01   7.4162530313e+01    0.9312631    0.6904022   3.17  0.004294667    1.509    0.337
         7 -16.0405     12.9713     20.8393   4.9211964188e+01   7.4800595133e+01     1.856542     1.228185 -18.16   0.00939275    1.640    0.390
         8 -14.0035    122.3075     36.7090   1.0299383482e+01   4.8810311241e+01    0.9680434    0.5212105  42.92  0.002783405    2.330    0.571
         9 -13.9079    166.3669     29.1721   1.8959711843e+00   3.9392877388e+01    0.8388304    0.6208056 -86.53  0.003454115    1.240    0.194
        10 -12.0967    141.1631     21.7167   2.6542658945e+00   4.6067809963e+01    0.9110698    0.4937785  89.33  0.003542447    1.899    0.473
        11 -11.5273    188.1541      9.8618   3.5528646243e+02   3.6830167939e+01    0.3315773    0.1454486 -58.34  0.001653703    1.949    0.487
        12 -13.1516    188.2811     25.1598   3.5889009074e+02   3.5177285157e+01     1.034256    0.3722184 -61.51  0.004281577    3.164    0.684
        13 -12.6132    187.5320     16.0004   3.5677626001e+02   3.6328065068e+01    0.7220129     0.245942 -46.60  0.003457037    2.267    0.559
        14 -15.4332     98.0613     12.1074   5.9039343323e+00   5.7766191748e+01      1.74366    0.8884695  62.98   0.00493873    1.669    0.401
        15 -11.7682     71.0133     16.5845   1.4520314363e+01   6.4025104971e+01    0.2634223    0.2270485 -31.57 0.0007149302    1.324    0.245
        16 -12.0782     74.2546     10.2708   1.0512434506e+01   6.3920711564e+01    0.4454292    0.3194146  -8.20  0.002409195    1.786    0.440
        17 -13.2618    214.0617      9.9930   3.5386367135e+02   3.1764705240e+01    0.4571769    0.2915187 -83.36  0.002838663    1.448    0.309
        18 -10.8213    153.2149      8.1786   3.5743531873e+02   4.4636352947e+01    0.1802991    0.1204826 -66.06 0.0006410052    1.303    0.233
        19 -11.9873     60.5493     15.5358   1.7559002017e+01   6.6643671353e+01    0.5019252    0.3483046  32.43  0.002363347    1.563    0.360
        20 -11.1819    232.5332      1.6302   3.5139570350e+02   2.9303411590e+01    0.1820965    0.1340284  88.66 0.0009708302    1.436    0.304
        21 -12.0560    225.3167      3.5030   3.5203747415e+02   3.0373617426e+01    0.3158143    0.1893136  69.21  0.002186591    1.961    0.490
        22 -11.8322    119.2915      2.9458   3.5925276957e+02   5.3279666797e+01    0.4870675    0.2067249 -84.20  0.001963112    2.731    0.634
        23 -11.4603     67.5039      2.7012   8.5552526158e+00   6.6306131270e+01    0.3496136    0.1910536  52.72  0.001485146    1.570    0.363
        24 -12.1415     60.9536      1.5004   9.8046174074e+00   6.8012709054e+01    0.6693377     0.132374  66.84  0.001824918    5.227    0.809
        25 -11.9240     80.4521      1.7699   4.9672069071e+00   6.3160017087e+01    0.6389602     0.119795  64.62  0.002070791    3.582    0.721
        26 -12.5994    124.1679    166.7912   4.3603511850e+01   2.3006620077e+01     0.569721     0.415927 -73.37   0.00276001    1.927    0.481
        27 -10.7861     52.5298    250.4598   7.2138832349e+01   1.4471062549e+01    0.1242277   0.09745375  27.72 0.0001719085    1.014    0.014
        28 -11.9660      2.7764    249.5191   8.3742243894e+01   1.8936923286e+01    0.3457638    0.2104087  35.22  0.001556069    1.226    0.185
        29 -13.9942      9.6128    245.4001   8.2047194340e+01   1.9208179081e+01    0.8163056    0.3999797  45.44   0.00313353    1.591    0.371
        30 -11.5155      2.4652    159.8463   8.0614270061e+01   3.9604401500e+01    0.2666872      0.17418 -17.29  0.001275787    1.840    0.457
        31 -12.4938     77.1660    157.0326   5.5280705784e+01   3.2473896885e+01     0.645754    0.3201895  28.86  0.002157091    1.902    0.474
        32 -13.0403     74.0216    153.4983   5.5700547239e+01   3.3821796190e+01    0.6486881    0.4361534  15.38  0.002153747    1.601    0.375
        33 -10.6124     56.4735    155.4755   6.1795803881e+01   3.5685994723e+01    0.1495118    0.1436708  22.19 0.0007178765    1.035    0.034
        34 -12.2611     10.7775    149.4726   7.7114086963e+01   4.1840757339e+01    0.6777982     0.345622  -7.00  0.002720323    2.518    0.603
        35 -12.4016    111.5496    155.6003   4.4853049608e+01   2.7486046089e+01     0.556623    0.3869227  71.14   0.00241052    2.243    0.554
        36 -12.3007    190.0996    150.1491   2.6343849846e+01   1.6034048977e+01    0.2164746    0.1818917  36.11  0.001395241    1.366    0.268
        37 -11.4288    103.6310    149.5606   4.5917743447e+01   3.0180126070e+01    0.3209158    0.2431928 -24.00  0.001144936    1.500    0.333
        38 -12.0668    148.8858    141.6172   3.2731765485e+01   2.4177435582e+01    0.3185576    0.2537738 -33.16  0.001742746    1.203    0.169
        39 -10.7016     42.5011    139.4970   6.4446189670e+01   4.1661329126e+01    0.1503236    0.1456681  45.00 0.0008106878    1.004    0.004
        40 -10.3433     10.8025    133.8992   7.5871426962e+01   4.6114205506e+01    0.1989753    0.1510069  50.84 0.0003794218    1.292    0.226
        41 -11.7994    139.0873    131.7495   3.2853617487e+01   2.7910859564e+01    0.2870766    0.1851022 -20.28   0.00123969    2.119    0.528
        42 -11.5648     43.9507    132.5299   6.2865016352e+01   4.3396885513e+01    0.2336801    0.1495088  20.86  0.001020249    1.571    0.364
        43 -13.7397    105.8169    120.7456   3.9099572544e+01   3.6546299069e+01     1.462123     1.154152  28.58  0.007168593    1.309    0.236
        44 -12.4913      4.5640    119.4312   7.7137210661e+01   5.0517953678e+01    0.6302974    0.3918567  -7.13  0.002600745    1.809    0.447
        45 -14.0262     18.4315    110.6723   7.0178638062e+01   5.2027663380e+01     1.154583     0.890533  -9.34  0.004524296    1.402    0.287
        46 -13.9134     10.5744    103.1967   7.2789775324e+01   5.4674868435e+01    0.9105856     0.781148   4.93  0.004153491    1.206    0.171
        47 -13.8084      2.3110     96.8228   7.5986332413e+01   5.6900675759e+01     1.266167    0.4576307 -80.53  0.004376553    2.761    0.638
        48 -11.4708     88.5992    109.7493   4.1822118802e+01   4.2397154190e+01    0.3293704    0.1561612 -53.50  0.001216766    2.175    0.540
        49 -12.1079     84.9862    114.9155   4.4298528580e+01   4.1807718783e+01    0.8538898    0.3640515  32.27  0.002459597    2.453    0.592
        50 -11.9546     78.7595    110.9896   4.5516169316e+01   4.3895278426e+01    0.3500187    0.2847965 -67.38  0.001510763    1.327    0.247
        51 -14.5478     25.0134     93.9054   6.4419965830e+01   5.6068253220e+01     2.043065     1.063942   8.57   0.00814687    2.179    0.541
        52 -10.9147     45.4406    110.9563   5.8478565612e+01   4.9099538057e+01    0.5337806    0.2462133 -33.87   0.00171639    3.231    0.690
        53 -12.7917     28.9580    121.7247   6.7202961558e+01   4.8012214912e+01    0.5800567    0.3110092 -54.78  0.002426193    1.813    0.448
        54 -11.2247     62.7487    106.4460   5.0427562303e+01   4.7768038148e+01    0.4015671    0.2829995  76.76  0.001703794    1.917    0.478
        55 -12.0552    136.7670    102.8791   2.6566409690e+01   3.4216245516e+01    0.5038363    0.2752333  45.65  0.001704607    1.890    0.471
        56 -14.3532    104.7314    104.1420   3.5289708343e+01   4.0539378391e+01     1.463043     1.131271  40.17  0.007121064    1.285    0.222
        57 -11.9426     51.1487     98.8316   5.3411828688e+01   5.1537028812e+01    0.7138671    0.4006582  -8.62  0.002336785    3.368    0.703
        58 -11.1857     46.3269     98.6793   5.5481996110e+01   5.2265834729e+01    0.3138858    0.2381202  42.57  0.001230144    1.323    0.244
        59 -10.1363     75.2379    100.6154   4.4186086925e+01   4.7091423657e+01    0.1563194     0.121531  85.67  0.000573713    1.639    0.390
        60 -11.8052     60.7940     97.6006   4.9046340791e+01   5.0350611632e+01    0.5040142    0.3447836  60.43   0.00213193    1.781    0.439
        61 -11.5365    163.7176     97.4712   1.9731361229e+01   2.9775810359e+01     0.259862    0.2289181  -7.75 0.0008772946    1.330    0.248
        62 -12.2194    136.9821     94.8366   2.4453224968e+01   3.5735776506e+01    0.4003505    0.3103729  80.96  0.001221912    1.564    0.360
        63 -10.0880     59.0000    124.9944   5.5837562683e+01   4.3458051207e+01    0.2368128   0.08906268 -62.51            0    2.726    0.633
        64 -10.8489    129.2258     96.4040   2.6665012339e+01   3.7070212382e+01    0.2079736    0.1393266  60.24 0.0009483663    1.655    0.396
        65 -12.3531    180.7357    121.4690   2.2154866166e+01   2.2440371545e+01    0.4478444    0.2672152 -31.80  0.002270358    1.654    0.396
        66 -11.2843     99.9810     89.4749   3.2691293782e+01   4.4744929899e+01     0.434058    0.1815115  42.62  0.001539947    2.376    0.579
        67 -11.4368     49.0347     93.0239   5.2928617248e+01   5.3357270783e+01    0.3968844    0.2911147  65.65  0.001804187    1.662    0.398
        68 -11.7822     43.2411     90.5312   5.4954122313e+01   5.4828212343e+01    0.5440137    0.2405065 -66.11  0.001623177    2.533    0.605
        69 -13.1861     20.2498     86.6676   6.5439755787e+01   5.8464680774e+01    0.8057472    0.4339452   7.88  0.001387088    2.037    0.509
        70 -13.3163    188.3884     84.1775   1.2706381653e+01   2.7203707940e+01    0.4860627    0.2506161  48.71  0.001793718    2.286    0.563
        71 -12.0309    159.3467     66.3162   1.2649153003e+01   3.5862556139e+01    0.6673743    0.2052175 -43.64  0.002435161    2.923    0.658
        72 -14.5633    165.3630     78.6749   1.4844498450e+01   3.2622386866e+01     1.783601    0.6608759  46.60   0.00672535    3.306    0.697
        73 -12.8934    164.6076     71.2285   1.3087918225e+01   3.3969687672e+01    0.5486942    0.3943218  44.55  0.002177991    1.653    0.395
        74 -11.0944    125.6353     84.6783   2.4337045305e+01   4.0132703705e+01    0.1506277    0.1179886  12.19 0.0007039692    1.786    0.440
        75 -13.9175    100.8560     50.0529   1.9716701312e+01   5.2066983819e+01    0.9537053    0.7488156 -87.95  0.003118458    1.424    0.298
        76 -12.1442     40.2602     67.6408   5.0057227707e+01   6.0982369932e+01     1.236054    0.3802212  29.57  0.003923124    3.202    0.688
        77 -12.6083     66.4289     48.8052   3.0694701360e+01   6.0202458498e+01     1.043884    0.6840499 -28.54  0.004789376    1.874    0.466
        78 -12.9001     91.4921     57.7268   2.5149810005e+01   5.2959647435e+01    0.5739374     0.551848  43.76   0.00232235    1.080    0.074
        79 -13.2855     54.0103     67.4126   4.3157254259e+01   5.8799630885e+01     1.650512     1.104381  33.44  0.007669692    1.441    0.306
        80 -12.9615     87.5083     65.3090   2.9078575221e+01   5.2440880258e+01    0.5212362    0.4392668  17.37  0.001045196    1.411    0.291
        81 -12.5945     55.8801     80.0303   4.6311386266e+01   5.5524590384e+01    0.7941707    0.4096911 -35.41  0.002660885    2.551    0.608
        82 -13.5250     61.1585     75.6119   4.2629500053e+01   5.5639261044e+01    0.6607703    0.3978319 -48.34   0.00134518    1.715    0.417
        83 -12.7943    215.9124     80.6813   8.5724209570e+00   2.2828745462e+01    0.4118854    0.2796552 -75.42  0.002519855    1.795    0.443
        84 -11.8705    114.2676     79.7976   2.5787840325e+01   4.3601119998e+01    0.4650066    0.3116558 -54.99  0.001536078    1.588    0.370
        85 -12.5746    135.8878     79.5504   2.0581554964e+01   3.8814726624e+01    0.5965558    0.3222939  53.86  0.001948448    1.870    0.465
        86 -13.3854     28.7061    245.4068   7.7529408475e+01   1.7621826526e+01    0.5262615    0.3059419  52.97  0.002234468    1.582    0.368
        87 -11.0754     90.0917     80.1589   3.3060766043e+01   4.8844911293e+01    0.3509641    0.2077824  35.52  0.001449751    1.830    0.454
        88 -11.8048     42.4329     78.2183   5.2109264977e+01   5.8082431862e+01    0.4670892    0.3151805 -64.90  0.002143235    1.609    0.378
        89 -11.7554     27.4734     76.5112   5.9394596907e+01   6.0425018327e+01    0.3884786     0.273517  86.22  0.001334394    1.813    0.448
        90 -13.0798    199.2153     69.7710   8.0968444492e+00   2.7313636592e+01    0.5116234    0.3223644  50.64  0.002228694    1.940    0.485
        91 -12.7143    133.8022     66.0482   1.7179091377e+01   4.1628239912e+01     0.769885    0.6508664  19.81  0.003477072    1.544    0.352
        92 -11.0606     99.9827     64.9069   2.5067695922e+01   4.9683960407e+01    0.2654564     0.220756 -68.48 0.0009743897    1.305    0.234
        93 -12.7998     79.1493     60.6492   3.0334314252e+01   5.5197142067e+01    0.6303008    0.5346568 -33.32   0.00330282    1.292    0.226
        94 -13.3078    177.8430     57.3754   7.7605006454e+00   3.3260023007e+01    0.6378556    0.4630514 -62.65  0.002092509    1.280    0.219
        95 -11.4691     34.1754     60.5529   5.1071980309e+01   6.3531858073e+01    0.3444791    0.2636865 -43.00  0.001061615    1.317    0.241
        96 -11.8656     35.6213     54.7138   4.8215160513e+01   6.4665909713e+01    0.3544251    0.2377354 -33.07  0.001459251    1.632    0.387
        97 -10.9941     38.8373     60.0105   4.8294189232e+01   6.2981863012e+01     0.341491    0.1819142  53.66  0.001297449    2.628    0.619
        98 -14.3864    119.7965     54.4105   1.6590112799e+01   4.6818306428e+01    0.7671959    0.5923443  46.60  0.001905842    1.376    0.273
        99 -12.0200    135.9420     50.1412   1.2054250547e+01   4.3632142611e+01    0.4514948    0.3165525  33.45  0.001603138    1.970    0.493
       100 -13.3790     73.9992     73.7992   3.6791076293e+01   5.3570272776e+01     1.671368    0.8095672  23.58  0.004768204    4.394    0.772
       101 -11.6739     17.4009     54.9161   5.9506617832e+01   6.6866523412e+01    0.3374381    0.2515427 -76.40  0.001434505    1.562    0.360
       102 -11.3375    137.1867     55.2035   1.3337836287e+01   4.2578941465e+01    0.2697351    0.1708677 -54.65  0.001310155    1.599    0.374
       103 -11.6798     24.9236     59.2877   5.6096736301e+01   6.5011352428e+01    0.5541911    0.2667307 -43.59  0.002285815    2.105    0.525
       104 -10.2520     23.6437     49.7601   5.3752578989e+01   6.7400955605e+01    0.1443562    0.1007951 -12.11 0.0003267829    1.585    0.369
       105 -11.3681     57.0012    247.0085   7.0839378611e+01   1.4684054891e+01    0.2106849    0.1161545  46.95  0.001072089    1.708    0.415
       106 -12.0971    170.5847    241.2287   4.4910596204e+01   3.7698994448e+00    0.1582804   0.08983248 -28.51 0.0009569667    1.655    0.396
       107 -12.8831     25.9047    216.8334   7.6764488547e+01   2.3812802433e+01    0.5884631    0.3254332  53.61  0.003022642    1.688    0.408
       108 -13.2172     23.8331    230.4303   7.8005149956e+01   2.1066811844e+01    0.3241647    0.2614944  85.69  0.001522871    1.379    0.275
       109 -13.3923     27.0177    225.5285   7.6947482188e+01   2.1824211452e+01    0.4319468    0.3230123 -68.17  0.002472237    1.560    0.359
       110 -13.3093      3.0509     34.2228   6.3560720590e+01   7.2898492730e+01    0.3943104    0.3466103 -11.74  0.001099511    1.031    0.030
       111 -13.6743     20.5630    224.1287   7.8533911483e+01   2.2681265845e+01    0.5443252    0.4215843  10.73  0.002124144    1.322    0.244
       112 -10.9613    154.6860     46.6573   8.0575814405e+00   3.9784395655e+01    0.2199093    0.2081549  46.60  0.001094734    1.284    0.221
       113 -12.0916    158.5431     43.1703   6.5725872946e+00   3.9385459294e+01    0.7746527    0.3038046  51.77  0.003159226    2.939    0.660
       114 -12.0688    198.4933     36.8604   7.6054100096e-01   3.1771181564e+01    0.4033231    0.2096828 -69.41   0.00214034    2.034    0.508
       115 -12.3245    205.3704     40.0260   8.9212301082e-01   3.0069775523e+01    0.4498262    0.2404003 -74.74  0.002267991    2.080    0.519
       116 -12.4560    211.8805     43.2207   1.0521870244e+00   2.8472839557e+01    0.3674591    0.2358202  59.83  0.002205675    1.876    0.467
       117 -13.1313    219.6613     41.3508   5.2941028912e-02   2.7300637562e+01    0.4770654    0.3091653 -81.11  0.001748532    1.590    0.371
       118 -11.3744     26.1072     43.9994   4.9977732745e+01   6.8375861499e+01    0.3580579    0.2651882  27.65  0.001903537    1.274    0.215
       119 -12.2216     46.2801     33.3085   3.3120682834e+01   6.7122925515e+01    0.5818923    0.5104045  18.71   0.00315921    1.120    0.107
       120 -11.6231     42.6782     28.9968   3.2892998617e+01   6.8561916505e+01    0.3863761    0.2300924  26.79  0.001416004    1.917    0.478
       121 -12.2751     35.2677     34.6117   3.9998523709e+01   6.8902538112e+01    0.5727201    0.4700488  22.06  0.003236429    1.133    0.118
       122 -11.9736     39.9588     40.2520   3.9844495970e+01   6.7011769742e+01    0.6360726    0.2954732  41.26  0.002647798    2.021    0.505
       123 -12.6592     32.7321     40.2358   4.4150785357e+01   6.8209436234e+01     0.434952    0.3330144  19.49 0.0007935289    1.257    0.205
       124 -11.2497    134.6184     39.5415   9.0533197235e+00   4.5443980354e+01    0.4691247    0.2754936  88.29  0.001590186    1.968    0.492
       125 -12.0624    110.1235     41.9577   1.4580580422e+01   5.1064784676e+01    0.4428823    0.1921846  60.79 0.0007327223    2.137    0.532
       126 -12.2296    113.6536     37.9090   1.2406550543e+01   5.0772939438e+01    0.3758411    0.3327602  69.72  0.001130795    1.068    0.064
       127 -10.5268    191.6648    226.3293   3.8885006957e+01   3.7997798354e+00   0.09670253   0.08856206  31.86  0.000705203    1.726    0.421
       128 -12.6566    131.6707     33.2732   7.5747098843e+00   4.6976472827e+01     0.409677    0.3626668  26.95  0.001532803    1.448    0.309
       129 -12.7498     74.6936     36.9048   2.2577147783e+01   6.0377402534e+01    0.7131502    0.3637673  58.77  0.001921758    1.921    0.479
       130 -12.3875    242.6451     36.1675   3.5750305322e+02   2.4042389364e+01     0.379005    0.2219347 -88.26  0.002603491    1.899    0.473
       131 -11.9196    105.4610     35.1017   1.3183327067e+01   5.3182080020e+01    0.5790423    0.3481897  -6.91  0.002335861    3.057    0.673
       132 -12.7336     63.5262    224.0081   6.7397324374e+01   1.8569897957e+01    0.6069906    0.3218263  34.99  0.003051152    1.551    0.355
       133 -13.3960     68.3988    220.0815   6.5772937994e+01   1.8861205354e+01    0.5727401    0.3792085 -75.43  0.003094068    1.873    0.466
       134 -12.1298    152.4898     31.0020   3.9694337652e+00   4.2319085316e+01     0.320208    0.2474127 -50.05  0.001296158    1.210    0.173
       135 -13.9022    146.2679     29.8511   4.4258398176e+00   4.3910502253e+01     1.102686    0.4412987  67.85  0.004172288    2.323    0.570
       136 -11.8106    114.4767     31.0244   9.8433814504e+00   5.1485809571e+01    0.3604408    0.3043379  55.43  0.001523948    1.214    0.176
       137 -12.3403    120.3417     26.2485   7.1335653186e+00   5.0621982655e+01    0.5908601    0.3560119  65.78  0.002706687    1.499    0.333
       138 -11.1716    194.7298     23.2712   3.5795575050e+02   3.4083190998e+01    0.2175425    0.1778479 -65.51  0.001537154    1.054    0.051
       139 -13.7364     63.8125    215.0973   6.6507443818e+01   2.0425374629e+01    0.5143876    0.3860677  40.83  0.002950132    1.211    0.174
       140 -12.3582     59.6588    212.8071   6.7405502013e+01   2.1376742300e+01    0.3039638     0.222102 -15.34 0.0007323334    1.615    0.381
       141 -11.1039     94.1958    217.6149   5.8881678264e+01   1.6406817650e+01    0.1974854    0.1135812  14.74 0.0009539906    1.677    0.404
       142 -11.2701    216.4814     28.4947   3.5759626805e+02   2.9356343359e+01    0.1140434   0.08627438 -56.58 0.0006174401    1.001    0.001
       143 -13.0822     56.3417     27.1675   2.5244891135e+01   6.6023856939e+01    0.7552923    0.3094775  52.60  0.001563577    2.248    0.555
       144 -11.6980     64.7684     25.7582   2.1122955258e+01   6.4329440002e+01     0.476768    0.2447446 -38.39  0.002137111    2.152    0.535
       145 -12.0255     30.5865     25.5875   3.8385587681e+01   7.1347346808e+01    0.4299443    0.2376362  30.44  0.001542641    1.742    0.426
       146 -11.7116     36.0146     23.0865   3.3569501838e+01   7.0807690674e+01     0.338296    0.2465553  -1.87   0.00176866    1.692    0.409
       147 -12.6116     57.5231    203.0723   6.7070637148e+01   2.3790031841e+01    0.4626483    0.3000168 -87.08  0.002312844    1.900    0.474
       148 -12.7595     14.0752    202.8961   7.9246816345e+01   2.7984740885e+01    0.5201104     0.194138 -69.12  0.002191221    2.768    0.639
       149 -12.5636     17.1404    195.3706   7.7991044093e+01   2.9524788125e+01    0.4424782    0.2572815 -71.65  0.002223572    1.824    0.452
       150 -11.8243    219.1432     15.1818   3.5467814902e+02   3.0308416986e+01    0.1557021    0.1358825 -59.46  0.001008311    1.230    0.187
       151 -11.1689    175.9466     13.8946   3.5710792186e+02   3.8986576041e+01    0.1781776    0.1403975 -67.27 0.0002816388    1.017    0.017
       152 -12.3926     39.4467    194.7553   7.1480670087e+01   2.7647310747e+01    0.4207442    0.3449138  55.29  0.002409423    1.173    0.147
       153 -10.9918    223.5134     21.0348   3.5563587164e+02   2.8913665151e+01    0.1794114    0.1419892  66.69   0.00100198    1.603    0.376
       154 -15.4161      9.4082    179.8586   7.9444154725e+01   3.3954097830e+01     1.768848     1.486061 -74.92   0.01041794    1.253    0.202
       155 -13.2584     22.4171    180.9489   7.5521058525e+01   3.2644076184e+01    0.6091731    0.4281763 -86.92   0.00249348    1.480    0.324
       156 -11.9905    200.7959    191.3931   3.1844703007e+01   7.9855010827e+00    0.2570903    0.1893473  -7.13  0.001473768    1.182    0.154
       157 -11.4916     48.5308    182.2083   6.7603641385e+01   2.9764770854e+01    0.3185664    0.2050798 -24.89  0.001446544    1.990    0.497
       158 -10.8054    122.8044    181.9900   4.6585692469e+01   1.9995408305e+01    0.2159637    0.1676319  79.94  0.001079026    2.006    0.501
       159 -11.5036    198.9791    180.9868   3.0405781729e+01   9.8109289325e+00     0.167654    0.1518148 -66.64  0.001142816    1.727    0.421
       160 -13.5232     30.1091    168.8841   7.2123065736e+01   3.5055980401e+01    0.7616654    0.4879601 -42.03  0.003588543    1.788    0.441
