#   1 NUMBER                 Running object number                                     
#   2 MAG_AUTO               Kron-like elliptical aperture magnitude                    [mag]
#   3 X_IMAGE                Object position along x                                    [pixel]
#   4 Y_IMAGE                Object position along y                                    [pixel]
#   5 X_WORLD                Barycenter position along world x axis                     [deg]
#   6 Y_WORLD                Barycenter position along world y axis                     [deg]
#   7 A_WORLD                Profile RMS along major axis (world units)                 [deg]
#   8 B_WORLD                Profile RMS along minor axis (world units)                 [deg]
#   9 THETA_WORLD            Position angle (CCW/world-x)                               [deg]
#  10 FWHM_WORLD             FWHM assuming a gaussian core                              [deg]
#  11 ELONGATION             A_IMAGE/B_IMAGE                                           
#  12 ELLIPTICITY            1 - B_IMAGE/A_IMAGE                                       
         1 -14.4412    134.2679    120.5036   8.8315333167e+01   3.1427628189e+01     3.690427     1.352516 -53.22    0.0114774    3.196    0.687
         2 -16.1838      5.8371     84.6472   1.1914701259e+02   5.7351077825e+01     4.962211     0.995709 -57.52   0.01964903    2.921    0.658
         3 -13.7173     58.3233     81.6427   1.0078086367e+02   5.3418965457e+01     1.157217    0.8172202 -21.36  0.006109998    1.704    0.413
         4 -15.3653     90.9829     72.6100   8.7300672478e+01   5.0405326219e+01     3.142104     1.973294   1.25   0.01221848    2.908    0.656
         5 -13.7586    248.8072     32.1802   4.4091772123e+01   1.9342762660e+01     2.492975    0.3621137 -29.88  0.006190068    7.012    0.857
         6 -14.5020    199.8317     14.9565   4.4839683851e+01   3.3204827012e+01      1.55526     1.058963 -10.71  0.007852457    1.877    0.467
         7 -14.2650    210.9165      5.3641   4.1130578015e+01   3.1443213737e+01     1.194788    0.9857532 -43.82  0.007234825    1.223    0.182
         8 -14.2938      6.5656      7.8883   9.8273018436e+01   7.2758753765e+01     1.142444    0.5485939 -34.91  0.006941915    1.600    0.375
         9 -11.7496    152.6425      3.9625   4.7721885271e+01   4.6416671996e+01    0.3582436    0.2077214  23.57  0.001615758    2.251    0.556
        10 -15.2819    122.4036     53.2561   7.1463869888e+01   4.7609367203e+01     3.221309     1.844662 -12.86   0.01213632    2.687    0.628
        11 -13.1890     69.6286    199.0073   1.1710059793e+02   2.5004808165e+01    0.5376971    0.3901013 -58.13  0.003298596    1.595    0.373
        12 -12.4686    234.2191    249.7532   9.2493271435e+01  -9.1708316061e+00     0.571626    0.1667634  34.96  0.002553612    2.848    0.649
        13 -15.4511     40.9833    224.9163   1.2472478698e+02   2.3518247597e+01     1.613892    0.7729962  47.42  0.009800391    1.696    0.410
        14 -14.5057     11.7857    238.8210   1.3036042828e+02   2.4153732411e+01    0.5291293    0.2962738  70.02  0.002250412    1.278    0.217
        15 -15.7642     45.9757    247.3819   1.2529364985e+02   1.8914796669e+01      1.61843    0.5372239  37.22  0.008116204    2.974    0.664
        16 -15.6761     42.4732    238.4439   1.2533257118e+02   2.0882990460e+01     1.287433    0.5437089  34.91   0.00698762    2.648    0.622
        17 -13.5107     36.4166    198.2171   1.2366705605e+02   2.9271606690e+01    0.4987423     0.459925  -0.09  0.003435006    1.753    0.430
        18 -13.0212     94.9380    193.7722   1.1120445925e+02   2.2396796117e+01    0.6526822     0.481194  -4.50  0.003230985    2.703    0.630
        19 -13.3773     88.7710    185.0367   1.1141281677e+02   2.5180616319e+01     1.092036    0.4594141 -63.02  0.004496318    2.405    0.584
        20 -12.5598     96.3340    181.2965   1.0923130223e+02   2.4805952240e+01    0.5698235    0.3419112  41.06  0.002902096    1.609    0.378
        21 -13.5134    247.1416    184.1763   7.8880735641e+01  -3.0907742660e+00    0.7420983    0.5293692 -17.33  0.004409395    1.293    0.226
        22 -12.5654    106.3356    192.0430   1.0853236718e+02   2.0935855472e+01    0.4082907    0.1657727  46.49  0.001736731    2.204    0.546
        23 -14.4173     11.3600    248.7670   1.3084305275e+02   2.2487470992e+01     1.187267    0.3546611  38.82  0.006602491    2.902    0.655
        24 -10.1479     65.7177    178.4270   1.1568094044e+02   2.9914250508e+01    0.1523709    0.1223505  32.19 0.0004990666    1.514    0.340
        25 -14.8774     19.6676    238.8408   1.2910741268e+02   2.3343769406e+01    0.6246177    0.4714731  54.29  0.004088875    1.326    0.246
        26 -13.2964    107.2513    155.9092   1.0264566394e+02   2.8610092369e+01     1.343359    0.4230993 -45.07  0.004078145    4.235    0.764
        27 -15.5966    115.9940    149.7019   9.9345867586e+01   2.8452862922e+01     2.674511     1.757956 -38.60   0.01036886    1.820    0.450
        28 -11.9653     62.7754    164.4347   1.1465000889e+02   3.3434611528e+01    0.4148345    0.2336631 -47.82  0.001677408    2.166    0.538
        29 -13.3437     85.4099    144.3550   1.0607269354e+02   3.4879434171e+01    0.5748379    0.4838797 -43.17  0.001637426    1.350    0.259
        30 -13.1563     56.0607    138.5961   1.1275122221e+02   4.0299860097e+01      1.15345    0.4373639 -58.56  0.004891305    2.270    0.559
        31 -13.0197     46.5590    137.4016   1.1505270063e+02   4.1687435779e+01    0.7878129    0.5060284  -3.12  0.003757274    2.949    0.661
        32 -13.9439     58.1867    116.2067   1.0843020100e+02   4.5375687238e+01     1.767611    0.8338653 -52.82  0.008004265    1.890    0.471
        33 -14.1795     67.7465    138.2110   1.0962788323e+02   3.8891714739e+01     2.002879     1.119653  76.08   0.00842627    2.598    0.615
        34 -14.4372     74.0904    135.3987   1.0747080613e+02   3.8680256535e+01     1.042156    0.6161041  52.67  0.004267825    1.818    0.450
        35 -12.6339     90.8321    142.0391   1.0426161035e+02   3.4568647302e+01    0.4276979    0.2794624  72.63  0.001972136    1.910    0.476
        36 -12.4997     64.1733    122.9744   1.0796684786e+02   4.3000258471e+01    0.4435984    0.3917437 -78.66  0.001703142    1.030    0.030
        37 -12.9367     19.8305    104.4445   1.1776103866e+02   5.1923977075e+01     1.092786    0.5678753  -2.26  0.005162242    3.417    0.707
        38 -13.9231      3.5873    103.5535   1.2238961251e+02   5.3191170018e+01     1.105979     0.362976 -70.17  0.005176556    2.212    0.548
        39 -13.3746    246.7896    235.4692   8.8141385414e+01  -9.4117036191e+00     1.158576    0.5502979  -4.68  0.005067009    3.676    0.728
        40 -13.0000     96.2834    129.5932   1.0039946879e+02   3.6598226693e+01    0.4275695    0.2915923 -12.59  0.001537192    2.685    0.628
        41 -13.4702     82.7598    119.2986   1.0198622911e+02   4.1226406732e+01    0.5651753    0.4792148   1.86  0.003082443    1.512    0.339
        42 -13.9351     88.9878    115.4060   9.9368702221e+01   4.1156657693e+01    0.8423964    0.5664925  59.18  0.003986876    1.751    0.429
        43 -14.2586    102.4581    141.5687   1.0117523012e+02   3.2736862059e+01     1.871518    0.9294606  21.66    0.0057622    4.606    0.783
        44 -12.4152    101.2478    172.0308   1.0675062899e+02   2.6025175808e+01    0.5121922    0.4695512  88.77   0.00176864    1.066    0.062
        45 -13.4335    109.3939    166.0383   1.0388557388e+02   2.5970868178e+01    0.8749657    0.6881992  40.58  0.003840019    1.291    0.225
        46 -16.7520     74.6275    231.8811   1.1921411747e+02   1.7978232946e+01     2.925301     1.621369  58.66    0.0112424    1.494    0.330
        47 -14.4405     32.3577    214.1403   1.2555658187e+02   2.6546080978e+01    0.8659391    0.6281117 -14.16  0.004868379    3.612    0.723
        48 -12.8826    106.0563     43.0371   7.2312499564e+01   5.2875695056e+01    0.7897934    0.5269469 -25.91   0.00342183    1.518    0.341
        49 -14.0159     42.6687    201.5769   1.2271476564e+02   2.7875830544e+01    0.5752255    0.4107171  51.97  0.003585409    1.289    0.224
        50 -13.3064     10.9354    206.6875   1.2895591156e+02   3.0190265890e+01    0.5059516    0.3375431  31.48  0.002566507    1.939    0.484
        51 -13.2144     61.4387    198.2791   1.1869614836e+02   2.6244457213e+01    0.5184447    0.2500985  56.07  0.002682975    1.883    0.469
        52 -11.1314    216.3159     21.8314   4.4839196809e+01   2.8290975337e+01    0.2634817    0.1546145  44.95  0.001225391    2.070    0.517
        53 -12.5158     77.8788    190.4053   1.1443409947e+02   2.5647316256e+01    0.6340399    0.5339591  -1.98  0.003813194    1.906    0.475
        54 -13.9262     76.9375    201.0048   1.1581538372e+02   2.3581956924e+01    0.7422439    0.5229908  33.70  0.004409276    1.637    0.389
