#   1 NUMBER                 Running object number                                     
#   2 MAG_AUTO               Kron-like elliptical aperture magnitude                    [mag]
#   3 X_IMAGE                Object position along x                                    [pixel]
#   4 Y_IMAGE                Object position along y                                    [pixel]
#   5 X_WORLD                Barycenter position along world x axis                     [deg]
#   6 Y_WORLD                Barycenter position along world y axis                     [deg]
#   7 A_WORLD                Profile RMS along major axis (world units)                 [deg]
#   8 B_WORLD                Profile RMS along minor axis (world units)                 [deg]
#   9 THETA_WORLD            Position angle (CCW/world-x)                               [deg]
#  10 FWHM_WORLD             FWHM assuming a gaussian core                              [deg]
#  11 ELONGATION             A_IMAGE/B_IMAGE                                           
#  12 ELLIPTICITY            1 - B_IMAGE/A_IMAGE                                       
         1 -14.4266    196.3362     15.7202   6.8656999176e+01   3.3541231480e+01      2.83538     1.590464  28.24   0.01195296    2.513    0.602
         2 -10.5437    249.0284    249.0291   1.1373781390e+02  -9.1312063249e+00    0.2412285    0.1336728  17.30  0.001525366    1.672    0.402
         3 -10.8415    142.9779    249.8565   1.3124756535e+02   6.9043363334e+00    0.2498841    0.1311315  32.00  0.001383786    2.112    0.526
         4 -10.9927    139.0000    245.9732   1.3148359169e+02   8.0493156445e+00    0.2203756    0.1416083 -35.52  0.001367863    2.379    0.580
         5 -11.4078    124.8255    250.2170   1.3431120993e+02   9.5963245037e+00    0.4426982    0.1146129  40.92  0.001852625    3.268    0.694
         6 -11.5224    109.5793    249.7621   1.3678669095e+02   1.1893379903e+01    0.4711712    0.1595196  51.64  0.002035561    2.506    0.601
         7 -11.8823     98.5292    249.8695   1.3860598523e+02   1.3444288692e+01    0.5220212    0.2516895  64.59  0.002924442    2.279    0.561
         8 -11.3449    102.1024    247.1813   1.3777942438e+02   1.3344974873e+01    0.2894453    0.1910264  72.85 0.0009541831    1.510    0.338
         9 -11.6635     81.5325    248.2736   1.4122488078e+02   1.6002646589e+01    0.3557823    0.2156918  69.82  0.001510528    1.495    0.331
        10 -11.7429     83.1094    244.1162   1.4063298522e+02   1.6438939892e+01    0.5391851    0.2439534  70.94  0.002714441    3.000    0.667
        11 -10.1534     74.2749    250.1503   1.4252761190e+02   1.6663024746e+01    0.1715532    0.1147611  46.46 0.0005635212    1.340    0.254
        12 -11.0507     66.6210    242.9766   1.4321719483e+02   1.8767731263e+01    0.2364478    0.1598421  79.65 0.0005149125    1.304    0.233
        13 -11.0665     67.3603    249.7368   1.4358818107e+02   1.7608272712e+01    0.2455786    0.1904541  74.55  0.001248961    1.140    0.123
        14 -10.0442     63.4981    250.5487   1.4424894587e+02   1.7964422660e+01    0.1816173    0.1033511  49.27 0.0006048882    1.380    0.275
        15 -14.8399      3.8367     17.4314   1.2376588677e+02   7.0549378344e+01     20.41202     1.171081 -54.41   0.03318804   22.694    0.956
        16 -13.6406     32.3790    245.7796   1.4872574059e+02   2.2339306823e+01     1.506213    0.4859141  42.47  0.008772773    2.499    0.600
        17 -13.8949     11.6680    207.0501   1.4988375998e+02   3.1099486284e+01     1.176603    0.8620959  38.11  0.009315636    1.700    0.412
        18 -10.7035     35.2022    230.1183   1.4739137239e+02   2.4616816250e+01    0.2561902    0.1508386  69.02 0.0007657689    1.312    0.238
        19  -9.5636     37.3960    226.2699   1.4679663832e+02   2.5034366214e+01    0.1869665    0.1057892 -84.15 0.0007337982    1.586    0.369
        20  -9.2279    229.5795    229.7911   1.1387872617e+02  -4.3182673195e+00    0.1390441    0.1073374 -37.62 0.0009431785    1.732    0.423
        21 -15.6123      7.8785    239.3976   1.5205565972e+02   2.5875513464e+01     7.990307    0.7863171 -70.39   0.03269233    6.262    0.840
        22 -10.7614    174.5105    222.3684   1.2223938599e+02   5.6282313539e+00    0.2305428    0.1669476  43.89 0.0008091872    1.159    0.137
        23  -8.9142    152.6953    212.9566   1.2485383334e+02   1.0738146597e+01    0.1578822    0.1449357  52.93 0.0003346436    1.097    0.089
        24 -10.4319    163.0574    249.0713   1.2779119530e+02   3.8991010168e+00    0.1809057    0.1397855  45.03  0.001307669    1.048    0.046
        25 -10.3874     33.0148    205.8482   1.4616212607e+02   2.9174648081e+01    0.2209984    0.1269149 -84.16  0.001200348    1.502    0.334
        26 -10.5143    192.9753    194.7861   1.1440747262e+02   6.3894051308e+00    0.7178082    0.3565947 -60.63  0.002111675    7.203    0.861
        27 -11.7584     70.5952    196.6799   1.3846183429e+02   2.6406897288e+01    0.4342858    0.3223374  44.42  0.001845047    1.377    0.274
        28 -11.6734     76.0029    189.4951   1.3662460566e+02   2.7071677271e+01    0.2491976    0.2105869 -58.07 0.0006297949    1.412    0.292
        29 -11.0987     84.4658    177.1707   1.3338720578e+02   2.8340257252e+01    0.2274159    0.2007744 -80.10  0.000449364    1.135    0.119
        30 -13.3781     72.1434    174.8678   1.3567681495e+02   3.0543265456e+01    0.4399056    0.2621057 -45.06    0.0016533    2.258    0.557
        31 -12.9148     47.7440    230.8938   1.4541571771e+02   2.3062001690e+01    0.3479485    0.2663884  82.86 0.0009125362    1.158    0.136
        32  -9.4219    131.6705    173.6575   1.2287658403e+02   2.1329762388e+01    0.1327561    0.1075834  -0.94 0.0007051163    1.746    0.427
        33 -11.9134     50.2358    129.8448   1.3451361239e+02   4.3048184696e+01     0.364156    0.2520889  58.50  0.001437257    1.542    0.352
        34 -12.4325     90.1248    167.7307   1.3086681765e+02   2.9443310846e+01     1.304244    0.5217769  53.47  0.005320711    2.803    0.643
        35 -13.2720     67.7310    144.8831   1.3254295051e+02   3.7544639547e+01     1.337782    0.7058928  85.43  0.005506238    3.066    0.674
        36 -12.7354     57.8093    130.5795   1.3272538740e+02   4.1990187297e+01      2.15288    0.6586867 -72.35  0.005361233    7.475    0.866
        37 -10.0320    102.4405    151.5121   1.2549273007e+02   3.0916296576e+01    0.2542669    0.2405567 -28.52 0.0007438938    1.265    0.210
        38  -9.5045    105.1797    147.2249   1.2408470998e+02   3.1374904863e+01    0.2782841    0.1850563 -38.36  0.001367479    1.830    0.454
        39 -12.0310     91.3571    151.0495   1.2798038581e+02   3.2793054999e+01    0.2561325    0.2407104 -29.53 0.0004989939    1.309    0.236
        40 -11.7171     46.3202    148.8279   1.3808463423e+02   3.9290985908e+01    0.4278606    0.1897449 -60.45  0.001863382    1.971    0.493
        41  -8.6020    192.2252    144.0203   1.0435195841e+02   1.4793408087e+01    0.1804494    0.1184394 -35.35 0.0003457667    1.550    0.355
        42  -9.3184    134.0000    143.9841   1.1677430715e+02   2.6818150660e+01    0.2363376   0.08104416 -48.13 0.0008058548    2.966    0.663
        43  -9.9272    112.1655    136.8466   1.2041545939e+02   3.2390704070e+01    0.3269129    0.2469741 -13.54  0.001105428    1.986    0.496
        44 -10.6453    100.0297    134.0426   1.2280111643e+02   3.5098543345e+01    0.2711259    0.2307256 -29.62  0.000565217    1.400    0.286
        45 -15.2632     55.7761    218.7732   1.4317520099e+02   2.4207534969e+01     5.934644     1.022406  43.56   0.01921337    3.918    0.745
        46  -9.2690    108.8552    123.8216   1.1845949024e+02   3.5801009151e+01    0.1948467     0.186171 -29.46 0.0003279442    1.134    0.118
        47 -11.0334    168.3356    113.4022   1.0188458619e+02   2.5641802593e+01    0.4023541    0.3300662 -78.90  0.001102972    1.551    0.355
