#   1 NUMBER                 Running object number                                     
#   2 MAG_AUTO               Kron-like elliptical aperture magnitude                    [mag]
#   3 X_IMAGE                Object position along x                                    [pixel]
#   4 Y_IMAGE                Object position along y                                    [pixel]
#   5 X_WORLD                Barycenter position along world x axis                     [deg]
#   6 Y_WORLD                Barycenter position along world y axis                     [deg]
#   7 A_WORLD                Profile RMS along major axis (world units)                 [deg]
#   8 B_WORLD                Profile RMS along minor axis (world units)                 [deg]
#   9 THETA_WORLD            Position angle (CCW/world-x)                               [deg]
#  10 FWHM_WORLD             FWHM assuming a gaussian core                              [deg]
#  11 ELONGATION             A_IMAGE/B_IMAGE                                           
#  12 ELLIPTICITY            1 - B_IMAGE/A_IMAGE                                       
         1 -12.8006    178.5047     24.1238   6.1554732806e+01   3.7496634111e+01    0.6599295    0.5583703  46.75  0.003885992    1.334    0.250
         2  -9.8833     20.5963    209.3465   1.4146990244e+02   2.8477042619e+01    0.2139139   0.09744459 -85.91  0.000872723    2.012    0.503
         3 -12.4456    165.5468    213.2419   1.0987826501e+02   5.8648339894e+00    0.4938485    0.3322401 -54.94  0.002017032    1.835    0.455
         4 -14.7926    186.4510    237.8931   1.0954513006e+02  -1.6760722019e+00     2.456404     2.004768  52.17   0.01548736    1.510    0.338
         5 -19.8871     64.2740    161.5665   1.2616243717e+02   3.4446286440e+01     19.26313     3.984875 -63.59   0.05545447    4.442    0.775
         6  99.0000     12.4775    204.9851   1.4287224632e+02   3.0223489020e+01    0.3101565    0.1666621 -81.44  0.001717986    1.602    0.376
         7 -11.6409     16.0175    202.9702   1.4201018852e+02   3.0318110192e+01    0.3990875    0.2752856  71.92  0.001469247    1.157    0.135
         8 -10.9143     14.3587    198.8095   1.4209138661e+02   3.1390666078e+01    0.2970255    0.1631178 -60.53  0.001227131    1.954    0.488
         9 -10.4614    123.6988    201.9251   1.1739120590e+02   1.5483795514e+01    0.4467513     0.246131 -75.95  0.001265587    3.057    0.673
        10 -13.5186    192.8340    195.0733   1.0089874198e+02   4.2677075603e+00      1.00472    0.5521055 -62.57  0.003550636    4.170    0.760
        11  -9.7554    113.4438    194.9370   1.1871991786e+02   1.8772088164e+01    0.2843707    0.2084018 -50.93  0.001423426    1.503    0.335
        12 -10.1288    102.5219    235.8053   1.2659927633e+02   1.2188911937e+01    0.2265548    0.1491151  43.70  0.001284717    1.256    0.204
        13  -9.6416    148.4512    190.4420   1.0972156877e+02   1.3367507426e+01    0.2444023    0.1429815 -63.13  0.001020539    2.302    0.566
        14 -10.8352    202.3425    188.5222   9.7715957815e+01   3.7191546891e+00    0.2383956    0.1255202 -39.10 0.0009112631    1.922    0.480
        15 -12.3942    112.9845    227.4927   1.2337851522e+02   1.2128473626e+01    0.2268439    0.2137363 -56.79  0.000328282    1.269    0.212
        16 -11.4035    184.7720    182.0103   1.0004971584e+02   8.1346140347e+00    0.3119699    0.2521086 -58.88  0.001040366    1.516    0.340
        17 -11.1628    151.0496    180.0533   1.0718777511e+02   1.5031118466e+01    0.3507523    0.2771285  88.22  0.001032198    1.693    0.409
        18 -11.4932    185.9693    174.0115   9.8181434723e+01   9.4261148961e+00    0.3551228    0.3057849  19.54  0.001048339    1.134    0.118
        19 -12.1804     18.9241    167.5580   1.3867202127e+02   3.8130541979e+01    0.3555261    0.3234949  11.88  0.002428209    1.460    0.315
        20 -10.5764    110.1836    222.3083   1.2332981651e+02   1.3596131451e+01    0.3047948    0.1762879 -58.95  0.001050479    1.958    0.489
        21 -11.8241    120.2113    163.7166   1.1160058470e+02   2.4634612366e+01     0.401135    0.3050093  76.04 0.0008266846    1.577    0.366
        22 -11.9043    120.3351    156.7874   1.1019186259e+02   2.6234701808e+01    0.3208549    0.2800569 -36.96 0.0008364382    1.253    0.202
        23 -13.3250    133.6838    145.1745   1.0422655231e+02   2.6265838342e+01     1.407621    0.3887677 -55.13  0.003362646    5.391    0.815
        24 -11.5377      2.4832    138.0090   1.4027790263e+02   4.6466141865e+01    0.4916559    0.1989249 -74.51  0.002181963    1.958    0.489
        25 -12.3814      5.2281    143.6106   1.4004475825e+02   4.4944570099e+01    0.8453209    0.4380743 -74.09  0.003858407    1.550    0.355
        26 -13.0056    135.1517    124.6154   9.8961582106e+01   3.0656114968e+01     1.141967    0.2371708 -49.23  0.002621808    5.429    0.816
        27 -14.2200    187.0523    213.0721   1.0534917579e+02   2.1756490513e+00     0.862206    0.6068037 -19.43  0.003476819    1.601    0.375
        28  -9.3469    231.3117    113.6836   7.6334238239e+01   1.1429899765e+01    0.1418604    0.1032567 -65.92 0.0007033814    1.640    0.390
        29  -9.6343    154.0504    213.7282   1.1243741165e+02   7.7911888599e+00    0.1914051    0.1576061  33.96 0.0002529633    1.072    0.067
        30 -10.8787     19.5811     89.3169   1.2820458240e+02   5.6974799287e+01    0.4184401    0.2653683 -39.13  0.002348257    1.506    0.336
        31 -11.4840     26.1313     72.6484   1.2196032586e+02   6.0256517324e+01    0.8231687      0.50783  76.63  0.003716386    3.079    0.675
        32 -10.5102     20.9860     66.7611   1.2264335008e+02   6.1954757158e+01    0.3357117     0.171447  14.87  0.001712745    2.253    0.556
        33 -10.6661     11.5779     74.9545   1.2845677861e+02   6.0788172176e+01    0.6590462    0.4017603  18.13  0.003665507    1.904    0.475
        34  -9.9672      2.2693     70.8188   1.3142822649e+02   6.2203406589e+01    0.3520851    0.1951754 -77.83  0.001506087    1.853    0.460
        35 -11.8623    150.8549     65.3911   7.8388910509e+01   3.8787950160e+01     0.371229    0.3429957  77.30 0.0009036964    1.061    0.057
        36 -10.4956      2.7655     62.9754   1.2963033247e+02   6.3892437002e+01    0.3204839    0.1567094 -41.63  0.001550769    1.700    0.412
        37 -13.1854    162.3644     52.2691   7.2139959011e+01   3.7931340551e+01    0.9818721    0.7421311 -26.69  0.004848811    1.491    0.329
        38 -11.8986    167.1434     43.0459   6.8590693709e+01   3.8019539405e+01    0.4659143    0.3959067  60.78  0.001296135    1.129    0.114
        39 -13.5972     41.9344    242.6197   1.3942617856e+02   1.9265560441e+01    0.3266035    0.2462842 -55.43   0.00170761    1.828    0.453
