#   1 NUMBER                 Running object number                                     
#   2 MAG_AUTO               Kron-like elliptical aperture magnitude                    [mag]
#   3 X_IMAGE                Object position along x                                    [pixel]
#   4 Y_IMAGE                Object position along y                                    [pixel]
#   5 X_WORLD                Barycenter position along world x axis                     [deg]
#   6 Y_WORLD                Barycenter position along world y axis                     [deg]
#   7 A_WORLD                Profile RMS along major axis (world units)                 [deg]
#   8 B_WORLD                Profile RMS along minor axis (world units)                 [deg]
#   9 THETA_WORLD            Position angle (CCW/world-x)                               [deg]
#  10 FWHM_WORLD             FWHM assuming a gaussian core                              [deg]
#  11 ELONGATION             A_IMAGE/B_IMAGE                                           
#  12 ELLIPTICITY            1 - B_IMAGE/A_IMAGE                                       
         1 -11.9699     54.7822     19.8811   5.3729934664e+01   6.7715466556e+01     0.464456    0.2992997  15.25 0.0006526383    1.861    0.463
         2 -10.2297     39.9323     17.5326   6.0220832593e+01   7.0465758083e+01     0.711315    0.3101591  42.77  0.003150499    2.641    0.621
         3 -11.4660     24.9934     24.7550   7.2616846796e+01   7.0939265678e+01     1.281632    0.6771453 -27.87  0.005061737    2.084    0.520
         4 -11.0692     33.3620     26.1438   6.8261574720e+01   6.9749413884e+01    0.5989165    0.4582108  24.65  0.002551262    1.379    0.275
         5 -11.3050      6.7447     21.9657   8.3270366850e+01   7.2938994398e+01     1.085828     0.181959 -51.92  0.004143658    3.274    0.695
         6 -12.0548      4.4632      3.5718   7.7033848072e+01   7.6749357777e+01    0.4596384    0.2969738  -2.14  0.002920109    1.575    0.365
         7 -12.3449     45.7909      8.8856   5.2070290760e+01   7.0929886211e+01    0.8477666    0.4200482 -15.93  0.001852491    3.030    0.670
         8 -10.2747     39.6950      9.0541   5.5527640122e+01   7.1880523816e+01     0.248831    0.1891316   8.61 0.0003586648    1.261    0.207
         9 -11.3114     31.6345     10.7276   6.1351121233e+01   7.2760896854e+01    0.7010846    0.3630743 -22.66  0.002932959    2.346    0.574
        10 -11.3329     58.6921     13.1824   4.8253138647e+01   6.8020168643e+01    0.9068068    0.4249719  57.28  0.003618975    3.086    0.676
        11 -10.0812     63.0203      9.9606   4.4539583416e+01   6.7618052555e+01    0.2049074    0.1754645  -4.56 0.0003587919    1.099    0.090
        12 -11.3807     35.6399      2.5973   5.3836291791e+01   7.3457042852e+01    0.5268108    0.3071347  32.34  0.002894313    1.682    0.406
        13 -10.3219     41.0040      2.7031   5.0794223365e+01   7.2593512750e+01    0.2436066    0.1877525   3.88 0.0003458839    1.189    0.159
        14 -12.2088    132.3270     29.7125   3.3063346971e+01   4.8539925519e+01    0.9099292    0.4933994 -16.47 0.0001278249    2.295    0.564
        15 -11.7668      8.6419     13.1415   7.8416109087e+01   7.4622564894e+01     1.399701    0.3863299 -61.65  0.005209565    3.914    0.744
        16 -11.1276    221.1812     15.4527   1.6632460627e+01   2.6994659947e+01    0.2880839    0.2122124 -42.47 0.0003601274    1.221    0.181
        17 -10.1833    222.9205     22.3398   1.8250736174e+01   2.5842574327e+01    0.4412466    0.2566246 -43.68  0.001446691    1.513    0.339
        18 -10.4813    247.0030     13.9413   1.4401625360e+01   2.1342897063e+01    0.3888502    0.2505772  74.21  0.001521964    1.639    0.390
        19 -12.4685    239.4650     19.3680   1.6196360949e+01   2.2404150997e+01    0.8521317    0.5433756 -35.18  0.001941556    1.381    0.276
        20 -11.5284    229.1694     16.8282   1.6351327710e+01   2.4989138770e+01    0.7586067    0.4469457  45.36  0.003797741    2.184    0.542
        21 -10.2732     80.8625     18.8314   4.2391300564e+01   6.2692303085e+01    0.5190195    0.2338526 -40.35  0.001750433    2.434    0.589
        22 -10.0477     75.5067     20.7715   4.5317582733e+01   6.3578967934e+01    0.4432446    0.2972325 -40.15  0.002241052    1.605    0.377
        23  -9.9374     76.4637     13.0070   4.0973760386e+01   6.4417632005e+01    0.3405539    0.2376281 -10.16 0.0008891286    1.534    0.348
        24  -9.1660     76.3519      9.3030   3.9044497108e+01   6.4891193241e+01    0.2495864    0.1745212  16.71 0.0007377259    1.532    0.347
        25 -10.0832     77.8663      5.7663   3.6617580120e+01   6.4949968210e+01    0.3299001    0.2558682 -56.89  0.001187648    1.700    0.412
        26 -12.1949    111.1907     19.0836   3.3571726698e+01   5.5386052351e+01    0.5746899    0.3946632  -2.37   0.00270926    1.748    0.428
        27 -11.4817    192.9641     18.0377   1.9935534506e+01   3.3700059069e+01    0.3869896    0.3152324  59.28  0.001928119    1.271    0.213
        28 -10.6439    151.7375      4.4687   2.0426903198e+01   4.6038602986e+01    0.7444431    0.2914938  57.73  0.002689838    2.224    0.550
        29 -11.7282    152.0532     18.4147   2.5300476216e+01   4.4569425095e+01    0.6478931    0.3958581  49.75  0.002785616    1.614    0.380
        30 -10.1224    149.4958     11.9101   2.3381329383e+01   4.5945128163e+01      0.26452    0.2157886  77.49 0.0005464198    1.143    0.125
        31 -11.1400    154.6559     10.0952   2.2006988317e+01   4.4720429544e+01    0.6392872      0.33313  89.41  0.001620826    2.222    0.550
        32 -11.4761    100.7996     16.1672   3.4943508953e+01   5.8344937460e+01    0.5820488    0.4131186  36.05  0.001265475    1.391    0.281
        33  -9.9123    136.4860     16.8856   2.7347953686e+01   4.8957852461e+01    0.4465622    0.3023686  23.34  0.002064113    1.810    0.448
        34 -11.2340     24.6418     13.1463   6.7213310942e+01   7.3188129940e+01    0.4732523    0.2911923  -0.71  0.002070462    1.916    0.478
        35 -10.1717     16.1227      2.8545   6.7338391313e+01   7.5903063983e+01    0.3795446    0.2878833  43.56   0.00233062    1.844    0.458
        36 -11.1535     16.1005     13.5535   7.3256085434e+01   7.3961226844e+01     0.234951     0.224908  -2.91 0.0003009034    1.267    0.211
        37 -10.8649     17.7836      8.4193   6.9366202664e+01   7.4758468018e+01    0.3497594    0.2953342 -77.74  0.001076563    1.814    0.449
        38 -10.3126    131.2617     13.4801   2.6979550716e+01   5.0726852529e+01    0.4129369    0.2694703 -71.49 0.0006912237    1.901    0.474
        39 -12.5023    128.5090      4.4034   2.3855092605e+01   5.2339944007e+01    0.8577377    0.3759784  60.35   0.00353215    1.937    0.484
        40 -11.3452    123.1206     11.2743   2.7638647482e+01   5.3128918890e+01    0.5580164    0.2957635  56.68  0.001396045    1.664    0.399
        41  -9.5648     86.8102     15.5960   3.8787213377e+01   6.1766045601e+01    0.3064187    0.2511436 -50.32 0.0008038431    1.449    0.310
        42  -9.9457    176.2935     12.3142   2.0037721792e+01   3.8667166330e+01    0.3121119    0.2203832 -84.17 0.0002862813    1.407    0.289
        43 -11.2533    208.5829     10.4487   1.6350017718e+01   3.0552236229e+01    0.4006259    0.3091347  60.27 0.0007500727    1.380    0.275
        44 -11.1904    217.5191      4.8147   1.4180400656e+01   2.8940087846e+01    0.6823176    0.4378913  10.78  0.002799432    2.412    0.585
        45 -10.6342    211.5944      4.7052   1.4583563104e+01   3.0380078740e+01    0.4831303    0.2896858  77.47  0.002447549    1.602    0.376
        46 -10.3682    204.2327      3.6491   1.4862805553e+01   3.2294008418e+01     0.344119    0.2653709  45.80  0.001090655    1.527    0.345
        47 -11.3830    197.9172      2.8998   1.5160222296e+01   3.3950365073e+01     1.498337    0.3923021  70.50  0.005260636    3.281    0.695
        48 -12.5293    186.9986     13.7025   1.9290338883e+01   3.5703014451e+01    0.3859663    0.2966326 -26.91 0.0004123935    1.370    0.270
        49 -10.1164    143.8854     11.8406   2.4210659302e+01   4.7478065051e+01    0.4507761     0.324031 -59.94  0.002235065    1.511    0.338
        50  -9.1505    138.5274      8.4200   2.3779321873e+01   4.9266072229e+01    0.3409259    0.1925361 -88.99  0.001422721    2.099    0.524
        51 -11.8826    182.4857     11.4565   1.9092991804e+01   3.7114168364e+01    0.4531479    0.3218368 -14.21   0.00128041    1.634    0.388
        52 -10.3979     90.8740      9.6949   3.4624257759e+01   6.1495232340e+01    0.5965253    0.3609708  25.06  0.002743822    1.902    0.474
        53 -11.0913     89.1750      3.2327   3.1847320528e+01   6.2563870221e+01    0.4856124    0.3197174  69.80  0.001015893    1.620    0.383
        54 -10.3217    249.4347      7.1854   1.2707748115e+01   2.1513463861e+01    0.3243592    0.1665997 -32.48  0.001741789    1.676    0.403
        55 -10.0848    116.4603      8.4763   2.7801162063e+01   5.5165673277e+01    0.2783787    0.2216436 -75.96 0.0007026319    1.437    0.304
        56 -10.7707    103.3121      8.1458   3.0588782505e+01   5.8589713132e+01    0.3656657    0.2406691  62.30  0.001040937    1.418    0.295
        57 -10.9045    168.1275      5.7879   1.8886857139e+01   4.1483685585e+01    0.5354069    0.3539829   9.35    0.0012018    2.037    0.509
        58  -9.9880    225.2664      7.1603   1.4230158750e+01   2.6883449268e+01    0.2465646    0.1911181 -65.97  0.001013442    1.136    0.119
        59  -9.4431     22.8027      7.8887   6.5511822267e+01   7.4322952203e+01    0.1792504    0.1457098 -18.40 0.0002942593    1.016    0.016
        60  -9.6109     26.3919      6.5101   6.2237871470e+01   7.4131599380e+01    0.2035831    0.1831397  -9.67  0.000660994    1.170    0.145
        61  -9.9923    237.0681      6.2727   1.3238056279e+01   2.4286010142e+01    0.2567248    0.1527292 -41.52  0.001201943    1.418    0.295
        62  -9.4113    178.7554      5.9845   1.7811635296e+01   3.8630139472e+01    0.2287289    0.2099326 -58.52 0.0005754859    1.088    0.081
        63 -10.2332    176.0178      2.9509   1.7151091587e+01   3.9634541703e+01    0.2617044    0.2081978 -57.01 0.0004557478    1.212    0.175
        64 -10.6238    105.8415      2.4662   2.7376506959e+01   5.8479830965e+01    0.4994752     0.292695  85.95  0.002182952    2.150    0.535
        65  -9.1678    229.9297      1.9723   1.2648006936e+01   2.6313341449e+01    0.1955045    0.1564488 -57.23 0.0004582937    1.053    0.050
        66  -9.1057    119.8882      1.9902   2.4369490884e+01   5.4851665194e+01    0.2629095    0.2012281  89.58  0.001377023    1.378    0.275
        67  -8.9838     64.2867      1.9772   3.9364842073e+01   6.8312786349e+01    0.1899501    0.1609946  -5.53  0.001155019    1.146    0.127
        68  -9.0645     24.0082      2.2783   6.1202351478e+01   7.5112095123e+01    0.1643772       0.1381  -7.29 0.0003934472    1.058    0.055
        69 -10.3789    238.4748      1.4957   1.2026563695e+01   2.4439385636e+01    0.3904828    0.1125995  76.73   0.00153287    3.452    0.710
        70  -8.8216    114.8762      1.1483   2.4939786086e+01   5.6246054416e+01    0.1923991    0.0930405  69.51 0.0004288107    1.930    0.482
        71  -9.8341     28.5181    109.5764   9.1576883817e+01   5.0804146861e+01    0.2356418    0.2015795 -67.31 0.0005979769    1.116    0.104
        72 -11.2030    120.6563    107.8142   6.1641509083e+01   3.7014796465e+01    0.4398206    0.2574599  40.86  0.000811675    1.694    0.410
        73 -10.5362     46.6913    109.0030   8.5327905503e+01   4.9100165353e+01    0.3995275    0.2511224  45.91  0.001136977    1.625    0.384
        74 -11.5857     45.7749    102.7410   8.4560963122e+01   5.0754217096e+01    0.4117532    0.2767222 -68.60 0.0008920725    1.370    0.270
        75  -9.9713    131.1793    105.0042   5.8044637807e+01   3.5336829266e+01    0.4324506    0.3195846 -12.36  0.001888543    1.867    0.464
        76 -10.6993     21.3430    104.9272   9.3429435408e+01   5.2545198808e+01    0.2670216    0.2130849  88.33 0.0006064654    1.124    0.111
        77 -11.7873     81.0472    103.1316   7.2544727487e+01   4.5685763472e+01    0.2864117    0.2713434  78.58 0.0003063277    1.041    0.040
        78  -8.1219     54.3114    105.3560   8.2068027281e+01   4.9081909527e+01    0.1457202    0.1009288 -35.70 0.0007043749    1.734    0.423
        79  -9.7604     91.5670    104.2146   6.9404047943e+01   4.3590253820e+01     0.365552     0.264522  -5.34  0.001179843    2.143    0.533
        80  -9.4742      1.8112    104.6315   1.0001422687e+02   5.3886593613e+01    0.1949635    0.1350891 -73.07 0.0004035466    1.223    0.182
        81  -9.5769    114.4122    104.2056   6.2477456979e+01   3.9120758902e+01    0.2665266    0.2140893  41.91 0.0004723357    1.227    0.185
        82 -10.5996    107.4542    102.9977   6.4204429620e+01   4.0818311556e+01    0.4198882    0.2815114  27.04  0.001663626    1.789    0.441
        83  -9.7381    127.2118    101.9807   5.8301779109e+01   3.6853899299e+01    0.2428712    0.2152858  47.41  0.000313888    1.101    0.092
        84  -8.6007     61.5134    102.4930   7.9011305239e+01   4.8832423753e+01    0.1411844    0.1322804 -79.24 0.0008105031    1.001    0.001
        85  -9.0777     71.8117     97.3367   7.4297063122e+01   4.8572221990e+01    0.2238526    0.2082673 -69.03  0.000587364    1.033    0.032
        86  -8.8313    138.5988    107.5532   5.6785801360e+01   3.3152346733e+01    0.1519415    0.1489396  70.24            0    1.038    0.036
        87 -10.5294    117.2108     97.0623   5.9752985124e+01   4.0094147891e+01    0.4757567    0.2867011 -50.34 0.0009016322    1.721    0.419
        88 -11.3768    101.6946     97.8953   6.4611859109e+01   4.3124728794e+01    0.3469843    0.2773358  50.33 0.0003031513    1.255    0.203
        89 -10.8645    108.0430     96.1193   6.2191758177e+01   4.2238347395e+01    0.4901551    0.2804145  51.23 0.0006170244    1.832    0.454
        90  -9.3076     63.8870     98.5002   7.7327411543e+01   4.9474900095e+01     0.207424    0.1406861  34.77 0.0006763066    1.536    0.349
        91  -9.2074     16.9810     98.0320   9.4107597395e+01   5.4560652801e+01    0.1878078    0.1572516 -78.30  0.001195975    1.023    0.023
        92  -8.2217    127.2726     97.6304   5.7096072848e+01   3.7760245418e+01    0.1591254    0.1235884 -80.88 0.0007001213    1.674    0.403
        93  -8.6490     86.7935     97.0349   6.9152833340e+01   4.6134916727e+01    0.2019484    0.1177318 -54.40 0.0008051704    1.701    0.412
        94  -9.1904     26.9918     97.0184   9.0354525024e+01   5.4034344380e+01    0.1941757    0.1674035  85.69 0.0004459452    1.097    0.089
        95  -9.5012     33.7617     83.9473   8.5545861123e+01   5.6646468578e+01    0.2241937    0.1701119 -66.55 0.0005382766    1.173    0.147
        96 -10.4254     35.1932     95.0154   8.7022707356e+01   5.3783013681e+01    0.3556457    0.2248994  61.67  0.001348252    1.802    0.445
        97 -12.4197     34.9259     89.4738   8.6137342874e+01   5.5176545283e+01    0.3980618    0.2777553  76.10  0.000419217    1.614    0.380
        98  -9.5767      9.9491     94.0908   9.6173952977e+01   5.5980787181e+01      0.39395    0.1849837  83.66  0.001348015    2.286    0.563
        99  -8.5566    164.4510     95.6066   4.7445171896e+01   2.9478610972e+01    0.1514787    0.1468516  39.66 7.891445e-05    1.019    0.018
       100  -9.9968     17.2047     92.5937   9.3326660198e+01   5.5878290724e+01    0.2673791      0.17393  89.19  0.001144938    1.471    0.320
       101  -8.1790      5.6411     94.2935   9.7750381157e+01   5.6176153256e+01    0.1292894   0.07875339  60.98 0.0007030579    1.697    0.411
       102  -8.8528     45.4527     93.5636   8.2951835688e+01   5.3058114336e+01    0.1363016    0.1240956 -83.43 0.0002096831    1.048    0.046
       103  -8.9431    137.4955     92.4270   5.2925378985e+01   3.6489067331e+01    0.2186468    0.1545114 -28.92 3.592592e-05    1.592    0.372
       104  -9.9888    139.2072     88.0077   5.1208951331e+01   3.6964237212e+01     0.375187    0.2095062 -49.45  0.001409476    1.948    0.487
       105 -10.0361    113.1214     91.5985   5.9408537925e+01   4.2159706846e+01    0.3311141    0.2589394  23.65  0.001102598    1.483    0.326
       106 -10.1179    119.0255     87.0517   5.6364463127e+01   4.1833228693e+01    0.5050141    0.3371504  74.39   0.00200078    2.235    0.553
       107 -10.9945    126.8810     89.2851   5.4824919171e+01   3.9588260071e+01    0.4224039    0.2787455 -42.51 0.0006747403    1.545    0.353
       108 -10.7413    121.5819     82.7977   5.4356869498e+01   4.2136461583e+01      0.53982    0.3610054  73.37 0.0007435656    2.146    0.534
       109  -8.4516     66.5578     91.5797   7.4773076583e+01   5.0762367227e+01    0.1433128    0.1329587  86.79  0.000122539    1.094    0.086
       110  -9.6936     48.1889     89.3647   8.1060944864e+01   5.3771025617e+01    0.3044331    0.2144845  79.10 0.0007286661    1.705    0.413
       111  -9.0408     41.0117     91.4293   8.4194695879e+01   5.4074544498e+01    0.1835266    0.1328196  30.18 0.0003195462    1.503    0.334
       112 -10.6163    101.4831     89.1841   6.2269225388e+01   4.5125568244e+01    0.4547652    0.3346615  -1.11  0.001162079    2.015    0.504
       113 -12.1312    105.2262     81.1325   5.8704037542e+01   4.6106491676e+01    0.6969488    0.5465289 -21.78  0.001126589    1.504    0.335
       114  -9.3441     54.7052     88.7139   7.8458074376e+01   5.3116710422e+01    0.3005123    0.1828295  23.10  0.001217716    1.914    0.478
       115 -11.7861     12.8522     88.0583   9.4363695375e+01   5.7274667289e+01    0.2199824    0.2067735  86.03  0.001509012    1.122    0.109
       116  -9.1631    110.0069     87.9863   5.9292534879e+01   4.3610064671e+01    0.2413312    0.1912229  86.43 0.0007036939    1.613    0.380
       117 -10.7665     84.2476     86.6728   6.7241146883e+01   4.9003646122e+01    0.4128565    0.3115174  80.81  0.001607188    1.746    0.427
       118 -10.0548     75.7622     83.4468   6.9331078466e+01   5.1229836963e+01    0.3271815    0.2733867 -35.36  0.000903633    1.248    0.199
       119  -9.3974    157.0314     85.8707   4.6338990216e+01   3.3061314018e+01    0.2895476    0.2056305  -3.33 0.0007843632    2.003    0.501
       120  -9.1701    131.2029     86.3332   5.2788795036e+01   3.9187831850e+01    0.2150808    0.1936481  55.85  0.000568971    1.104    0.094
       121 -10.1460     58.9926     85.2296   7.6010851639e+01   5.3383131460e+01    0.4072599    0.2239026  30.84  0.001575968    1.955    0.489
       122 -11.0200    111.9808     82.9423   5.7192384401e+01   4.4261132514e+01    0.3256018    0.2623045  37.10 -0.001877172    1.265    0.210
       123  -9.9299    187.8640     82.9863   3.9325785319e+01   2.6039907139e+01    0.2278427    0.2142066  87.67  0.000252529    1.129    0.114
       124 -10.4750     87.0743     80.5654   6.4502020043e+01   4.9875056653e+01    0.4481311    0.3645107 -74.80            0    1.421    0.296
       125  -9.6647     23.0531     81.0722   8.9306209353e+01   5.8273212161e+01    0.4482242    0.1755274 -77.59  0.001780853    2.698    0.629
       126  -9.3867      1.8056     83.1124   9.8004633283e+01   5.9067703472e+01    0.1804631    0.1474146  77.15 0.0006413963    1.193    0.162
       127 -11.1059     53.8665     80.8577   7.6899610852e+01   5.5126511580e+01    0.2776922    0.2253634 -76.13 0.0002628991    1.270    0.213
       128 -10.5782     62.8472     70.5485   7.0504689818e+01   5.6282948480e+01    0.3615271    0.2903373  47.05  0.001048901    1.346    0.257
       129 -10.2665     56.2327     73.4448   7.4002105488e+01   5.6569140829e+01     0.549993     0.297836 -31.73  0.002229412    2.508    0.601
       130  -9.6927     42.4562     67.7887   7.8231833785e+01   5.9638723379e+01    0.2488198    0.2328913 -58.62 0.0007125459    1.044    0.042
       131 -10.9298     43.8786     60.5189   7.5554420664e+01   6.1165161725e+01     0.501724    0.2495768 -55.81  0.001168634    1.810    0.447
       132 -11.6058     46.0444     72.9973   7.8069395864e+01   5.7986115610e+01    0.5377986    0.3959897  61.27 0.0005868278    1.641    0.390
       133 -11.8026     51.2545     70.0894   7.5113109076e+01   5.8023778395e+01    0.3477183    0.2536983 -68.70 0.0004609724    1.425    0.298
       134  -9.6886     44.3225     80.6437   8.0632511447e+01   5.6348523522e+01    0.5348545    0.1349853  31.40  0.001652665    3.823    0.738
       135 -10.2308     79.9480     80.9773   6.7126509516e+01   5.1079321361e+01    0.2263866     0.220201 -40.97 0.0003188655    1.020    0.019
       136 -10.1585    150.7266     78.9933   4.5737556834e+01   3.5875051136e+01    0.2954972    0.2283033 -38.05  0.000310874    1.312    0.238
       137 -10.8071    151.9189     73.4922   4.3788014398e+01   3.6568357801e+01    0.4093508    0.2926317 -42.88 0.0009520561    1.420    0.296
       138  -9.0901    187.2085     76.1819   3.7561511163e+01   2.7296590272e+01    0.2008136    0.1693034 -67.19 0.0003335716    1.301    0.232
       139 -10.2793    123.6651     76.0574   5.1672271689e+01   4.3009901622e+01    0.4454062    0.2200635  52.73  0.001666619    2.062    0.515
       140  -9.5891     61.0560     76.0589   7.2807507334e+01   5.5270544352e+01    0.2015078    0.1930362 -87.52            0    1.090    0.083
       141 -11.4755      8.0359     74.0694   9.4376329906e+01   6.0944938664e+01     0.292524    0.2150248 -30.68 0.0006419334    1.503    0.335
       142 -10.3922     77.3812     71.2027   6.5095581642e+01   5.3740407037e+01    0.7824914    0.3628962 -60.92  0.002123133    2.935    0.659
       143 -10.3635     83.1241     72.5297   6.3417144107e+01   5.2402393119e+01    0.5079896    0.3866839 -77.47  0.001357968    1.702    0.413
       144 -10.2089     74.0743     67.5905   6.5182566713e+01   5.5120882455e+01    0.3125256    0.2620796  16.73  0.000579773    1.306    0.234
       145 -10.4600     78.2115     66.6510   6.3306904745e+01   5.4591298614e+01     0.383824     0.271324  60.34 0.0009484781    1.766    0.434
       146 -10.3072     80.7807     62.9638   6.1095238765e+01   5.4905864893e+01     0.674602    0.2557224 -43.67  0.002370689    2.610    0.617
       147 -10.7930    136.4057     71.5498   4.6863979440e+01   4.0795070772e+01    0.5467238    0.3819742 -41.33    0.0024653    1.455    0.313
       148  -9.6173    142.7930     70.9862   4.5119127406e+01   3.9308839824e+01    0.4145268    0.2692147 -48.26  0.001517533    1.637    0.389
       149 -10.4475    139.6330     69.2732   4.5333445020e+01   4.0409218329e+01     0.470574     0.300355   1.10  0.001427877    2.872    0.652
       150  -9.9531     23.7629     72.4869   8.7425967874e+01   6.0305284198e+01    0.3037858    0.1997744 -88.86            0    1.650    0.394
       151  -8.9990    183.0304     72.0332   3.7127116996e+01   2.8987172919e+01    0.2240462    0.1745914  23.04 -0.001877172    1.537    0.350
       152 -11.1191    157.8753     68.4429   4.0928620704e+01   3.5934530793e+01    0.5780561    0.3213634 -46.62  0.001973376    1.907    0.476
       153 -10.1641    161.2672     64.9170   3.9133527012e+01   3.5654190109e+01    0.3036121    0.2743212  22.91 0.0005785236    1.201    0.167
       154 -10.6050    153.0619     64.8825   4.0840464024e+01   3.7768467998e+01    0.4582263    0.2820908 -30.88  0.001941686    1.704    0.413
       155  -9.7490    147.1214     61.7944   4.1152794418e+01   3.9815298509e+01    0.2315234    0.2213267  28.86 0.0003864046    1.079    0.073
       156 -12.6099    150.9080     57.5302   3.8929665362e+01   3.9540175454e+01    0.4302385    0.3737612 -78.40 0.0005771609    1.252    0.201
       157  -9.4688    120.3243     72.5749   5.1485943169e+01   4.4481164113e+01    0.2805563    0.1514748  53.33 0.0004750401    1.892    0.472
       158 -11.1682     30.5860     71.1707   8.4208090899e+01   6.0046093020e+01    0.2406994    0.2105444  -3.89 0.0001187359    1.289    0.224
       159 -10.8981     17.2678     70.6421   8.9882895597e+01   6.1222561362e+01    0.2613125    0.2285074 -64.30 0.0007196192    1.023    0.022
       160 -10.1225    104.3293     70.5340   5.5596780311e+01   4.8521636245e+01    0.7859488    0.3204311  33.22  0.002259101    4.009    0.751
       161 -11.7152    111.0457     65.8851   5.1954046702e+01   4.7945393772e+01    0.2766875    0.2595336 -37.81 0.0002756703    1.080    0.074
       162  -9.9271    107.8204     58.3700   5.0285155516e+01   5.0124696712e+01    0.5778485    0.4631086 -89.29  0.001752026    1.628    0.386
       163  -9.9678    164.7784     69.9222   3.9957401949e+01   3.3926977664e+01    0.3019902    0.2324584  63.94  0.001440925    1.327    0.246
       164 -10.3495     34.9402     67.8386   8.1529721863e+01   6.0429310104e+01    0.3377097    0.2419839  79.93  0.001780508    1.750    0.429
       165  -9.9116     34.7692     61.7783   8.0054372208e+01   6.1876730932e+01    0.4359227    0.2016317 -42.35  0.001686371    2.156    0.536
       166  -8.4248    213.3361     68.7598   3.1452944486e+01   2.2183642615e+01    0.1389076    0.1043283 -69.96  0.000252457    1.547    0.353
       167  -9.2540     10.5128     67.3176   9.2265719970e+01   6.2434448279e+01    0.3179871     0.171642  71.54  0.001523099    2.375    0.579
       168 -10.8650    180.9281     63.9321   3.5152747815e+01   3.0783064972e+01    0.4255205    0.2761935 -28.46 0.0006545138    1.583    0.368
       169  -9.9398    177.0447     63.9970   3.5853673874e+01   3.1758929672e+01    0.2204366    0.2173784  81.63 0.0003325952    1.018    0.018
       170 -10.3345    147.6511     66.3800   4.2516948226e+01   3.8896324889e+01    0.4682398    0.2736314  74.37  0.001734423    2.412    0.585
       171 -10.2234    194.7793     65.7219   3.3381074498e+01   2.7055648113e+01    0.3034976    0.2207844 -38.62 0.0002563392    1.317    0.241
       172  -9.6895    191.1288     61.4643   3.2755880550e+01   2.8590664631e+01    0.4994515    0.1944952  53.91  0.001830074    2.506    0.601
       173  -8.8428    121.7078     66.6654   4.9138091582e+01   4.5291970486e+01    0.1583356    0.1232824   9.64  0.000259755    1.638    0.389
       174  -9.0715     58.6567     66.2765   7.0911391211e+01   5.7883611424e+01    0.4734887    0.2260231  21.42  0.001777673    3.003    0.667
       175 -10.1736     61.2732     60.6684   6.8023780323e+01   5.8749373428e+01    0.4757596    0.2306551 -59.54  0.001504321    2.370    0.578
       176 -10.1380     57.8274     57.8317   6.8533360651e+01   5.9896218332e+01    0.3077634    0.2610857  72.92 0.0008655275    1.478    0.323
       177 -10.3047     61.8996     57.2823   6.6607014586e+01   5.9392247326e+01    0.2627507    0.2487068  -5.54 0.0002563188    1.057    0.054
       178  -9.3376     88.7760     65.1858   5.8971623064e+01   5.2886652261e+01    0.2240709    0.2027135 -86.87  0.001040082    1.274    0.215
       179  -9.2707     25.9223     65.4717   8.4993862169e+01   6.1815608649e+01    0.1755518     0.128825  22.81  0.001008923    1.534    0.348
       180  -9.8877      1.9293     63.5350   9.5505453996e+01   6.3747616833e+01    0.2681007      0.14925 -73.57 0.0007794155    1.483    0.326
       181  -9.4655      4.1802     59.6178   9.3869835688e+01   6.4579590011e+01    0.3324392    0.1327168 -64.56   0.00159614    1.911    0.477
       182  -8.7420    172.4870     63.0359   3.6391373672e+01   3.3073729773e+01     0.224171    0.1508711 -29.56 0.0006071623    1.527    0.345
       183  -9.9080    166.7740     62.4778   3.7294094415e+01   3.4630905586e+01     0.387542    0.2599383  15.21 0.0006719956    2.231    0.552
       184  -8.9408    115.3099     61.4836   4.9168552981e+01   4.7790643386e+01    0.2619695     0.141843 -37.90 0.0007738399    1.886    0.470
       185 -10.0562    218.8451     59.5487   2.8320408291e+01   2.2195842327e+01    0.2894244    0.2042341 -37.43 0.0008227417    1.294    0.227
       186  -8.3507    200.3332     61.2362   3.1292841869e+01   2.6353678929e+01    0.1413408    0.1073963  33.84 0.0002130045    1.536    0.349
       187 -10.8337     22.0502     60.8935   8.5735552807e+01   6.3210186902e+01    0.2266528    0.1890793 -64.11  0.001420426    1.069    0.064
       188 -10.0480     10.9350     52.4493   8.9247803336e+01   6.5926583839e+01    0.2569802    0.1889292  87.35  0.001116953    1.494    0.331
       189 -10.7557     19.9915     55.3758   8.5427264358e+01   6.4659811033e+01    0.3035544    0.1865966 -51.97 0.0008640326    1.375    0.273
       190 -11.0086     17.9234     50.4373   8.5241815478e+01   6.5953250651e+01    0.6720683    0.3872427   3.55   0.00352046    2.113    0.527
       191 -11.1073    161.2212     56.5504   3.6513173143e+01   3.7006304619e+01    0.4133547     0.315423 -42.77 0.0003675115    1.320    0.243
       192  -9.8398    161.9643     52.3036   3.5014347539e+01   3.7463129716e+01    0.2724763    0.2555769  70.16 0.0003539787    1.040    0.039
       193  -9.1809    120.9412     58.6783   4.6592906824e+01   4.6950000349e+01    0.2498763    0.2101574 -18.75 0.0004967782    1.294    0.227
       194 -10.3438     91.9833     57.2321   5.5018183168e+01   5.3840625597e+01    0.3611383    0.3152179 -44.64   0.00121691    1.163    0.140
       195 -10.2006     95.4650     56.4854   5.3555772978e+01   5.3244351068e+01    0.4417476    0.2948353 -55.38  0.001971157    1.754    0.430
       196  -9.4858    196.9974     57.9778   3.0876908747e+01   2.7639446834e+01    0.2201889    0.1890024 -57.78 0.0003297862    1.154    0.133
       197 -10.5262    199.9993     54.7578   2.9544962214e+01   2.7352530336e+01    0.3467231    0.3264247  60.01  0.001788259    1.110    0.099
       198 -10.5588    185.0058     57.1978   3.2499612799e+01   3.0760525866e+01     0.473728    0.2321135 -39.54 0.0003593076    1.951    0.487
       199 -10.0063    178.9839     52.4034   3.2052853959e+01   3.3003330882e+01    0.4477615    0.4078319 -11.72  0.002423602    1.193    0.162
       200  -9.5364    174.2904     53.3685   3.3132163240e+01   3.4079628306e+01    0.3564014    0.2543281 -17.21  0.001080498    1.607    0.378
       201  -9.4344    172.1774     50.1208   3.2492167505e+01   3.5104936251e+01    0.2770078    0.2058041  86.58  0.001308463    1.501    0.334
       202  -9.9841    223.0999     55.6998   2.6806158124e+01   2.1736555055e+01    0.3133483    0.2236106  -5.00  0.001412716    1.754    0.430
       203  -9.9575      8.6300     56.9352   9.1286084993e+01   6.5000130576e+01    0.2540554    0.1811359   1.83 0.0005483499    1.649    0.394
       204  -8.8999    213.2295     56.4382   2.8220804851e+01   2.3928439234e+01    0.1928506    0.1341239  86.83 0.0009442831    1.684    0.406
       205 -12.4230    137.7951     46.9051   3.8185808507e+01   4.4644141695e+01    0.6588994    0.5618261  75.35  0.003345228    1.212    0.175
       206 -12.3447    140.4797     38.1174   3.4458060571e+01   4.5233325775e+01    0.5192177    0.3974528 -86.69 0.0003975153    1.513    0.339
       207 -10.5915    117.6144     51.7058   4.4992976605e+01   4.8989175977e+01    0.9326903    0.4048659  62.63  0.003047681    3.019    0.669
       208 -10.7815    128.1322     53.0900   4.2707054658e+01   4.6133647969e+01    0.7486118    0.4068705 -33.90  0.001901121    1.900    0.474
       209 -11.9107    122.5179     49.9766   4.3031250902e+01   4.8066667140e+01    0.4202813    0.3171554 -47.69  0.001866654    1.412    0.292
       210  -8.9481     77.9540     55.6567   5.9544498264e+01   5.6955005326e+01    0.1938099    0.1828381 -13.36 0.0006854829    1.030    0.029
       211  -9.3764     68.6341     54.3074   6.2738717780e+01   5.8914377388e+01     0.355483    0.1335803 -50.77  0.001264474    2.760    0.638
       212  -8.9165    107.1914    246.5114   8.6746675475e+01   1.2334357823e+01    0.1535702    0.1288731  83.89 0.0009224406    1.452    0.311
       213 -11.4041     76.9194    219.6302   9.0422036560e+01   2.0842178764e+01    0.5433216    0.3578498  16.01  0.001652302    2.207    0.547
       214 -12.0202     31.6381     51.9393   7.8765595535e+01   6.4457667057e+01    0.9114999     0.389498 -46.39  0.004043322    2.075    0.518
       215 -10.3879     25.8657     48.4583   8.0636672894e+01   6.5781821603e+01    0.3730682    0.2264247   7.80  0.001817749    1.967    0.492
       216 -11.1146     34.2022     38.2819   7.2845212416e+01   6.7189731251e+01    0.5806839     0.404259  23.02  0.003290299    1.543    0.352
       217 -10.7847     31.4504     32.4653   7.2073569205e+01   6.8703645408e+01     0.287181    0.2366133 -75.15 0.0006903976    1.547    0.354
       218 -10.7873     69.2611    217.2839   9.1824964426e+01   2.2266052729e+01    0.3412414    0.2216376  68.60 0.0005092458    1.476    0.322
       219 -10.3883     73.7239    214.0277   9.0614166645e+01   2.2280591160e+01    0.3021979    0.2581099  57.18  0.001581307    1.111    0.100
       220  -9.8376     55.9948    216.8429   9.4554362647e+01   2.4002505948e+01    0.1766252    0.1375444  78.29 0.0007527808    1.233    0.189
       221  -9.0236     91.3293    214.5763   8.6925621380e+01   1.9773340210e+01    0.2382273   0.09025802  40.56 0.0007729786    2.019    0.505
       222  -9.4296    123.9575    205.9987   7.8956232748e+01   1.6391011684e+01    0.1789995    0.1463716  41.70  0.001133773    1.004    0.004
       223  -8.4938    133.0274    199.0018   7.6055590542e+01   1.6144805590e+01     0.145466    0.1222181  39.25            0    1.012    0.012
       224  -8.6996    223.0341    188.0509   5.6467354757e+01   2.8963994196e+00    0.1403039    0.1125265   5.57 0.0009180955    1.041    0.039
       225  -9.1387      1.2169    184.9646   1.0449317395e+02   3.5834124260e+01    0.2661321   0.07619562 -83.83  0.001199305    3.128    0.680
       226  -9.9831    100.9896    176.0104   8.0146422168e+01   2.5757794600e+01    0.1927099    0.1668839  52.19  0.001154866    1.003    0.003
       227  -8.6180      6.7826    168.6149   1.0256398241e+02   3.8820281971e+01    0.1573244   0.08544286  43.92 0.0006367393    1.582    0.368
       228 -10.5672      4.7731    163.0074   1.0277978809e+02   4.0194070004e+01    0.3401272    0.1335495  32.45 0.0004398759    2.323    0.570
       229 -10.1652     81.6687     53.2890   5.7249893546e+01   5.6715876136e+01    0.5754822    0.2354903 -37.24  0.002063849    2.648    0.622
       230  -9.4949     85.3851     48.7728   5.4127846876e+01   5.6840880750e+01    0.3208315    0.2499424 -15.36  0.001020245    1.438    0.304
       231  -9.3722     85.4704     45.4670   5.2771995258e+01   5.7437092841e+01    0.2792845     0.210601  39.41 0.0005836046    1.315    0.239
       232 -11.4637     90.8517     43.8280   5.0200144987e+01   5.6585071602e+01    0.4522619    0.3551215 -11.17 0.0003155185    1.430    0.301
       233 -10.8331     89.1401     38.1714   4.8426688256e+01   5.7932572389e+01    0.4211956    0.3305702  -0.54 0.0002612945    1.453    0.312
       234  -9.5449    205.9715     52.7088   2.8164730025e+01   2.6173392764e+01    0.1988041    0.1787871  75.51 0.0004829294    1.141    0.123
       235  -8.9656     44.4939     53.5377   7.3085413888e+01   6.2669126182e+01    0.1778606    0.1582912 -39.30 -2.607112e-05    1.016    0.016
       236  -9.0135     45.4582     49.2908   7.1185178264e+01   6.3481288851e+01    0.3390802    0.1377392 -47.95  0.001399815    2.193    0.544
       237 -12.6348      2.1688     51.1532   9.3390949292e+01   6.6646821854e+01    0.3610773    0.1825231 -49.73 0.0007034603    1.648    0.393
       238  -8.4248     40.5138     52.5190   7.4634381886e+01   6.3375360800e+01    0.1338525    0.1209164 -42.07 -3.658106e-05    1.018    0.017
       239 -11.6972    233.2585     48.3282   2.3815322875e+01   2.0403382319e+01    0.2909904    0.2483106 -73.67 0.0002414101    1.189    0.159
       240 -10.7089    211.9012     49.5664   2.6556813109e+01   2.5164633409e+01    0.3480912    0.2427257  89.43 0.0008890548    1.632    0.387
       241  -9.9150    201.4696     49.8838   2.7985848644e+01   2.7658509890e+01    0.2739372    0.2303335  80.34 0.0009889104    1.218    0.179
       242  -8.9644    147.0177     49.7055   3.7141594345e+01   4.1794100808e+01    0.2219047    0.1986491  68.09 0.0006988958    1.096    0.088
       243  -9.1973    103.9617     49.2133   4.8053095574e+01   5.2684084095e+01    0.2841834    0.2093102 -57.65   0.00132213    1.624    0.384
       244 -10.0631    193.4600     47.3771   2.8375437623e+01   2.9999569185e+01    0.6431488    0.2325768 -43.10  0.002287638    2.670    0.625
       245  -8.5612    158.0000     47.9474   3.4350679362e+01   3.9158986242e+01    0.2420746   0.08734563 -30.35 0.0004968246    2.848    0.649
       246  -9.3036     62.9615     47.8972   6.2698893761e+01   6.1193528716e+01    0.2520815    0.1924505 -43.65  0.001341028    1.258    0.205
       247 -12.3134    163.5278     42.6552   3.1612690415e+01   3.8449549606e+01    0.4232243    0.3440964  89.77  0.002131252    1.295    0.228
       248  -9.5596    159.8788     37.8951   3.0682346332e+01   4.0075177098e+01    0.4767522    0.2065837  45.77  0.001360219    2.532    0.605
       249  -9.2219    180.5505     44.7825   2.9500137266e+01   3.3668084080e+01    0.2786097    0.2019642  65.24 0.0009290394    1.358    0.264
       250  -9.9537    108.8553     44.0950   4.4584721279e+01   5.2401205217e+01    0.4975266    0.2853959  69.27  0.001912806    2.401    0.583
       251  -9.4625     78.6799     44.3241   5.4838920151e+01   5.9027114472e+01    0.2778795    0.2299116  89.30 0.0008498641    1.683    0.406
       252  -8.9731     73.5262     45.1037   5.7181030504e+01   5.9874446585e+01    0.2298236    0.1977466  10.77 0.0009887479    1.196    0.164
       253  -9.5180     68.8415     44.5280   5.8859944893e+01   6.0846964834e+01    0.4194104    0.2346273  24.61  0.001741001    2.337    0.572
       254 -10.2256     75.4009     40.0818   5.4336847165e+01   6.0451167241e+01    0.2446735    0.1988648  44.78 0.0003645314    1.270    0.212
       255  -9.7266     18.6144     42.5016   8.2718299994e+01   6.7708024735e+01    0.3628376     0.208782 -88.72  0.001679537    2.646    0.622
       256  -9.7441    209.9830     42.1257   2.4784579167e+01   2.6590025044e+01    0.3755795    0.1306451 -38.27  0.001415061    2.476    0.596
       257  -9.5687     48.3578     40.1946   6.6349280676e+01   6.5004833374e+01    0.5395322    0.2023205 -53.60  0.002036321    2.857    0.650
       258  -9.0767     97.6701     41.8647   4.7121860418e+01   5.5400929597e+01    0.2039109    0.1828348 -34.79 0.0005251889    1.144    0.126
       259  -9.0991     61.8226     42.0922   6.0867453760e+01   6.2541978007e+01    0.2046469    0.1905023 -72.23 0.0006737708    1.294    0.227
       260  -9.6428     27.5393     41.7367   7.7649963630e+01   6.7128879131e+01    0.2198201     0.179191 -25.25 0.0006776373    1.181    0.153
       261 -10.6115    239.9572     40.0999   2.1144330772e+01   1.9942781470e+01    0.5094653    0.3161061  16.42  0.001988853    2.787    0.641
       262 -10.1364    250.6180     37.3932   1.9570717775e+01   1.7999409038e+01    0.4082366    0.1480839 -30.61  0.001320944    2.315    0.568
       263 -11.2879    245.9372     32.1818   1.8736462292e+01   1.9582464546e+01    0.4115774    0.3212923 -43.24 0.0008736483    1.092    0.084
       264 -10.9608    229.8662     39.2268   2.1889184046e+01   2.2283934254e+01    0.4435651    0.2787858 -86.58  0.001009392    1.843    0.457
       265  -9.2273    218.2491     41.3170   2.3630978482e+01   2.4713393608e+01    0.2238655    0.1616051  67.30 0.0006523315    1.439    0.305
       266 -10.3450    114.6258     36.5706   3.9981942815e+01   5.2165236850e+01    0.7217128    0.3705117 -21.55  0.002772961    2.394    0.582
       267  -9.3459    119.9262     36.5618   3.8600869081e+01   5.0825610272e+01    0.4253726    0.2281112  62.52  0.001719243    1.916    0.478
       268  -9.8552    201.6820     37.7831   2.4578785542e+01   2.9181312111e+01    0.4536283    0.1851064 -50.91  0.001670675    2.708    0.631
       269 -10.7619      6.1966    159.0713   1.0223994878e+02   4.0949913517e+01    0.2690348    0.1619031 -71.40  0.001245773    1.592    0.372
       270 -10.7279    126.7748     34.0081   3.5945317704e+01   4.9422503094e+01    0.5113669    0.2318981 -28.23            0    2.345    0.574
       271 -10.6671    123.9687     30.6981   3.5309004719e+01   5.0608587068e+01    0.2875505    0.2641076 -88.96 0.0003653095    1.154    0.133
       272  -9.4722     59.7595     32.0677   5.7410885992e+01   6.4777044204e+01    0.2109502    0.1890159  17.06 0.0003434896    1.093    0.085
       273 -10.7951     62.7635     37.2372   5.8385485229e+01   6.3309300536e+01     0.491684    0.3544613  43.93  0.002370441    1.480    0.324
       274 -11.3945     54.2521     34.2513   6.0971142270e+01   6.5286253093e+01    0.5227934    0.2816092 -51.65  0.001328403    2.058    0.514
       275 -10.3103     47.0019     28.8953   6.2108947236e+01   6.7402627723e+01    0.4189883    0.2282724  23.63  0.001787554    2.153    0.536
       276 -10.1240     51.9253     28.0562   5.9236503601e+01   6.6798783392e+01       0.2026    0.1839981  22.32  0.000388575    1.151    0.131
       277 -10.0922    194.7221     37.1706   2.5267849214e+01   3.1013008549e+01    0.2717396    0.2078304 -59.76 0.0002980463    1.296    0.229
       278  -8.8413    110.4181     37.3328   4.1438361892e+01   5.3095917944e+01     0.269673    0.1501706 -24.10  0.001097396    2.046    0.511
       279 -10.0072     84.0853     35.9047   4.9235225934e+01   5.9404778406e+01    0.4197905    0.3328188  23.04  0.002195223    1.311    0.237
       280  -9.6019      2.0625     37.9826   9.0772285661e+01   6.9666340225e+01    0.1840073    0.1449698 -52.15 0.0003425769    1.041    0.039
       281  -9.0168     28.4204     36.7287   7.5412971992e+01   6.8126475902e+01    0.1852451    0.1013198 -45.69   0.00093865    1.574    0.365
       282  -9.0383    186.0221     35.7753   2.5999726565e+01   3.3427018716e+01    0.2057299    0.1812145  79.55 0.0004825247    1.104    0.094
       283 -10.4538    154.5177     34.8735   3.0606698420e+01   4.1916580191e+01    0.3697121    0.3284223  41.64    0.0011039    1.169    0.144
       284  -9.8481    149.1506     33.4015   3.1072289892e+01   4.3553932636e+01    0.2578434    0.2061805 -39.04 0.0003725025    1.285    0.222
       285 -10.2855     73.4107     35.2717   5.3025827055e+01   6.1695866794e+01    0.3151763    0.2581339  53.98 0.0009698725    1.372    0.271
       286  -9.5649    154.4356     44.6686   3.3942338502e+01   4.0583739823e+01    0.3650639    0.2209515  52.72  0.001582522    1.591    0.372
       287  -8.9346    106.7730     35.0093   4.1518368097e+01   5.4341870442e+01    0.1960505    0.1826444  14.23  0.001069733    1.075    0.070
       288  -9.1448    170.6697     33.9381   2.7635091672e+01   3.7705668643e+01    0.2758159    0.1905662 -51.51 0.0005065257    1.485    0.327
       289  -9.4858    170.4904     29.8620   2.6357584113e+01   3.8261588491e+01    0.2989306     0.189777  51.60  0.001375261    1.582    0.368
       290  -9.5581     79.3145     33.0529   4.9728312756e+01   6.0882529186e+01    0.2535397    0.1878336 -50.21 0.0004718138    1.561    0.359
       291  -9.4118     73.1304     30.9228   5.1155220599e+01   6.2491980229e+01    0.2318271     0.194814  37.82            0    1.177    0.151
       292  -8.9994     76.9534     30.0000   4.9226407006e+01   6.1869624165e+01    0.2707654    0.1574538  40.96 0.0009772805    1.687    0.407
       293  -9.1288     11.9303     33.1756   8.3711921842e+01   7.0228699314e+01    0.1750727    0.1643412  69.43  0.001222558    1.314    0.239
       294  -9.5588     18.6537    159.7160   9.9164541564e+01   3.9782381719e+01    0.1106187   0.08821461 -44.88 0.0003587021    1.646    0.393
       295 -11.0016     16.3845    154.8440   9.9423848875e+01   4.1075146108e+01    0.3383857     0.122976  46.71  0.001601345    2.314    0.568
       296 -11.5054    236.2674     30.0843   1.9039002405e+01   2.1923617055e+01    0.5102283    0.3442678 -24.29  0.002823515    1.492    0.330
       297 -10.6281     10.7298    112.3256   9.7761044302e+01   5.1503559420e+01    0.3351621    0.1880699 -76.18 0.0002244086    1.502    0.334
       298  -9.4291      8.1549    136.8278   1.0044030295e+02   4.5857523165e+01     0.198281    0.1610859  37.23 0.0003782666    1.343    0.255
       299 -10.8184     11.3948    145.0056   1.0009151520e+02   4.3724313473e+01    0.3305772    0.2102687  57.25 0.0008270298    1.387    0.279
       300 -10.8477     17.2233    140.9330   9.8212923672e+01   4.4205533243e+01    0.3665251    0.2173147  53.73  0.001345307    1.535    0.349
       301 -10.1580    216.7302     30.0073   2.0815778744e+01   2.6439329166e+01    0.3710195     0.241422 -57.57  0.001189355    1.492    0.330
       302  -9.3995    209.1395     30.6152   2.1756022135e+01   2.8206542638e+01    0.2417568    0.1754769 -44.57  0.001220933    1.269    0.212
       303  -9.0815    201.2726     29.7700   2.2379563497e+01   3.0259211974e+01     0.203542    0.1678591 -61.53 0.0004062761    1.144    0.126
       304  -8.7680    147.1479     29.1927   2.9951870117e+01   4.4633997490e+01    0.1949568    0.1650413 -72.95    0.0002345    1.246    0.197
       305  -8.6717    105.3164     29.2935   3.9524479625e+01   5.5532245403e+01    0.1533737    0.1078646  26.59 0.0002049997    1.601    0.376
       306 -10.3263     82.5991     27.3754   4.5903163068e+01   6.1085751217e+01    0.3992648    0.3359495 -36.59  0.002209245    1.250    0.200
       307 -10.6533      1.7621    112.9054   1.0066827613e+02   5.1910116114e+01     0.412282    0.1506501 -81.96  0.001855348    2.312    0.567
       308 -11.1721      6.9499    107.3843   9.8547926726e+01   5.2934905381e+01    0.6453068    0.2860838 -54.42  0.002106804    2.166    0.538
       309 -11.2735     12.8135    135.2456   9.9020609660e+01   4.5885568532e+01    0.4149701    0.2723625 -73.46 0.0003062435    1.367    0.268
       310 -10.8310     17.5792    133.8396   9.7546983854e+01   4.5845732353e+01    0.3205321    0.2103335  86.49  0.000263557    1.333    0.250
       311 -10.9325      3.8999    151.9449   1.0245295542e+02   4.2707167572e+01    0.3194899    0.1878061 -76.77  0.000779875    1.518    0.341
       312 -11.0817    181.3480     23.4936   2.2892053519e+01   3.6126190897e+01    0.6268598    0.3560563 -77.82  0.002007232    2.134    0.531
       313  -9.7757    177.7259     19.2962   2.2044680136e+01   3.7552708173e+01    0.2217128    0.2053816  81.40 0.0001701509    1.048    0.046
       314 -10.1422     71.8183     26.2149   4.9446042106e+01   6.3517143599e+01    0.4774965    0.1797439  42.51  0.001805218    2.627    0.619
       315 -10.6931     99.6460     23.7921   3.8735879459e+01   5.7670041702e+01     0.338018    0.2773934  55.81 0.0005393077    1.186    0.157
       316  -9.8799    211.9974     22.5551   1.9295180932e+01   2.8431230210e+01    0.2727363     0.228229 -40.16 0.0007504989    1.144    0.126
       317 -10.7981     67.1520     21.9170   4.9228602367e+01   6.5109280357e+01    0.4505703    0.3063243  20.71  0.001435622    1.632    0.387
       318  -9.8368    248.7768     22.5290   1.6265564570e+01   2.0054819866e+01     0.235497    0.1911154 -51.76 0.0005518992    1.029    0.028
       319  -9.1529    223.4560     30.9237   2.0401988002e+01   2.4743589592e+01    0.1974884    0.1701793 -89.73 0.0005059234    1.161    0.139
       320  -9.6612    164.5177     22.5050   2.4830317928e+01   4.0735128584e+01    0.3024302    0.2362118  47.97  0.001395343    1.322    0.244
       321 -10.6543      6.3162    147.9863   1.0161716514e+02   4.3424518188e+01     0.373489    0.1658348  32.93  0.001383216    2.147    0.534
       322 -10.6772    112.1522     15.1589   3.1638817794e+01   5.5590693267e+01    0.2101885    0.1899408 -58.11            0    1.227    0.185
       323  -9.8047     16.4642     22.5083   7.7046748021e+01   7.2161748885e+01    0.3212463    0.1708552 -18.39   0.00119862    2.256    0.557
       324 -10.2078      1.6215     21.3070   8.6510168575e+01   7.3335815410e+01     0.344656    0.1154478 -61.05  0.001018347    2.262    0.558
       325 -10.4421    188.4476     20.5706   2.1170213564e+01   3.4593209097e+01    0.2539205    0.2349172 -89.19 7.876551e-05    1.042    0.040
       326 -12.0423     11.8240    118.3582   9.7953897860e+01   4.9975140348e+01    0.6225386    0.4017318 -68.80  0.002780987    1.375    0.273
       327 -10.8132     15.7694    115.5805   9.6451308278e+01   5.0364868362e+01    0.2939463    0.2671505 -60.43  0.001106068    1.207    0.172
       328  -9.3577     48.9002    151.1349   9.0428668014e+01   3.8652241938e+01    0.1918315     0.176748  84.12 0.0006917765    1.114    0.103
       329  -8.9577     29.9115    150.7080   9.5544597870e+01   4.0792401406e+01    0.1724158    0.1409071  63.80 0.0003448778    1.077    0.071
       330 -11.2976     12.5131    129.0460   9.8632856199e+01   4.7371866594e+01    0.5269941    0.2389725  39.71  0.002688998    2.082    0.520
       331  -9.2219    130.3260     19.9082   2.9684597046e+01   5.0275560210e+01    0.2967365    0.2020645  86.46  0.001360682    1.681    0.405
       332  -9.4371    118.1680     19.5721   3.2133600691e+01   5.3526737221e+01    0.3511534    0.1837055  41.78 0.0005713078    1.973    0.493
       333  -9.6504    202.0916     18.1797   1.9051737042e+01   3.1362370208e+01    0.2439654     0.227548 -79.16  0.001485338    1.060    0.057
       334  -8.8276    159.7239     21.9861   2.5361123604e+01   4.2090149716e+01    0.1922723    0.1874654 -71.86 0.0004128487    1.065    0.061
       335  -9.8702     23.8994    148.1092   9.6948918850e+01   4.1959298989e+01     0.184721    0.1543217  78.75 0.0003538475    1.021    0.021
       336  -8.6066     93.4320     17.4859   3.7654991613e+01   5.9975911288e+01    0.1429348    0.1303214  29.27 5.124976e-05    1.019    0.019
       337  -9.8004     29.6726    146.5717   9.5244529932e+01   4.1777308685e+01    0.2694175    0.1557747  49.97 0.0007910143    1.576    0.366
       338  -9.3821     45.6570    145.8613   9.0733618214e+01   4.0263888077e+01    0.2382043    0.1619826 -75.58 0.0005825012    1.385    0.278
       339  -9.6371     44.2333    141.5078   9.0638427960e+01   4.1455726233e+01    0.2248964    0.1896034 -80.78 0.0005363449    1.121    0.108
       340 -10.8312      2.9933    141.6585   1.0214214596e+02   4.5101121623e+01    0.4228437    0.2541327  75.64  0.002534976    1.405    0.288
       341 -11.3000     28.7418    138.0067   9.4708220526e+01   4.3884344670e+01    0.3928609    0.3368859  64.07  0.002564419    1.092    0.085
       342 -10.9134     27.9416    131.4902   9.4295470546e+01   4.5515732909e+01    0.5583876    0.2807652  61.12  0.002678435    2.049    0.512
       343  -9.1521     71.8492    138.1352   8.2199686571e+01   3.8710539496e+01    0.2099201    0.1674927  67.09 0.0003005497    1.218    0.179
       344  -9.9988    125.8684     14.8384   2.8551388574e+01   5.2027063987e+01    0.2800688    0.2088502 -38.00 0.0008613478    1.427    0.299
       345  -8.5031    184.7067    134.3056   5.2836421100e+01   1.7971971092e+01    0.1360776    0.1169034 -82.07 0.0002056221    1.579    0.367
       346 -10.6166      4.2709    131.7292   1.0120166652e+02   4.7311965098e+01    0.3136458     0.263964  39.25  0.001595407    1.313    0.238
       347  -9.0182     83.9232     13.0183   3.8428259478e+01   6.2745512928e+01    0.2419698    0.1660998  52.46 0.0006875578    1.377    0.274
       348 -11.8655     98.9734    126.1028   7.2101227515e+01   3.7132995463e+01    0.2668895    0.2515617  63.99 0.0003003533    1.008    0.008
       349 -10.4568     48.3258    126.5854   8.7507970993e+01   4.4585931512e+01    0.4225405    0.2014994  54.68  0.001810327    2.302    0.566
       350 -11.2418     30.5550    125.6384   9.2876879458e+01   4.6686787669e+01    0.5642666    0.2588754  37.12  0.002694547    2.098    0.523
       351 -11.1086     23.5886    124.9029   9.4937085658e+01   4.7488229053e+01     0.410322    0.2198276  83.06  0.001347047    1.879    0.468
       352 -10.2975     20.8793    118.6900   9.5140983267e+01   4.9217981534e+01    0.2201854    0.1954283 -79.85  0.001451829    1.094    0.086
       353  -9.6874     69.1526    126.1571   8.1017591390e+01   4.1972501626e+01    0.2305208    0.1557368  67.41 0.0002946922    1.650    0.394
       354  -8.5499      1.1924    126.0875   1.0173102925e+02   4.8825560178e+01    0.1511942   0.07771787 -80.49            0    1.617    0.382
       355  -9.4257     59.0274    125.0632   8.3959139954e+01   4.3631793413e+01     0.200304    0.1869325  85.16  0.001203472    1.040    0.038
       356  -9.8947     37.9471    125.1352   9.0531011061e+01   4.6081182624e+01       0.2037    0.1631678  68.97  0.001208155    1.171    0.146
       357  -8.6359     74.7734    124.6290   7.9023393144e+01   4.1509591823e+01    0.2053532    0.1225768  45.98 0.0009397886    1.641    0.391
       358  -8.8716    136.1296    121.8017   6.0979524863e+01   3.0724506339e+01    0.2016534     0.174365  10.38            0    1.313    0.239
       359 -10.3919     39.7199    119.6407   8.9248173318e+01   4.7241528333e+01    0.3467765    0.2526499  45.05  0.001960029    1.373    0.272
       360  -8.3365      1.4418     11.5213   8.3104128606e+01   7.5371013408e+01    0.1211244   0.08941553 -39.40 5.429489e-05    1.075    0.070
       361  -9.6398    230.5777    124.8711   4.2465107480e+01   1.0321731668e+01    0.2322678    0.2247077 -59.38  0.001196881    1.290    0.225
       362 -11.1591     98.7563    117.5389   7.0314346423e+01   3.9160198377e+01    0.2995496    0.2634399  51.88 0.0004528447    1.106    0.096
       363  -8.9302     98.5687    113.5414   6.9460301685e+01   4.0124053376e+01    0.2215793    0.2125936 -65.10 7.610118e-05    1.057    0.054
       364 -11.4617     46.7770    116.3607   8.6486200265e+01   4.7273387183e+01    0.3560335     0.236219 -60.44 0.0001846703    1.420    0.296
       365 -10.1161     72.1560    117.3462   7.8465347408e+01   4.3666694515e+01    0.3488997    0.2279152  49.02 0.0007600706    1.541    0.351
       366  -9.2201    206.6138     26.2011   2.0815038663e+01   2.9342341286e+01     0.258934    0.1183739 -31.96  0.001110506    2.013    0.503
       367  -9.1267     67.1620    117.6102   8.0105014347e+01   4.4335540062e+01    0.2589076     0.160922 -52.22 0.0005560743    1.616    0.381
       368 -10.1257     57.7439    117.8204   8.3165145775e+01   4.5571596453e+01    0.3129815    0.2325708  48.57   0.00152494    1.338    0.253
       369  -9.2395     30.7993    117.8770   9.1882667098e+01   4.8557483382e+01    0.2488021    0.1323294  54.48   0.00081313    1.949    0.487
       370  -9.1529     41.7931    115.8001   8.8031156289e+01   4.7965910287e+01    0.1859525    0.1393155  71.37 0.0003865495    1.334    0.250
       371  -9.0299     75.4648    113.9984   7.6744874481e+01   4.3971880822e+01    0.2266978     0.189478  74.51  0.000346441    1.240    0.194
       372  -9.5119     71.7999    112.8555   7.7691882095e+01   4.4811338308e+01    0.2426834    0.2028029   9.25  0.001153941    1.464    0.317
       373  -8.8443     84.1861    113.1685   7.3803051053e+01   4.2759279507e+01    0.1972366    0.1624484  67.74  0.000294085    1.275    0.215
       374 -10.7999     62.2638    111.7775   8.0601005950e+01   4.6450698804e+01     0.359743    0.2839411 -53.88  0.001098039    1.263    0.208
       375 -10.6575     21.4292    110.6711   9.4084725788e+01   5.1129974987e+01    0.3062503    0.2301949 -78.73  0.001190035    1.152    0.132
       376  -9.2227     34.6113    111.1809   8.9746163893e+01   4.9841991701e+01    0.2082148    0.1579439 -27.72 0.0005554956    1.665    0.399
       377 -10.1106     34.7156    105.4321   8.8872570209e+01   5.1252371716e+01    0.5553023    0.2268987 -83.48  0.001850221    3.112    0.679
