#   1 NUMBER                 Running object number                                     
#   2 MAG_AUTO               Kron-like elliptical aperture magnitude                    [mag]
#   3 X_IMAGE                Object position along x                                    [pixel]
#   4 Y_IMAGE                Object position along y                                    [pixel]
#   5 X_WORLD                Barycenter position along world x axis                     [deg]
#   6 Y_WORLD                Barycenter position along world y axis                     [deg]
#   7 A_WORLD                Profile RMS along major axis (world units)                 [deg]
#   8 B_WORLD                Profile RMS along minor axis (world units)                 [deg]
#   9 THETA_WORLD            Position angle (CCW/world-x)                               [deg]
#  10 FWHM_WORLD             FWHM assuming a gaussian core                              [deg]
#  11 ELONGATION             A_IMAGE/B_IMAGE                                           
#  12 ELLIPTICITY            1 - B_IMAGE/A_IMAGE                                       
         1 -12.1711    185.8173     20.1709   2.8974753069e+02   6.4882379803e+00   0.01826941   0.01029007 -76.29  0.001645808    2.182    0.542
         2 -11.5198    199.8377     13.8979   2.8953834247e+02   6.4804995728e+00   0.02335789  0.009969964 -77.98  0.001641655    3.666    0.727
         3  99.0000    195.8296     10.9612   2.8957233153e+02   6.5375949792e+00   0.02708016  0.005284148 -58.29  0.001681981    4.216    0.763
         4 -10.2830    177.3770      9.1802   2.8979294358e+02   6.6642117099e+00  0.006710104  0.004806204  -0.62 0.0006667779    1.568    0.362
         5 -10.5327     38.5123      2.5102   2.9149297092e+02   7.5353070668e+00  0.006822381   0.00640019   9.17 0.0008101382    1.041    0.039
         6 -12.9638     56.0638    184.5389   2.9225982241e+02   5.3191407931e+00   0.04044538   0.02811228  38.58  0.003459265    1.367    0.269
         7  99.0000    145.8282     32.9878   2.9031671221e+02   6.5687705814e+00    0.3539446    0.3172832  47.81   0.04220105    1.125    0.111
         8 -11.3188    133.0000    143.0216   2.9107499886e+02   5.3634237990e+00   0.03488118  0.009866034 -71.95  0.001856516    6.180    0.838
         9 -10.9108    144.0975    145.8649   2.9095197856e+02   5.2669272323e+00   0.01120936  0.008970561  51.21  0.001241199    1.293    0.227
        10  -9.9340    101.4673    135.5203   2.9142786043e+02   5.6307304418e+00  0.006814901  0.006411979  12.23 8.598313e-05    1.032    0.031
        11 -13.7973     68.4818    145.0235   2.9189116215e+02   5.7082253332e+00    0.1553639   0.05204396  46.63  0.008261365    3.687    0.729
        12 -12.1828    131.4373     96.6013   2.9084248910e+02   5.9120770554e+00   0.01575734   0.01449098 -55.91 0.0006320416    1.150    0.130
        13 -11.4947    139.0508    104.1552   2.9078848605e+02   5.7807305585e+00   0.01585688   0.01090284 -22.61 0.0008364112    1.734    0.423
        14 -12.9781    144.1350    100.5282   2.9070531771e+02   5.7938076932e+00   0.02725947   0.01887657  34.76  0.001460725    1.345    0.257
        15 -11.8098    135.7808    129.6755   2.9096788165e+02   5.5027263822e+00   0.02340082  0.009895123 -73.88  0.001749841    3.151    0.683
        16 -12.5099    134.8309    120.8123   2.9093162179e+02   5.6112116648e+00    0.0379051   0.01261669 -73.09  0.002197512    4.697    0.787
        17 -13.4742    134.5674    108.0915   2.9086583215e+02   5.7606105796e+00   0.05723226   0.01500044 -67.44  0.003477566    4.636    0.784
        18 -14.0950    160.7635     69.6633   2.9032990310e+02   6.0572688489e+00   0.04729586   0.02306345  22.54   0.00345145    1.980    0.495
        19 -11.3355    154.2322    126.0307   2.9071787461e+02   5.4395771289e+00  0.009298723  0.009264111  34.01 0.0006520775    1.065    0.061
        20 -13.6000    120.6608    101.3073   2.9100260304e+02   5.9189704974e+00   0.04298498   0.02659971 -44.18   0.00421797    1.734    0.423
        21 -12.3535    118.0460    110.5045   2.9108518638e+02   5.8269825791e+00   0.01748554   0.01278418  13.62  0.001854441    1.372    0.271
        22 -11.3754     25.5900    110.3835   2.9223953757e+02   6.3551521636e+00   0.01545596  0.008397288  88.69  0.001229206    2.942    0.660
        23 -12.2037     22.8009    103.9687   2.9223969287e+02   6.4456035932e+00   0.03844547   0.01909903  86.83  0.002665199    4.000    0.750
        24 -12.6604    153.8071    109.7823   2.9063490365e+02   5.6308956899e+00   0.02095111   0.01149884  36.27  0.001585702    1.682    0.406
        25 -11.5116    112.1382    104.2266   2.9112487394e+02   5.9337194149e+00   0.01324245   0.01222143 -63.38  0.001256102    1.155    0.134
        26 -12.0505    121.7780    113.1813   2.9105312333e+02   5.7745379514e+00   0.01863253    0.0105877  52.70  0.001614398    2.031    0.508
        27 -11.2405    113.3201     95.1107   2.9106062085e+02   6.0329471402e+00   0.01146204  0.009110244   6.62 0.0004626271    1.289    0.224
        28 -12.5137    136.5299     89.8773   2.9074236844e+02   5.9611073081e+00   0.02046258   0.01353496  37.39  0.001118855    1.422    0.297
        29 -17.1159    238.9468    123.4128   2.8964772469e+02   4.9844279414e+00     0.558396    0.2487549 -66.67   0.04650385    2.462    0.594
        30 -14.4990    179.1554     76.2322   2.9013614351e+02   5.8755571142e+00   0.08801863   0.04981972  82.02  0.007117789    2.835    0.647
        31 -14.3072     66.3006    165.3465   2.9202833685e+02   5.4841999231e+00   0.04151975   0.03363622  43.79  0.002687279    1.217    0.178
        32 -11.8484    142.4669     79.7365   2.9061311290e+02   6.0449907781e+00   0.01296748   0.01166363 -26.98 0.0006283862    1.163    0.140
        33 -12.1342    141.4835     76.4906   2.9060774038e+02   6.0883362024e+00   0.01403073   0.01228938  -7.20 0.0008743044    1.183    0.154
        34 -10.5774    207.5332     78.5451   2.8979481379e+02   5.6858992309e+00   0.01191252  0.005439023 -50.21 0.0009613669    2.256    0.557
        35 -13.8281     45.5490    173.6729   2.9233236391e+02   5.5053899057e+00   0.05065071   0.03502946 -84.38  0.005150663    1.754    0.430
        36 -12.1343    189.0590     62.9965   2.8994051323e+02   5.9724869960e+00   0.02952082   0.02686201   2.85  0.002359219    1.096    0.088
        37  99.0000    226.2109     63.2331   2.8947854836e+02   5.7564206637e+00   0.01881271   0.01232392 -33.92  0.001854078    1.753    0.430
        38 -10.4648    204.7842     64.6837   2.8975357242e+02   5.8626470026e+00  0.009243965  0.006905468  43.89 0.0007871836    1.321    0.243
        39 -14.3193     71.4888    158.8660   2.9192852245e+02   5.5300552903e+00   0.04912426     0.033059  52.05  0.002175228    1.606    0.377
        40 -11.6303    192.4452    194.3645   2.9061246766e+02   4.4263978273e+00   0.04917572   0.02274482  80.60  0.002491675    7.563    0.868
        41 -12.6912     81.3427     55.9828   2.9124767877e+02   6.6702531823e+00   0.03360986   0.01111498  14.46  0.001862992    5.177    0.807
        42 -12.4236    200.8369     52.8753   2.8973844694e+02   6.0224100710e+00   0.02616254   0.01581844   0.45  0.002365647    2.086    0.521
        43 -10.3562    225.2880     54.7911   2.8944402280e+02   5.8597172945e+00  0.006609879  0.004658293  45.93 0.0006246754    1.428    0.300
        44 -13.3872    170.0132    153.0137   2.9066759014e+02   5.0355577388e+00   0.03013952   0.01824834  65.67  0.002718078    2.227    0.551
        45 -10.3106    215.6856     49.5490   2.8953514295e+02   5.9757417113e+00  0.006537408  0.006176616  62.09 0.0003007093    1.113    0.102
        46 -12.6751    186.4765     44.8048   2.8987361188e+02   6.1985329102e+00   0.01972191   0.01220841 -87.01  0.001824865    2.149    0.535
        47  -9.9127     34.4594     46.5159   2.9178262934e+02   7.0472546643e+00    0.0068214  0.006382762  28.37 0.0001803504    1.018    0.018
        48 -11.9080     23.6971     36.4838   2.9186286955e+02   7.2249825735e+00   0.01710275  0.008553585 -53.68  0.001530925    2.026    0.506
        49 -11.4799    208.0117     35.9818   2.8955685004e+02   6.1772942523e+00   0.01422198  0.009771034  85.94  0.001405143    1.866    0.464
        50  -9.8446    215.5630     36.6295   2.8946621245e+02   6.1263877125e+00  0.006866274  0.006087429  37.03 0.0002742989    1.082    0.076
        51 -11.0105    201.5175     34.5807   2.8963021324e+02   6.2308596769e+00   0.00797959  0.006785378 -89.08 0.0005586686    1.324    0.244
        52 -13.0236    172.5317    150.3237   2.9062158629e+02   5.0524188910e+00   0.01761129   0.01164832  16.69  0.001399018    1.509    0.337
        53 -13.7764     59.8732    170.5630   2.9213676505e+02   5.4600898585e+00   0.02573338   0.02396233 -65.37 0.0009526896    1.147    0.128
        54 -10.2592    194.7752    236.7924   2.9081347663e+02   3.9197898938e+00  0.009555199  0.007496068  51.44 0.0003343765    1.326    0.246
        55 -10.5176    169.4686    227.9744   2.9108082728e+02   4.1670003692e+00   0.01600966  0.006266485  40.48  0.001248291    2.443    0.591
        56 -15.9221     24.2889    192.4218   2.9269889173e+02   5.4080139317e+00    0.1623073   0.09994671  19.51   0.01589848    1.590    0.371
