#   1 NUMBER                 Running object number                                     
#   2 MAG_AUTO               Kron-like elliptical aperture magnitude                    [mag]
#   3 X_IMAGE                Object position along x                                    [pixel]
#   4 Y_IMAGE                Object position along y                                    [pixel]
#   5 X_WORLD                Barycenter position along world x axis                     [deg]
#   6 Y_WORLD                Barycenter position along world y axis                     [deg]
#   7 A_WORLD                Profile RMS along major axis (world units)                 [deg]
#   8 B_WORLD                Profile RMS along minor axis (world units)                 [deg]
#   9 THETA_WORLD            Position angle (CCW/world-x)                               [deg]
#  10 FWHM_WORLD             FWHM assuming a gaussian core                              [deg]
#  11 ELONGATION             A_IMAGE/B_IMAGE                                           
#  12 ELLIPTICITY            1 - B_IMAGE/A_IMAGE                                       
         1 -12.6145      5.6755    108.3217   1.2871024621e+02   5.1488034169e+01    0.5961558    0.4163752 -40.09  0.004159466    1.884    0.469
         2 -12.7547    199.6648     33.1251   6.0128812977e+01   3.1025946383e+01     1.049299     0.778553  50.10  0.005198678    1.343    0.256
         3 -12.4084      2.6596      4.8395   1.1015593186e+02   7.3336941687e+01    0.6452447    0.4179072 -40.81  0.004554489    1.177    0.150
         4 -13.4386    215.3596     14.9355   5.2650814675e+01   2.8954709452e+01     1.256776    0.9319443  25.53  0.006390797    1.549    0.354
         5 -10.3573     73.9488    243.6709   1.2556123821e+02   1.9888787576e+01    0.3111577    0.1718551 -58.38  0.002246551    2.487    0.598
         6 -10.0779    183.9898    250.3715   1.0900170700e+02   3.9270961051e+00    0.1559049   0.09830495  39.98 0.0004957418    1.121    0.108
         7 -10.9689    169.6574    248.6318   1.1102972033e+02   6.2030290240e+00    0.2930522    0.2077836   5.19 0.0007576156    2.127    0.530
         8 -10.6304    162.9654    250.1486   1.1223125970e+02   7.0115750945e+00    0.2886298    0.1134399  42.60  0.001677953    1.815    0.449
         9 -11.2858    149.9134    248.0614   1.1405630736e+02   9.1339867743e+00    0.2903255    0.2257095 -71.48  0.002342975    1.807    0.446
        10 -10.7031    143.5519    249.3513   1.1517731166e+02   9.8937437440e+00    0.2189253    0.1489946  63.07  0.001085272    1.509    0.338
        11 -11.2554    134.1964    248.8684   1.1659374274e+02   1.1274579542e+01    0.5279312    0.1582701  44.95  0.002743375    2.354    0.575
        12 -12.0033    122.9638    247.1979   1.1820256412e+02   1.3045981935e+01     0.632611    0.3253003  55.90   0.00420258    1.645    0.392
        13 -11.6248    125.0040    241.1178   1.1733754964e+02   1.3538069757e+01    0.4515913    0.2648942  51.82  0.002866903    1.285    0.222
        14 -10.6047    115.6986    249.7696   1.1955240534e+02   1.3712898747e+01    0.3598456    0.2082506  40.16   0.00172375    1.463    0.316
        15 -11.4323    109.4626    246.8745   1.2028696168e+02   1.4923735628e+01    0.3791559    0.2694145  80.26  0.002852996    1.531    0.347
        16 -11.0100     99.2960    248.0147   1.2195427517e+02   1.6115507411e+01    0.3490192    0.2196108  58.15  0.002708956    1.207    0.172
        17  -9.9451    102.7846    247.4068   1.2136796821e+02   1.5739801506e+01    0.2116313    0.1314621  54.06   0.00107404    1.159    0.137
        18  -9.4689     90.9838    250.2188   1.2338944803e+02   1.6888899992e+01    0.2033436    0.1104331  39.65  0.001210292    1.656    0.396
        19 -11.0734     86.7439    248.3493   1.2390825210e+02   1.7672296816e+01    0.3112876    0.1966964  41.09 0.0004101588    1.467    0.318
        20  -9.6477     81.4202    247.2099   1.2464571987e+02   1.8487981899e+01    0.2155361    0.1091475  86.20  0.001402874    2.506    0.601
        21 -13.5228     11.5703    208.6338   1.3351826799e+02   3.1922835216e+01     1.764677    0.9882128 -73.93   0.01368036    1.808    0.447
        22 -13.0413     39.7026    243.5087   1.3071143206e+02   2.3781168312e+01     0.880079    0.6505622  72.96  0.005447397    1.185    0.156
        23 -12.7732     28.2365    246.8232   1.3251811588e+02   2.4482373393e+01    0.9529443    0.3971273  36.03  0.006336834    2.568    0.611
        24 -13.1620      4.6278    244.7768   1.3577635071e+02   2.7006245399e+01    0.8900722    0.3719574  71.25 0.0006246225    1.764    0.433
        25 -12.6321     13.7625    239.3258   1.3431944012e+02   2.6961774259e+01    0.7307734    0.2879624  74.02  0.002025852    2.096    0.523
        26 -10.7758     51.5340    219.0300   1.2757469493e+02   2.6191356199e+01    0.2403417     0.153121  52.81  0.000329612    1.220    0.180
        27 -12.4732     29.3149    226.6556   1.3150803534e+02   2.7360737683e+01    0.2804011    0.1984915 -87.74 0.0007159089    1.387    0.279
        28 -13.6583     35.8201    218.5834   1.3009426567e+02   2.7960591199e+01    0.8453028    0.6740736 -87.94  0.007501091    1.373    0.272
        29 -10.6370    158.7695    243.9725   1.1224186097e+02   8.3189082042e+00     0.177056    0.1549814 -89.26  0.001300901    1.525    0.344
        30 -10.1721    157.6907    240.3318   1.1202512910e+02   8.9018987650e+00    0.1483327    0.1233595  72.19 0.0006796615    1.443    0.307
        31  -9.7891    132.3115    223.9410   1.1444661273e+02   1.4773902938e+01    0.1609776    0.1326108  35.28 0.0009580126    1.300    0.231
        32 -10.7194    136.0524    224.8931   1.1391739168e+02   1.4085718916e+01    0.3421095    0.1763903 -48.82  0.001275185    2.562    0.610
        33 -12.4072    135.5416    241.0106   1.1564167032e+02   1.2054428231e+01    0.5400352    0.3546047  42.46  0.002288876    1.198    0.165
        34 -11.7097    135.4788    236.1907   1.1517895984e+02   1.2676674055e+01    0.3486644    0.2663817  22.47  0.001771513    1.698    0.411
        35 -11.0530    134.6059    231.7369   1.1487325536e+02   1.3384328687e+01    0.2755155    0.2107836 -31.45  0.002017921    2.037    0.509
        36 -10.2056     97.0907    238.9055   1.2160459086e+02   1.7637030338e+01    0.1857248    0.1448314  69.08 0.0006461251    1.173    0.148
        37 -10.5307     84.7761    234.7391   1.2325359136e+02   1.9817184662e+01    0.3780824    0.1546886  58.71  0.002197862    2.207    0.547
        38 -10.6205     84.5511    229.7559   1.2291870671e+02   2.0571387146e+01    0.1928775    0.1683082 -67.07 0.0007862885    1.570    0.363
        39 -11.2151     91.9929    241.3441   1.2259619047e+02   1.7962442360e+01    0.3081262    0.2225085  65.15  0.001648737    1.141    0.124
        40 -10.6183     89.9608    238.0519   1.2267251005e+02   1.8682977299e+01    0.2345502    0.1802339  87.04  0.001166477    1.365    0.267
        41 -10.9074    166.1447    242.4374   1.1090759714e+02   7.4050924395e+00    0.3485171    0.1174487  48.70  0.001697486    2.466    0.595
        42 -11.4272    104.2310    238.3772   1.2042312028e+02   1.6761502286e+01    0.4287588     0.314098 -29.05  0.002939544    2.842    0.648
        43 -10.3337     84.8043    241.3995   1.2372716138e+02   1.8869317970e+01    0.2582884    0.1463774  56.07  0.001164084    1.295    0.228
        44 -10.9153    143.6243    240.7000   1.1431631654e+02   1.0924678302e+01     0.264725   0.09900247  43.42  0.001458248    1.957    0.489
        45 -10.9694    116.6513    238.5616   1.1844649773e+02   1.5040617195e+01    0.3110741     0.238311 -26.23  0.002142475    2.429    0.588
        46  -9.4171     54.5530    240.8269   1.2835576780e+02   2.2553443523e+01    0.1984999   0.09476186  45.97 0.0004928914    1.573    0.364
        47  -9.2198     66.9235    243.9918   1.2665547156e+02   2.0680318734e+01    0.2009192    0.1095293  38.65 0.0009757344    1.794    0.443
        48  -8.9212    172.9876    235.9974   1.0908328995e+02   7.1089014920e+00    0.1244354    0.1000431  39.77 0.0003121351    1.094    0.086
        49 -10.9353    128.7363    235.0784   1.1616707906e+02   1.3795841860e+01    0.3187994    0.1739579  63.55  0.001951634    2.055    0.513
        50 -10.9648    122.7082    233.7010   1.1701958421e+02   1.4841498521e+01    0.3280475    0.1782383  48.72  0.001216172    1.368    0.269
        51  -9.3753     55.0658    235.4465   1.2797865568e+02   2.3281182480e+01    0.1974668    0.0950334  58.38  0.001156932    1.536    0.349
        52  -9.8739    100.1511    235.1396   1.2081380541e+02   1.7756845115e+01    0.1702015    0.1116259  62.97  0.000866738    1.277    0.217
        53 -10.0173     98.3018    231.0891   1.2078142612e+02   1.8578404396e+01    0.1727293    0.1571346  79.17  0.001094046    1.335    0.251
        54  -8.5872     70.6283    235.2117   1.2553310923e+02   2.1499268684e+01    0.1094626   0.08474912 -77.24 0.0004855478    1.525    0.344
        55 -11.4220    113.3370    231.0797   1.1831396781e+02   1.6522719207e+01    0.2864591    0.2563725 -43.03  0.002272733    1.653    0.395
        56 -10.6244    108.9800    231.0352   1.1902646384e+02   1.7134361564e+01    0.1939422     0.144778 -79.66   0.00105819    1.567    0.362
        57 -11.4590    105.3341    227.6595   1.1932934929e+02   1.8117133134e+01    0.3560806    0.2434034  60.40  0.001587574    1.189    0.159
        58  -9.3918    169.7192    232.9648   1.0925523947e+02   7.9560753491e+00    0.1423703    0.1176223  41.75 0.0003848565    1.115    0.103
        59 -10.4012    156.6963    232.0472   1.1127458935e+02   1.0047816106e+01    0.1943006    0.1702616  12.08 0.0005798609    1.426    0.299
        60  -9.4228     93.4740    232.8958   1.2171313908e+02   1.8958942757e+01    0.2597234   0.07028768  50.06  0.001249893    2.825    0.646
        61  -8.5155     78.2181    233.4108   1.2420649625e+02   2.0833715246e+01    0.0797196   0.07429866 -60.62  0.000685045    1.660    0.398
        62 -10.1725     79.3480    225.9208   1.2348107751e+02   2.1803538638e+01    0.2950427     0.200495 -87.58  0.001227628    1.516    0.340
        63  -9.1657     77.2622    220.9294   1.2345087842e+02   2.2827882202e+01    0.1596291    0.1038831  64.74 0.0004806597    1.231    0.188
        64 -10.3172    117.0863    224.4914   1.1707030266e+02   1.6920769009e+01    0.2407263    0.1762233  44.67 0.0004714981    1.184    0.155
        65  -9.0803     92.3713    226.0728   1.2134409545e+02   2.0098386405e+01    0.1402517    0.1066697  68.76 0.0004317494    1.136    0.120
        66  -9.0570     64.8654    224.6971   1.2576230369e+02   2.3764441075e+01    0.1502173    0.1245131 -78.42  0.001141618    1.470    0.320
        67  -9.0144    164.4733    224.4534   1.0910059411e+02   9.7917662925e+00    0.1131331    0.0855757  44.96 7.442205e-05    1.040    0.038
        68 -10.5609     98.2875    223.3161   1.2012405478e+02   1.9715013785e+01    0.2842206     0.202293  45.15   0.00148937    1.249    0.200
        69  -8.9556     94.1186    219.1227   1.2046320208e+02   2.0909486867e+01    0.1898458    0.1195603  55.91 0.0006401468    1.227    0.185
        70  -9.0446     87.8011    223.8786   1.2192474737e+02   2.1026618459e+01    0.1515887   0.09444088  64.52 0.0008942299    1.361    0.265
        71 -10.6617    142.1268    220.7083   1.1242818591e+02   1.3735804031e+01    0.2510238    0.2230221 -56.25  0.001133627    1.452    0.311
        72  -9.9927     70.3910    218.9978   1.2445460349e+02   2.3981735599e+01    0.2848496    0.1704459 -78.58  0.002041502    1.752    0.429
        73  -9.1467    109.9637    217.9241   1.1764356878e+02   1.8895584876e+01    0.2289549    0.1325328 -86.49  0.001358543    2.424    0.587
        74  -8.7445     80.5661    216.5633   1.2255351169e+02   2.3087649207e+01    0.1084371   0.07646775  62.53            0    1.088    0.081
        75  -9.2380     88.1690    212.8427   1.2093710657e+02   2.2680366281e+01    0.1978556    0.1252169  87.34  0.001017617    1.699    0.412
        76 -10.9989     55.3980    208.1678   1.2622447815e+02   2.7510104266e+01    0.5320603    0.2590175  79.49  0.002266849    2.156    0.536
        77  -9.9525     63.2424    209.3824   1.2496478041e+02   2.6389400031e+01    0.3681555    0.2882487 -44.70  0.002741841    2.118    0.528
        78  -8.7232    130.9932    211.3075   1.1328634094e+02   1.6768445543e+01    0.1586198    0.1148935  49.37 0.0002289879    1.085    0.079
        79  -9.9372    156.2265    208.2099   1.0847132999e+02   1.3231409815e+01    0.1832415    0.1537182  50.10 0.0002545796    1.084    0.078
        80  -9.3391    112.5366    208.2922   1.1621886124e+02   1.9988689280e+01    0.1229868    0.1076744 -59.23 0.0002857201    1.455    0.313
        81  -8.4771     74.4499    208.4646   1.2295364197e+02   2.5162392339e+01    0.1090808   0.07922392  64.24 0.0001213188    1.055    0.053
        82  -9.2100     69.8920    208.1207   1.2371977160e+02   2.5787842759e+01     0.155381    0.1048696  65.00  0.001133314    1.167    0.143
        83  -9.2666    125.8629    207.1173   1.1371665273e+02   1.8176462651e+01    0.1720599    0.1292549  64.34 0.0007370567    1.241    0.194
        84  -9.7203     91.5891    204.8457   1.1960941903e+02   2.3502211861e+01    0.2732888    0.1209007  42.89  0.001534488    1.882    0.469
        85 -11.5457    178.5082    243.8696   1.0911701027e+02   5.4112999370e+00    0.3393227    0.1726937  46.28  0.002078139    1.495    0.331
        86  -9.3150    102.8610    202.6119   1.1736093163e+02   2.2288847200e+01    0.3063622     0.148609  54.33  0.001726739    1.789    0.441
        87  -9.6388     84.1226    201.6702   1.2065363172e+02   2.5030549856e+01    0.1979949    0.1810704 -42.95  0.001436791    1.640    0.390
        88  -9.7803    250.4907    200.5184   9.1604004439e+01  -1.2988359799e+00    0.1873987   0.09704557 -10.58  0.000750499    2.257    0.557
        89 -12.0510     20.0664    237.5555   1.3334434408e+02   2.6625490949e+01    0.5929905    0.2682527  71.71  0.004022503    1.732    0.423
        90 -11.7828     15.9977    218.3234   1.3321121800e+02   2.9954387344e+01    0.6703165    0.3288781  55.37  0.003901824    1.442    0.306
        91 -11.7036    102.8023    195.9900   1.1667111620e+02   2.3382922999e+01    0.2812014    0.1971505  40.29  0.000382892    1.390    0.281
        92 -11.6171     57.1719    194.3437   1.2490584869e+02   2.9652546597e+01    0.3476049    0.2734983 -51.59 0.0009140887    1.846    0.458
        93 -10.7316     27.5259    195.1067   1.3021648833e+02   3.2704598204e+01    0.3550129    0.1852877  78.44 0.0009194854    1.614    0.380
        94 -10.0806    249.8264    194.0000   9.0603826632e+01  -5.6136492828e-01    0.2251033    0.1720669   1.69  0.001582084    1.194    0.162
        95  -9.4177    112.8958    192.7212   1.1441966450e+02   2.2430653464e+01     0.394399     0.159377 -51.81  0.001945426    2.956    0.662
        96  -9.1437     21.0841    194.7888   1.3131085698e+02   3.3379008138e+01    0.1706288    0.1054597 -58.61   0.00122504    2.161    0.537
        97  -9.2883    191.3215    191.3538   9.9843161946e+01   9.5882564935e+00    0.1773575    0.1667791  14.97 0.0006747288    1.185    0.156
        98  -8.4457     72.6246    192.7696   1.2194590408e+02   2.8042444991e+01   0.09436043   0.08247465  27.50 0.0004618473    1.608    0.378
        99  -8.5603     38.5295    192.4353   1.2812140760e+02   3.2054416184e+01    0.1042986   0.07655641  70.28 0.0001142201    1.007    0.007
       100 -10.1923     15.5647    191.8585   1.3211332193e+02   3.4397478331e+01    0.1745971    0.1186979  72.49  0.000152613    1.043    0.042
       101  -8.9781     31.3774    189.8778   1.2923568006e+02   3.3238719423e+01    0.2477709   0.06427658  47.80   0.00127054    2.766    0.639
       102  -9.8963    250.2931    187.7742   8.9448977786e+01  -1.4026258379e-02    0.2325884    0.1219178  -0.54   0.00117226    2.461    0.594
       103  -8.7110     76.9726    188.4939   1.2073839110e+02   2.8232919617e+01    0.1537787   0.09350146  46.37 0.0009774548    1.429    0.300
       104 -10.8023     71.8650    186.8509   1.2154827451e+02   2.9182502283e+01    0.2517766    0.2325304   4.29   0.00115825    1.699    0.411
       105  -8.7783     40.7253    188.3600   1.2745499741e+02   3.2544239170e+01    0.1830612   0.08393332  62.34  0.001093805    1.891    0.471
       106 -11.0914      4.1839    186.4931   1.3382776168e+02   3.6323124402e+01    0.3519902    0.1873336  70.00  0.002233919    1.396    0.283
       107 -10.3589      4.6495    178.4968   1.3339566536e+02   3.7706972967e+01    0.1999812     0.194905  49.93  0.001869899    1.613    0.380
       108  -9.6223     83.4647    186.6583   1.1932591040e+02   2.7695906788e+01    0.1866858    0.1467583  70.31 0.0003148705    1.057    0.054
       109 -11.2878     64.0753    186.4358   1.2298104304e+02   3.0227121170e+01    0.2073339    0.1865148  85.83 0.0005297736    1.278    0.217
       110  -8.9886     24.0626    184.0919   1.3020381918e+02   3.4984525377e+01    0.1411617    0.1190942  85.05   0.00064739    1.276    0.216
       111  -8.5070    127.6695    182.8290   1.1035181862e+02   2.1759120418e+01    0.1486372    0.1092961 -73.97 0.0009117232    1.597    0.374
       112  -8.6138     36.3739    182.7169   1.2786782608e+02   3.4015456394e+01    0.1369298   0.08204865 -71.29 0.0009410255    1.633    0.388
       113 -12.2573     44.0338    208.1632   1.2815601282e+02   2.8781319709e+01     1.088611    0.4545655  72.50  0.006177996    2.494    0.599
       114  -9.0786     85.8267    179.8661   1.1815352571e+02   2.8589725530e+01    0.2402544    0.1259001  69.20 0.0009653643    2.237    0.553
       115  -8.8654     27.2632    179.9884   1.2937330311e+02   3.5421636652e+01    0.1424279    0.1027484  82.86 0.0002380604    1.099    0.090
       116  -8.4256     47.5110    179.5721   1.2554686395e+02   3.3402378057e+01    0.1080302   0.08362016  72.44 0.0003164664    1.023    0.023
       117  -8.4187     12.3594    178.3051   1.3200210632e+02   3.7092744892e+01   0.08772125   0.07136258 -58.36  0.000703949    1.727    0.421
       118 -10.0878     64.9517    166.9945   1.2096780805e+02   3.3729450025e+01    0.1732173    0.1399506  65.97 0.0003272974    1.073    0.068
       119 -11.3842     60.7206    172.5953   1.2237260544e+02   3.3179874354e+01    0.2905133    0.2046324 -53.21 0.0009148031    1.808    0.447
       120 -10.5722     74.8486    174.5311   1.1975283222e+02   3.1044183835e+01    0.2460869    0.1757337  60.28 0.0004244436    1.183    0.154
       121 -10.3472     19.3313    174.2007   1.3049458568e+02   3.7227848883e+01    0.3255529    0.1396558  71.94 0.0007560269    2.129    0.530
       122 -11.3394    248.2303    172.6439   8.7018563905e+01   1.9158088118e+00    0.4775716    0.2681453  24.69  0.002612118    1.695    0.410
       123  -9.7140     12.1558    173.0507   1.3176374708e+02   3.8072013218e+01    0.2357536     0.143853 -64.77  0.001704388    1.798    0.444
       124  -9.9476     46.0795    172.6361   1.2526540953e+02   3.4852282464e+01    0.1798028    0.1325619 -84.34 0.0003965595    1.219    0.179
       125 -12.1448      2.3943    169.1057   1.3336974340e+02   3.9601071887e+01    0.8777859    0.2015278 -81.76  0.001444124    3.731    0.732
       126  -9.2207     27.7384    171.4323   1.2872992160e+02   3.6960340878e+01     0.233612     0.129548 -59.58  0.001353806    2.071    0.517
       127  -8.2394     52.6356    170.7456   1.2381035210e+02   3.4477527369e+01   0.09250442   0.08737946 -28.10 0.0005415137    1.626    0.385
       128 -11.3199     82.5263    166.1938   1.1726389443e+02   3.1586472295e+01    0.4280798     0.366403  36.17  0.002780519    1.398    0.285
       129 -10.8938      7.2761    166.4179   1.3232458859e+02   3.9711510568e+01    0.2471858    0.2294711  43.99  0.001851447    1.530    0.346
       130 -10.7333     14.2984    166.9302   1.3101950961e+02   3.9029091741e+01     0.287863    0.2049258  45.67  0.001546363    1.452    0.311
       131 -11.2981     43.7472    161.7287   1.2480676080e+02   3.7196393801e+01    0.3716073    0.2005955  87.07  0.002211537    1.771    0.435
       132 -11.9336    245.1862    162.9685   8.5647681231e+01   3.5215872520e+00    0.5006677    0.2757484 -34.38  0.002674363    2.002    0.501
       133 -11.3737    240.7453    150.8669   8.3937367728e+01   5.7496534208e+00    0.5189359    0.3088859   8.10  0.002570898    2.013    0.503
       134 -10.9511    249.4312    161.7011   8.4728483994e+01   2.9187920350e+00    0.4531559     0.173196 -35.29  0.002021353    2.846    0.649
       135 -11.3803    242.2799    154.9974   8.4530408080e+01   4.9718396910e+00    0.3542678    0.2103664  43.34  0.001921301    1.575    0.365
       136  -9.2064    103.0263    176.0034   1.1429745366e+02   2.6809728037e+01    0.1763822    0.1487044  67.24  0.001207329    1.021    0.021
       137  -8.2803    166.7498    170.3523   1.0088313906e+02   1.6997138291e+01     0.120007   0.09820756  84.98 0.0006947868    1.594    0.373
       138 -11.3845     65.2132    175.5356   1.2176350334e+02   3.2081076451e+01    0.2759869    0.1806306  49.94 0.0002917346    1.346    0.257
       139  -8.1217     37.2693    162.6556   1.2620351087e+02   3.7692873627e+01    0.1151225   0.06428707  71.84 0.0004315127    1.612    0.380
       140 -12.8517      5.9799    143.9617   1.3129752653e+02   4.4143044179e+01    0.6982391    0.4566633  78.63  0.005169203    1.178    0.151
       141 -11.7142     10.9965    158.4148   1.3115963579e+02   4.0926501445e+01    0.6322048    0.2571207  77.72  0.002863239    2.319    0.569
       142 -11.6667     17.7086    140.3244   1.2853741355e+02   4.3945811885e+01    0.4054349    0.1613762  57.61  0.002179204    2.411    0.585
       143 -10.9023     12.9706    137.0686   1.2932739123e+02   4.4989501351e+01    0.1953924    0.1326221  80.78 0.0006039625    1.164    0.141
       144 -11.1208     10.3872    150.3580   1.3078779508e+02   4.2540488832e+01     0.249858    0.1894976  -0.22 0.0009474836    2.322    0.569
       145 -10.5221     83.8727    155.7280   1.1567849174e+02   3.3427880191e+01    0.3117392    0.2293527  24.98  0.001327947    1.834    0.455
       146  -8.3650    228.4425    155.4945   8.6904722185e+01   7.4707360195e+00    0.1291548    0.1120798  17.96 0.0001167416    1.052    0.050
       147 -10.2488     25.9785    154.8048   1.2789298371e+02   4.0325122540e+01    0.1937382    0.1129983  46.22 0.0008467607    1.616    0.381
       148  -9.8656     31.9722    154.7940   1.2665051303e+02   3.9760024686e+01    0.2738769    0.1332787 -54.67  0.001382548    2.451    0.592
       149 -11.2911    244.8098    121.5446   7.6934693665e+01   8.6254784423e+00    0.5536054    0.3973861  64.78  0.002390938    1.882    0.469
       150 -11.2464    249.6169    150.9071   8.2534939989e+01   4.1214631343e+00    0.4089085    0.2950721 -24.15  0.002310444    1.389    0.280
       151 -11.6697    247.7766    142.3072   8.1033591589e+01   5.4773738071e+00    0.6666981    0.4454734  35.07  0.003777492    1.371    0.271
       152 -12.3730    248.8789    132.1058   7.8664262956e+01   6.5092296565e+00     1.049204    0.7629215  -0.17  0.006006527    1.313    0.239
       153 -11.7920    247.8244    112.9643   7.4493737033e+01   9.1122110743e+00    0.5748052    0.4371077  20.31   0.00324405    1.272    0.214
       154 -10.2494     95.8686    150.3054   1.1230808192e+02   3.2748540109e+01    0.2739138    0.2194116 -62.48  0.001026077    1.292    0.226
       155  -8.6768     83.1778    149.7777   1.1503773387e+02   3.4707706140e+01    0.1478163    0.1443066 -50.64 0.0004302432    1.319    0.242
       156 -10.5822     21.9294    149.3920   1.2832651029e+02   4.1762410054e+01    0.2605596    0.1610864  54.50  0.001078816    1.457    0.313
       157 -11.8033     68.4432    144.3167   1.1761346714e+02   3.7795474170e+01    0.5907695    0.3616791  75.83  0.002392038    1.760    0.432
       158  -8.9561     60.5396    151.0118   1.2017784930e+02   3.7415718626e+01    0.2621615    0.1028506  62.71   0.00104303    3.636    0.725
       159  -9.4804    133.3022    140.7277   1.0243023742e+02   2.8315699415e+01    0.3116229    0.2127307 -60.90  0.001313722    1.634    0.388
       160 -10.6922     38.3889    141.4263   1.2406090987e+02   4.1823061531e+01    0.2999285    0.1548718  68.57 0.0006689252    1.980    0.495
       161  -9.8306    235.9666    145.9684   8.3699756949e+01   7.2511759606e+00    0.2122464    0.1377207  16.54 0.0005543746    1.620    0.383
       162  -9.4428    108.7028    135.8354   1.0707058573e+02   3.3597902942e+01    0.3031082    0.2166878 -25.07  0.001529083    2.188    0.543
       163 -11.1599     59.7119    136.2417   1.1858654990e+02   4.0551727967e+01    0.2524192    0.1956075  74.77 0.0004150214    1.162    0.140
       164 -11.9460      2.0986    123.3708   1.3077524059e+02   4.8580306034e+01    0.7038102    0.1274475 -78.61   0.00259565    4.568    0.781
       165 -10.2165     47.9508    135.7376   1.2126871644e+02   4.2002393178e+01    0.2472796    0.1649502 -70.31 0.0009239734    1.335    0.251
       166 -10.2529     44.6595    130.4007   1.2142114023e+02   4.3476902834e+01    0.2426196    0.1434508  80.49 0.0009731432    1.719    0.418
       167  -9.8426     33.5691    127.8082   1.2377237914e+02   4.5132259849e+01    0.1705996   0.09143063 -86.82 0.0009578126    1.724    0.420
       168 -11.4625     13.2530    127.8246   1.2854251784e+02   4.6863525724e+01    0.2906232    0.1635741  35.04  0.001897095    1.982    0.496
       169  -9.0977    209.9618    125.5656   8.3691760226e+01   1.5273952366e+01    0.2067411    0.1803288 -16.60 0.0006066532    1.142    0.125
       170  -9.2543     59.3666    127.8308   1.1754969409e+02   4.2369318885e+01    0.1683544   0.09697413 -58.65 0.0002294573    1.645    0.392
       171  -9.8932    249.7176    117.9163   7.5352955281e+01   8.1073516579e+00    0.2631072    0.2142715  -7.47 0.0005983422    1.102    0.093
       172  -9.4880     32.6823    115.6527   1.2261632889e+02   4.7808221586e+01    0.1855787   0.06894308 -52.72 0.0008469828    2.793    0.642
       173 -11.2298     16.3382    117.4453   1.2689260203e+02   4.8800501992e+01    0.2779164    0.1827713 -10.68   0.00167861    2.769    0.639
       174 -10.0388    231.9663    116.3327   7.7771822843e+01   1.1936945901e+01    0.1968789     0.172979  19.56 0.0006471713    1.053    0.050
       175 -12.0969      9.4778    112.8669   1.2816320086e+02   5.0270827471e+01    0.3699414     0.216505  69.47  0.001536081    1.611    0.379
       176 -10.0415    192.1523    248.8681   1.0757388925e+02   2.8847897773e+00    0.1595846    0.1157642  47.36  0.001235059    1.274    0.215
       177 -10.2725     35.1684    107.0774   1.2088055566e+02   4.9437687834e+01    0.2018045    0.1731408  59.71 0.0004177381    1.248    0.199
       178 -12.5467    247.7542    100.4528   7.1533407124e+01   1.0726037334e+01    0.8265937    0.6064264   6.63  0.004442678    1.402    0.287
       179  -8.2791     71.6960    100.2522   1.0974564098e+02   4.6783997844e+01    0.1251106   0.09311781  75.85 0.0002046931    1.505    0.336
       180 -10.5646     20.8615     92.6687   1.2290192709e+02   5.3796709289e+01    0.2555695    0.1271038 -68.87 0.0006689431    1.574    0.365
       181  -9.6841    167.8737    113.0754   8.8941212342e+01   2.6436331832e+01    0.3062241    0.2546084 -85.65  0.001024257    1.536    0.349
       182  -8.7696    203.4966    111.5389   8.1543460336e+01   1.8791746693e+01    0.1459041    0.1329654  16.03 0.0001441966    1.028    0.027
       183 -11.7100    199.6315    246.1963   1.0610673574e+02   2.0492161393e+00    0.4706614    0.1865467  47.02  0.002642941    2.071    0.517
       184 -11.0194     18.1762     26.2625   1.0999713666e+02   6.8198196531e+01    0.3364557    0.1643065  43.69  0.001761487    3.001    0.667
       185 -11.0673     59.9751    246.0840   1.2782610872e+02   2.1190724486e+01    0.3166139    0.2003143  57.36  0.001872961    1.081    0.075
