#   1 NUMBER                 Running object number                                     
#   2 MAG_AUTO               Kron-like elliptical aperture magnitude                    [mag]
#   3 X_IMAGE                Object position along x                                    [pixel]
#   4 Y_IMAGE                Object position along y                                    [pixel]
#   5 X_WORLD                Barycenter position along world x axis                     [deg]
#   6 Y_WORLD                Barycenter position along world y axis                     [deg]
#   7 A_WORLD                Profile RMS along major axis (world units)                 [deg]
#   8 B_WORLD                Profile RMS along minor axis (world units)                 [deg]
#   9 THETA_WORLD            Position angle (CCW/world-x)                               [deg]
#  10 FWHM_WORLD             FWHM assuming a gaussian core                              [deg]
#  11 ELONGATION             A_IMAGE/B_IMAGE                                           
#  12 ELLIPTICITY            1 - B_IMAGE/A_IMAGE                                       
         1 -12.6765     20.0405     17.1096   6.8592031304e+01   7.6211529730e+01    0.3754869    0.2729999  28.42  0.002121263    1.403    0.287
         2 -13.3765    122.7721      7.6137   2.2976225372e+01   5.3529636496e+01    0.6076186    0.4349976  33.76  0.001466318    1.749    0.428
         3 -12.6692     34.4942     12.3188   5.3795659699e+01   7.4793624594e+01    0.3766333    0.2852225  79.57  0.001791589    2.012    0.503
         4 -11.9477     45.2439     11.7028   4.6749795583e+01   7.2757788790e+01    0.2515908    0.2242717  -8.42  0.001016547    1.152    0.132
         5 -11.6953     27.4389     11.6663   5.8505596760e+01   7.6143051376e+01    0.2487324    0.1246006 -47.56  0.001133351    2.089    0.521
         6 -12.1989    104.4661      9.9708   2.6811944389e+01   5.8235852313e+01    0.3211543    0.2492657 -47.02  0.001702333    1.278    0.217
         7 -12.6320     98.8078      8.2262   2.7013318666e+01   5.9933050618e+01    0.4287695    0.2833168 -67.91  0.001466226    1.615    0.381
         8 -12.7845     71.3165     10.2021   3.4834661458e+01   6.6887215926e+01    0.5445524    0.2397121  69.22  0.001470627    2.403    0.584
         9 -11.9874     78.0543      8.0050   3.1568270814e+01   6.5420880087e+01    0.2195685    0.2052208  75.98 0.0005142411    1.012    0.012
        10 -13.3127     56.3986      8.5936   3.9206180239e+01   7.0691528882e+01     0.623539    0.3885526  36.31  0.003008035    1.749    0.428
        11 -12.2767      3.3876      8.3888   8.0313913216e+01   7.9785069745e+01    0.2239113    0.2213558  16.55  0.001034074    1.166    0.143
        12 -13.0350     86.4877      6.4062   2.8602822289e+01   6.3388805711e+01    0.6694397    0.3733738  22.16  0.002723514    2.669    0.625
        13 -12.0803    177.9956      8.0000   1.7891225561e+01   3.9193607206e+01    0.1710262    0.1392524 -58.23 0.0007499976    1.014    0.014
        14 -12.0482    131.4778      3.5373   2.0314386187e+01   5.1573738317e+01    0.2285582    0.2001424  56.47 0.0006236058    1.264    0.209
        15 -12.5207     38.8579      2.5213   4.3141453116e+01   7.5346842360e+01    0.3476197    0.2477885  65.09  0.001427108    1.562    0.360
        16 -12.3130    114.3722      1.9661   2.1658445301e+01   5.6319013390e+01    0.4995407    0.2067266  76.25  0.001584656    2.228    0.551
        17 -11.3286     80.2189      1.2870   2.7132305347e+01   6.5509944526e+01    0.3124009   0.09031703  62.79  0.001098663    2.788    0.641
        18 -10.6049     25.5010      1.4679   5.1368506438e+01   7.8115773569e+01    0.1281743    0.1156743   9.95 2.432274e-05    1.027    0.026
        19 -12.1393     81.7462    193.6150   8.4183372272e+01   2.3649172278e+01    0.3388964    0.2077024  60.87  0.001716526    1.771    0.435
        20 -16.5210     95.4123    238.1197   8.5425204800e+01   1.3606423772e+01     6.774841     1.718529  36.10   0.02887991    2.701    0.630
        21 -12.5108    244.9888    185.8209   5.0776848573e+01   2.5779182988e+00    0.2826995    0.1400786  12.42  0.001530301    2.709    0.631
        22 -11.6225     84.4917    186.0146   8.2619964100e+01   2.4890400615e+01    0.1924037    0.1343367 -67.91  0.001034599    1.595    0.373
        23 -10.3717     74.1748    188.8539   8.5585619238e+01   2.5679495721e+01    0.1705523    0.1541166   0.89  0.000423087    1.325    0.246
        24  -9.8951     95.3022    185.6785   7.9846483853e+01   2.3428080673e+01    0.1398268   0.09413162  60.41 0.0007027738    1.630    0.387
        25 -11.0771     65.9859    182.6622   8.7075672905e+01   2.8131129002e+01    0.2023129    0.1541379  43.23  0.001140867    1.130    0.115
        26 -12.1295     71.6657    182.2184   8.5519701861e+01   2.7481303663e+01    0.3863312    0.1347823  34.73   0.00151721    2.356    0.576
        27 -11.4624    243.4362    180.2486   5.0066045480e+01   3.4211831444e+00    0.1476492   0.08552317 -37.01 0.0009492536    1.680    0.405
        28 -11.7119     45.2049    166.3903   9.1259941273e+01   3.4570847101e+01     0.266337    0.2413757 -66.31 0.0007811866    1.259    0.206
        29 -12.9394     36.0700    158.9833   9.3312821694e+01   3.7457953307e+01    0.5421473    0.2830555 -56.72  0.002354949    2.121    0.528
        30 -14.9270     26.8321    161.4583   9.6295276662e+01   3.7795167182e+01     1.071571    0.7635091  50.24  0.005062227    1.198    0.165
        31 -13.6785     23.3298    157.9700   9.7113667406e+01   3.9017763379e+01    0.5143657    0.4084961 -60.38  0.001688318    1.433    0.302
        32 -11.5285     55.7650    159.1628   8.7389923709e+01   3.5062062459e+01    0.3913586    0.1236952 -73.88  0.001278415    3.613    0.723
        33 -10.3694     49.6470    160.2626   8.9340093754e+01   3.5558697490e+01    0.1536533   0.08853793  55.10 0.0003098134    1.618    0.382
        34 -11.9987     41.3711    157.4320   9.1557047742e+01   3.7257752721e+01    0.4273008    0.2200415 -63.55  0.001548429    1.974    0.494
        35 -10.3669     74.5844    159.5052   8.1904672227e+01   3.2383934186e+01    0.1444639    0.1292348  61.80 7.383338e-05    1.020    0.019
        36 -11.7621     63.3744    155.2197   8.4628138995e+01   3.5031790256e+01    0.2691088    0.2304657  52.62 0.0005682693    1.055    0.052
        37 -12.2770    249.4147    149.2906   4.3821978924e+01   6.5476724872e+00    0.2299701   0.08737853 -30.07  0.001152345    2.180    0.541
        38 -13.2659     21.5638    142.1912   9.6542245361e+01   4.3279519923e+01    0.3974075    0.3458017 -60.91  0.002021554    1.297    0.229
        39 -11.8460     13.8940    146.9068   9.9367546591e+01   4.2709869189e+01    0.1988794    0.1793334 -70.17 0.0004947639    1.251    0.200
        40 -12.7428     23.8889    146.2103   9.6088322357e+01   4.2002682646e+01    0.3355317    0.2825743 -73.73  0.001439019    1.237    0.192
        41 -11.1733      1.5786    144.7696   1.0321991798e+02   4.4194017181e+01    0.2010499    0.1040969  76.11 0.0009530544    1.684    0.406
        42 -10.6931     68.1729    143.3309   8.1482513323e+01   3.7359266255e+01    0.4417895    0.1454839  52.54  0.001251522    4.138    0.758
        43 -10.6018     42.6962    142.6511   8.9588955641e+01   4.0935304748e+01    0.1450243    0.1068311 -40.56 0.0007040752    1.697    0.411
        44 -12.3327     16.9911    138.2204   9.7782231888e+01   4.4739467178e+01    0.2845404    0.1954504  53.60 0.0006935751    1.285    0.222
        45 -12.3569     14.4774    135.0221   9.8417569743e+01   4.5803480494e+01    0.3756909    0.2055705 -67.47   0.00118521    1.770    0.435
        46 -12.5480     10.9748    133.1225   9.9504678510e+01   4.6588533020e+01    0.3692983    0.2096822 -84.33  0.001205436    1.594    0.373
        47 -11.4162     28.5190    137.9997   9.3848138991e+01   4.3727870365e+01    0.2184276    0.1301601 -78.25  0.001027192    1.581    0.368
        48 -11.9309     26.4667    133.4778   9.4129174086e+01   4.5147468798e+01    0.2686747    0.1241782 -72.46 0.0006531765    2.003    0.501
        49 -10.8638    108.5534    132.2774   6.7418558999e+01   3.3290540800e+01    0.3768778    0.1445665 -51.86  0.001312915    2.613    0.617
        50  -9.8303    136.7227    132.3110   6.0156180112e+01   2.7915470121e+01    0.1430831    0.1157093 -89.62 0.0001860296    1.559    0.359
        51 -10.8115     81.3459    132.0813   7.5436662054e+01   3.8166665117e+01    0.2345662    0.2116045  28.37 0.0004663199    1.206    0.171
        52  -9.9093    174.2457    131.3067   5.1909027501e+01   2.0996164275e+01    0.1329141    0.1018139 -10.89 0.0002373166    1.501    0.334
        53 -12.0397    248.8992    127.6098   3.9785440287e+01   9.4222116970e+00    0.1878726    0.1576485  77.20  0.001325747    1.888    0.470
        54 -11.7662     17.0044    123.8387   9.6662744332e+01   4.8624524996e+01    0.2820406    0.2194774 -84.56 0.0003882585    1.171    0.146
        55 -11.3008      5.6446    121.2728   1.0069255641e+02   5.0166517913e+01    0.1982927    0.1122811 -74.47 0.0007536325    1.613    0.380
        56 -12.5214    248.8527    115.0148   3.7303213646e+01   1.1089071034e+01    0.4371386    0.1426091 -46.57  0.001696668    3.856    0.741
        57 -15.4421     21.2698    248.8769   1.0169794753e+02   1.9742325616e+01     1.157436    0.3973281  26.71  0.005854821    2.371    0.578
        58 -10.7673     20.6820    116.4598   9.4583081796e+01   5.0341435012e+01    0.2583583    0.1204796 -77.27  0.001066129    1.953    0.488
        59 -10.8611      8.5614    123.5162   9.9753544204e+01   4.9358904107e+01    0.1411741    0.1196194  76.64 7.906996e-05    1.009    0.009
        60 -10.2581      1.5237    117.5107   1.0202855603e+02   5.1443163802e+01    0.1406304    0.1171659  74.46 0.0003821453    1.019    0.018
        61 -10.6246     91.7279    116.0838   6.8839004617e+01   4.0372879714e+01    0.2142348    0.1921071 -61.07 0.0004274344    1.118    0.106
        62 -11.0466      2.4620    111.8364   1.0135045021e+02   5.2935535516e+01    0.2093285    0.1892624  47.58 0.0003964479    1.161    0.139
        63  -9.6596     79.3122    111.3276   7.1819394998e+01   4.3852748580e+01    0.1560585    0.1236991 -24.39 0.0007042137    1.666    0.400
        64  -9.9572     18.3204    108.7306   9.4715666062e+01   5.2686145803e+01    0.1512323    0.0929376  57.36 0.0003126774    1.564    0.361
        65 -10.4615      7.8944     96.0395   9.7891476134e+01   5.6968898526e+01    0.3989995    0.1419522  32.80  0.001315653    2.603    0.616
        66 -10.5471      2.6349     96.1905   1.0024059451e+02   5.7227124125e+01    0.3269937    0.1070466  34.62  0.001249581    2.777    0.640
        67 -10.8025    132.0437     92.5728   5.1329007100e+01   3.7335328732e+01    0.2259322    0.2063336 -54.32  0.000579509    1.055    0.052
        68 -10.6180    107.9858     89.3098   5.6805193993e+01   4.3470523208e+01    0.2235914    0.1994581  58.80 0.0008223716    1.124    0.110
        69 -11.1876     53.5159     77.8093   7.3349718177e+01   5.7017395977e+01    0.4677815    0.2441727  52.09  0.001807743    2.193    0.544
        70  -9.9165    216.2434     78.3354   3.3067772758e+01   2.1674856411e+01    0.1230224   0.09405709 -11.02 0.0002172974    1.550    0.355
        71 -10.4456    195.9372     78.5124   3.5669303575e+01   2.5690919274e+01    0.1922722    0.1370059  61.01  0.001033851    1.599    0.374
        72  -9.5797    152.3230     76.3365   4.2181179927e+01   3.5790603360e+01    0.1495243    0.1209144  10.74 0.0007050785    1.714    0.416
        73 -10.9213     91.5491     75.0422   5.7485132181e+01   5.0366014001e+01    0.2258185     0.208254  65.93 5.123014e-05    1.075    0.070
        74 -10.6035      7.8083     68.1304   9.4660921415e+01   6.4659257407e+01    0.2105875    0.1693582  80.90 0.0006510732    1.194    0.162
        75 -10.0217    204.3941     65.7169   3.1353826106e+01   2.5857818598e+01    0.1428757   0.08857003 -62.80 0.0006999352    1.759    0.432
        76  -9.8769    191.7471     65.7234   3.2907042027e+01   2.8541906975e+01    0.1228723    0.1057286  -0.83 -0.000275831    1.459    0.315
        77 -10.0501      4.4311     64.4715   9.6076871788e+01   6.5828488018e+01    0.1390518     0.119666 -66.65 0.0008050521    1.066    0.062
        78 -11.0351    118.1586     61.4677   4.4946298295e+01   4.6906124386e+01     0.380312    0.1934581  59.91  0.001460643    2.040    0.510
        79 -10.3814     98.7615     60.9528   5.0172363718e+01   5.1753901900e+01    0.2676657    0.1737395 -70.56  0.001065751    2.034    0.508
        80  -9.8868     34.9855     61.0000   7.7575837253e+01   6.4055975075e+01    0.2218428   0.08389451  28.34 0.0003602283    2.803    0.643
        81 -11.0775      3.5437     59.8291   9.5942101852e+01   6.7117131916e+01    0.2750325     0.189923 -39.35    0.0014599    1.488    0.328
        82 -11.5251     96.4863     55.6707   4.8867679830e+01   5.3359370648e+01    0.2545741    0.2353359 -71.98 0.0003112392    1.042    0.041
        83 -11.3717     94.0473     48.8255   4.6885838249e+01   5.5269664764e+01    0.2374355    0.2094925 -50.63 0.0002422578    1.123    0.110
        84 -10.3655      6.8688     46.1437   9.1218299333e+01   7.0546437759e+01       0.1922    0.1367986 -49.37 0.0004070835    1.301    0.231
        85  -9.7094     20.6807     44.6959   8.1099339248e+01   6.9828913639e+01    0.1457425   0.09664405 -33.59 0.0003739536    1.630    0.386
        86 -10.1743    119.6121     42.7650   3.7706068328e+01   4.9821815959e+01    0.2123709    0.1325642 -46.72 0.0002882285    1.552    0.356
        87 -10.4779     39.2720     43.4306   6.8617043983e+01   6.7754246309e+01    0.1920013     0.133542  45.95 0.0005363935    1.526    0.345
        88 -10.0540    112.9440     38.7588   3.7635636130e+01   5.2200269153e+01    0.1937041    0.1241377  62.78 0.0004409566    1.523    0.344
        89 -10.5174     40.2761     35.9870   6.4540342534e+01   6.9251777486e+01    0.2004929     0.182687 -44.44 0.0006532192    1.068    0.064
        90 -10.2932    154.1758     32.1572   2.7898784164e+01   4.2354228461e+01    0.2010574    0.1485724 -66.27  0.000335353    1.270    0.213
        91 -10.0722     48.3061     32.2959   5.7967011357e+01   6.8583419013e+01    0.1410351    0.1118985  -1.36 0.0004339983    1.585    0.369
        92 -10.7071     17.5663     31.6711   7.8423140884e+01   7.3295277560e+01    0.2054582    0.1500337  48.47 0.0003144619    1.568    0.362
        93 -10.3801      3.5280     31.4546   9.0045876570e+01   7.4432484642e+01    0.1296189    0.1171722 -55.91 0.0001416484    1.014    0.014
        94  -9.8445    104.2961     28.2882   3.5223143589e+01   5.6038160683e+01    0.1461405    0.1134475  33.50 0.0002830779    1.551    0.355
        95 -10.3231    160.5100     26.9231   2.5389286044e+01   4.1410868897e+01    0.2087802    0.1298655 -34.28 0.0005274052    1.507    0.336
        96 -10.0723    131.3407     26.3172   2.9153793706e+01   4.9102088769e+01    0.1496707    0.1101383  36.91  0.000704883    1.710    0.415
        97 -11.8963     87.1098     23.5409   3.7431375217e+01   6.1178798244e+01    0.3741504    0.3112242 -33.30  0.001670941    1.253    0.202
        98 -10.2133    110.8330     24.6421   3.2193350156e+01   5.4801124783e+01    0.2178687    0.1335219  83.22 0.0009428711    1.752    0.429
        99 -12.3148     96.5142     22.1117   3.4244826478e+01   5.8931355931e+01    0.3388864    0.2660779 -87.20 0.0003594578    1.312    0.238
       100 -10.8697     38.1825     22.6325   5.8396896968e+01   7.2306956993e+01    0.1981139    0.1744472  30.42 0.0004185961    1.135    0.119
       101 -11.1076     35.2500     19.7813   5.8515641288e+01   7.3354466041e+01    0.2115826    0.2035585 -72.47 0.0007541593    1.170    0.145
       102 -10.4625      3.0076     23.7612   8.8023334801e+01   7.6321889649e+01    0.1554223    0.1068728  10.04 0.0002298703    1.550    0.355
       103  -9.9926     72.5466     22.4884   4.1542197343e+01   6.4965446639e+01    0.1424238    0.1379797  69.31 0.0001247448    1.005    0.005
       104 -10.2531    147.3145     18.3115   2.4017369947e+01   4.5847961781e+01    0.1393403     0.107118  39.27 0.0007031848    1.635    0.388
       105 -15.8799     10.1708    176.8508   1.0190378407e+02   3.5554563551e+01     3.182792     1.369119  32.75    0.0152885    1.923    0.480
       106 -11.5981     65.9968     16.5217   4.0509433144e+01   6.7391627593e+01       0.2578    0.2142577 -28.27 0.0003576432    1.258    0.205
       107 -11.4350     11.7745     17.6282   7.6622175973e+01   7.7052584166e+01    0.1794782     0.113325  33.75 0.0007757127    1.673    0.402
       108 -11.5822    183.5771     15.1451   1.9594441517e+01   3.7098521750e+01    0.2116346    0.1497659  79.43  0.000628212    1.440    0.306
       109 -11.4424     49.6991     13.9240   4.5974656764e+01   7.1481718727e+01    0.2446243    0.1835021  37.96  0.001308207    1.338    0.253
       110 -12.0582    116.1136     13.1880   2.6289159675e+01   5.4754317771e+01    0.3132858    0.2005701  82.71 0.0004078993    1.513    0.339
       111 -10.3155    189.4982    241.9260   6.7765097386e+01   2.0452896222e+00    0.1305957   0.09347723 -25.73 0.0003654791    1.455    0.313
       112 -16.4148     21.9203    200.8351   9.9827663018e+01   2.9038226096e+01     3.222022     1.252154  30.70   0.01530096    2.066    0.516
       113 -16.9937     32.4660    242.4153   9.9138849263e+01   1.9804977381e+01        1.958     1.128903  41.04   0.01146177    1.231    0.187
       114 -10.4785    122.5141    190.8455   7.4034351859e+01   1.8408428311e+01    0.1734146    0.1306982 -52.04 0.0005489046    1.491    0.329
       115 -11.9377     55.5986    169.7536   8.8594796644e+01   3.2483561926e+01    0.2826065     0.257107   8.72 0.0005550922    1.319    0.242
       116 -12.7359     78.8433    215.3364   8.7050096819e+01   1.9669250092e+01    0.3398308    0.2105886  85.90  0.001467532    2.112    0.527
       117 -12.4920     57.2420    174.7176   8.8640667465e+01   3.1091217682e+01    0.4572091    0.2898832  31.07  0.001453764    1.478    0.323
       118 -10.9004    113.5339    214.9502   7.9159732946e+01   1.5261625860e+01    0.1566621    0.1246524 -57.42 0.0004228984    1.517    0.341
       119 -11.7756     53.5050    184.9521   9.0625841701e+01   2.9175870494e+01    0.3752963    0.1928874 -72.83  0.001793399    2.072    0.517
       120 -12.1268     51.8591    180.5499   9.0678507790e+01   3.0387676340e+01    0.3514016    0.2786267 -33.26   0.00157135    1.690    0.408
       121 -15.5778      4.8367    203.0728   1.0409229615e+02   3.0088411513e+01     1.273336    0.5887703  89.65  0.006697825    2.117    0.528
       122 -11.2819    241.4880    217.5561   5.6214640234e+01  -6.3762243521e-01    0.1022679   0.07269117  -3.58 0.0001077412    1.006    0.006
       123 -11.9445    108.5195    202.6715   7.8819666193e+01   1.8171440627e+01    0.2683834    0.2306208  13.32  0.001712092    1.192    0.161
       124 -16.2533     20.3347    214.9903   1.0078015038e+02   2.6213341180e+01     2.247708    0.5385281  37.91  0.009139596    2.476    0.596
       125 -12.1154     51.5405    192.9113   9.1810660052e+01   2.7622975067e+01    0.3722916    0.1597101 -64.93 0.0009436205    2.491    0.599
       126 -17.5337      6.8526    234.9562   1.0436046293e+02   2.3544960360e+01     3.325401     1.562165 -88.07   0.01952761    2.267    0.559
