#   1 NUMBER                 Running object number                                     
#   2 MAG_AUTO               Kron-like elliptical aperture magnitude                    [mag]
#   3 X_IMAGE                Object position along x                                    [pixel]
#   4 Y_IMAGE                Object position along y                                    [pixel]
#   5 X_WORLD                Barycenter position along world x axis                     [deg]
#   6 Y_WORLD                Barycenter position along world y axis                     [deg]
#   7 A_WORLD                Profile RMS along major axis (world units)                 [deg]
#   8 B_WORLD                Profile RMS along minor axis (world units)                 [deg]
#   9 THETA_WORLD            Position angle (CCW/world-x)                               [deg]
#  10 FWHM_WORLD             FWHM assuming a gaussian core                              [deg]
#  11 ELONGATION             A_IMAGE/B_IMAGE                                           
#  12 ELLIPTICITY            1 - B_IMAGE/A_IMAGE                                       
         1 -14.6018     18.7232    161.7569   1.2281772264e+02   3.8655703109e+01     2.086867     1.131119  13.82   0.01076273    3.040    0.671
         2 -13.8965     59.0747     63.3453   9.2826285528e+01   5.7392985620e+01      1.70081    0.8724208 -25.97   0.00694838    2.694    0.629
         3 -15.1643      6.2040     69.1684   1.1452863586e+02   6.0912836735e+01     1.621167    0.6486406 -58.50  0.005001136    1.771    0.435
         4 -12.9235    120.6172     26.2201   5.9353455398e+01   5.1868778196e+01    0.8158169     0.527738  30.12  0.003945522    1.656    0.396
         5 -14.9223    119.8114     54.5745   6.9894872759e+01   4.7935210360e+01      1.27353    0.8922912  28.38   0.00212285    1.577    0.366
         6 -13.6033    131.7903     32.6495   5.9111944110e+01   4.8389892897e+01    0.9729791    0.5114423 -30.85  0.003399093    1.965    0.491
         7 -12.2153    232.6946      2.2389   3.6381223495e+01   2.6772784868e+01    0.4123853    0.2406152  64.50  0.001645579    1.713    0.416
         8 -15.5604    218.3972     16.4883   4.1003128519e+01   2.8568554251e+01     2.206719     1.236704 -27.43   0.01093798    1.923    0.480
         9 -15.2301    212.5580     41.1052   4.7936925464e+01   2.6916185007e+01     3.065312    0.8694885  71.00  0.008777509    4.804    0.792
        10 -14.1586    189.0780     26.1934   4.6960946410e+01   3.4690674968e+01     1.781666    0.6569598 -57.36  0.005156671    4.874    0.795
        11 -14.5326    189.8502     15.5951   4.3886315365e+01   3.5705813366e+01     1.516655    0.7348546 -52.41  0.006553065    2.237    0.553
        12 -13.3745    139.4032     22.0592   5.3756778186e+01   4.7804677321e+01    0.7835909      0.38145  57.71  0.001445424    1.831    0.454
        13 -14.9551    166.5434     30.0762   5.1491193853e+01   3.9981178859e+01     1.230173     1.154496  69.81  0.004186447    1.009    0.009
        14 -14.3205    121.8135     37.6138   6.3292082304e+01   5.0093586228e+01     1.009678    0.5753224  26.58   0.00263968    2.304    0.566
        15 -13.3446      2.7067     10.7894   9.9294162360e+01   7.2640874399e+01    0.5940962    0.3322441 -53.06  0.003743276    1.735    0.424
        16 -13.0815      8.0000      2.6883   9.2474293136e+01   7.3560384643e+01    0.4911327    0.3497806  28.12  0.002352129    1.795    0.443
        17 -12.9443     16.9037     10.4574   9.1257556517e+01   7.1623749838e+01    0.3215521    0.2503755 -55.00 0.0008553725    1.865    0.464
        18 -15.9408     11.4078     23.0902   9.9563812389e+01   6.9944501754e+01     1.763744     0.972908 -28.15  0.008375544    1.564    0.360
        19 -14.3605     24.0152     14.0491   8.9204783154e+01   7.0393699864e+01    0.6900744    0.3420236  21.79  0.002176745    2.131    0.531
        20 -15.0373    147.5124     30.2886   5.4989346534e+01   4.4799063385e+01     1.514641     1.022214  58.98  0.006253279    1.380    0.275
        21 -12.5478     71.4305     17.1562   7.0008413428e+01   6.3276038989e+01    0.4630434    0.2840945 -23.49  0.002517218    1.571    0.363
        22 -15.3910     97.8057     12.4140   5.9650951931e+01   5.8576514344e+01     1.663886    0.7394753  50.75  0.005543206    1.976    0.494
        23 -14.4389     42.3961      4.0824   7.5241345161e+01   6.9548587857e+01     1.169061    0.6060649 -22.54  0.005952831    1.785    0.440
        24 -12.0609    153.2807      8.7927   4.6840055393e+01   4.5687981435e+01    0.2893508    0.2373262  20.31 0.0009736829    1.378    0.274
        25 -10.7042    160.4954      6.4711   4.5031447171e+01   4.4077176883e+01    0.1375865     0.120545  61.15 4.949881e-05    1.059    0.055
        26 -10.8700     68.5265      5.5172   6.5534500709e+01   6.5136137351e+01    0.2205981   0.09921517 -36.16  0.001029037    2.521    0.603
        27 -10.9217     59.5172      6.5116   6.9335683299e+01   6.6607449653e+01    0.1986343    0.1174559  54.60   0.00103587    2.244    0.554
        28 -12.1313    182.5487      2.5721   4.1093645533e+01   3.8855339291e+01    0.4914042    0.2739578 -86.32  0.002298431    1.946    0.486
        29 -11.7033     78.2558      2.4220   6.0842984073e+01   6.3595359746e+01    0.3553559    0.1973953  40.52  0.001758963    1.558    0.358
        30 -10.7273     83.0060      1.2250   5.8857183621e+01   6.2753661952e+01    0.1944818    0.1188983  49.55   0.00106583    1.471    0.320
        31 -11.8571     61.5849      1.8798   6.6220672237e+01   6.6747322881e+01    0.2888339    0.1904126  50.96  0.001378999    1.703    0.413
        32 -12.3514    118.5604      2.8737   5.0888024006e+01   5.4751500819e+01    0.4291946    0.2695137 -88.49   0.00202515    2.279    0.561
        33 -11.6909     60.0247     17.3026   7.4365496959e+01   6.5200942084e+01    0.3325387    0.1632111 -36.27  0.001652465    2.041    0.510
        34 -12.3133     49.0049      3.5067   7.2045429178e+01   6.8638734544e+01    0.2079977     0.164221   9.59 0.0003456685    1.044    0.042
        35 -11.9807    203.6537     12.0381   4.1369453480e+01   3.2644313052e+01    0.4605294    0.2336004 -72.10  0.001968742    2.394    0.582
        36 -13.6864     29.9182    169.4866   1.2098780997e+02   3.5847206907e+01    0.7508274    0.4264242 -47.45  0.002987797    2.276    0.561
        37 -12.2791     57.4242    246.7669   1.2175895338e+02   1.6952394451e+01    0.6395389   0.09535735  39.20  0.002328566    4.679    0.786
        38 -11.8970     52.4806    250.5053   1.2285799508e+02   1.6914862420e+01    0.1810118   0.09647827  63.46 0.0007176429    1.524    0.344
        39 -13.6096     28.2913    245.9933   1.2663545457e+02   2.0514403618e+01    0.6625654    0.2981251  76.58   0.00394416    2.039    0.510
        40 -11.8244      2.6898    249.8396   1.3086531256e+02   2.2477701889e+01    0.2899081    0.1396428  55.14  0.001890263    1.471    0.320
        41 -13.8311      9.1272    245.6919   1.2970468131e+02   2.2567761943e+01    0.7010614    0.3280317  57.99  0.003358775    1.529    0.346
        42 -11.9253    181.2282    121.3889   7.4832950074e+01   2.0742414667e+01    0.3350431    0.2617052  61.78  0.001557524    1.434    0.303
        43 -10.6996    212.4826    200.4957   8.5598577603e+01   1.8130474969e-01    0.1340834    0.1124155  12.04 3.337274e-05    1.035    0.034
        44 -11.8870      3.7811    119.8904   1.2252262666e+02   4.9441544112e+01    0.4150561    0.1783821  16.64  0.002093327    3.180    0.686
        45 -13.9319     17.7379    111.0505   1.1752036207e+02   5.0585872611e+01    0.8202229    0.5501885 -48.22  0.004189384    1.453    0.312
        46 -13.8464     11.0873    102.1469   1.1827630548e+02   5.3125017834e+01    0.7698545    0.5786058 -78.24  0.005052773    1.129    0.114
        47 -13.4005      2.2562     97.2450   1.2031697753e+02   5.4766253004e+01    0.8133084    0.2430813 -75.57  0.003318123    2.919    0.657
        48 -14.8165     25.3264     94.4868   1.1255649889e+02   5.3915287256e+01     1.189768     1.019846 -37.29  0.007892159    1.235    0.191
        49 -12.1755     36.8801     93.1828   1.0848854513e+02   5.3227487538e+01    0.3348577    0.2253118  -2.43  0.001430631    2.002    0.501
        50 -11.7797    177.0291    110.4745   7.2930496464e+01   2.3878012300e+01    0.4451646    0.3274979 -10.37  0.001944901    1.760    0.432
        51 -12.4960    121.0017    111.7598   8.7004865405e+01   3.6111748732e+01    0.3730202    0.2437163  63.77   0.00153544    2.014    0.503
        52 -14.7486     86.1740    113.2295   9.7322733342e+01   4.2152267267e+01     1.776673    0.9600258 -32.37  0.006351021    2.683    0.627
        53 -11.7985     45.2410    110.0066   1.0906859483e+02   4.8395344755e+01    0.3897426     0.279806  89.10   0.00212828    1.539    0.350
        54 -11.3864    223.1217    109.8799   6.3919305800e+01   1.3489297911e+01    0.2317669    0.1993746 -60.16  0.000907722    1.267    0.211
        55 -12.4496     33.1659    104.7291   1.1185906696e+02   5.0838894629e+01    0.3613864    0.2871235 -34.04  0.002227674    1.389    0.280
        56 -12.0937     42.9223     91.1867   1.0604172569e+02   5.3102067195e+01    0.9602276    0.3637728 -72.95  0.002935062    4.756    0.790
        57 -13.4677     62.8502    100.0575   1.0147280892e+02   4.8695176161e+01      1.07764    0.6356945  67.16  0.004410164    2.893    0.654
        58 -12.8467     52.4349     97.9224   1.0436095229e+02   5.0483084682e+01    0.7569728    0.4322061 -11.17  0.003046104    3.306    0.698
        59 -12.7879     49.1221     94.3704   1.0466762830e+02   5.1695355466e+01    0.4312419    0.3234175  63.88  0.001617447    1.671    0.401
        60 -13.3521    249.1784     95.8910   5.6550671853e+01   1.0319763263e+01     0.964366     0.251909 -36.97  0.003215227    3.184    0.686
        61 -12.8725    164.0998    194.2512   9.4191532028e+01   9.9167268505e+00    0.6013783    0.2998689 -54.61  0.002550781    2.536    0.606
        62 -13.3730    136.9893     95.9230   7.8409596045e+01   3.6142179578e+01    0.5157472    0.4278123  68.08  0.001747499    1.369    0.270
        63 -13.7646    242.2527     84.0117   5.4710689072e+01   1.3652159495e+01    0.7772284    0.4233476 -47.50   0.00355713    1.746    0.427
        64 -13.5115    237.1826     80.2191   5.4499071300e+01   1.5350230795e+01    0.7563879    0.4095125  73.26  0.003188042    2.520    0.603
        65 -12.8358     89.9471     88.2597   8.9734790533e+01   4.7294925778e+01    0.5005361    0.3526054  46.11  0.002002092    1.556    0.357
        66 -13.0048    149.6269     85.1034   7.2092892128e+01   3.5398400861e+01    0.7954767    0.4180947  32.94  0.002794744    2.612    0.617
        67 -14.1765    163.8895     71.5234   6.4791151936e+01   3.4428360095e+01     1.669117    0.5439533  45.28  0.005022475    3.373    0.704
        68 -13.2073    160.0786     68.0593   6.4557305440e+01   3.5979987901e+01    0.6922221    0.5065189 -52.56  0.001881668    1.474    0.321
        69 -13.8397    160.8088     80.8835   6.8252710520e+01   3.3498297479e+01    0.9242477    0.6921199  15.67  0.003065653    1.746    0.427
        70 -14.7460    169.3577     77.0485   6.5276185989e+01   3.2090325569e+01     1.469572    0.6832098  52.21  0.005306527    2.127    0.530
        71 -13.3834    127.0492     85.7764   7.8066611932e+01   4.0462216990e+01    0.5371363    0.4810368  26.52  0.002770341    1.157    0.136
        72 -13.2994    135.7144     80.0042   7.4014966363e+01   3.9659309393e+01     0.810017    0.4848218  46.60  0.003416706    1.677    0.404
        73 -11.3613     34.3772     86.8761   1.0802698297e+02   5.4925498250e+01    0.2213549    0.1827685 -14.23 0.0008444464    1.390    0.281
        74 -13.1070    188.5603     84.2103   6.3478347695e+01   2.6070798722e+01    0.8362383    0.3810536  40.90  0.002751981    2.704    0.630
        75 -14.1986     80.6579     56.6996   8.2770607629e+01   5.5408813463e+01     1.307829    0.8744732  20.92  0.006446661    1.710    0.415
        76 -13.4020     65.9958     49.0177   8.5294727496e+01   5.9211041528e+01    0.5243267    0.5000791 -62.05  0.003306422    1.347    0.258
        77 -11.7808    147.4985    239.0365   1.0432580670e+02   5.1024872263e+00    0.1600955    0.1247735 -54.33  0.001015716    1.583    0.368
        78 -13.8578     73.2121     74.7256   9.1283502729e+01   5.2977334451e+01     1.158645    0.6820097   9.57  0.003956596    2.782    0.641
        79 -13.9050     86.6399     66.1667   8.3991252835e+01   5.2534243661e+01     1.323691    0.7534601 -14.58  0.004805062    3.207    0.688
        80 -13.0921     54.9592     82.0253   9.9707695417e+01   5.3865153015e+01    0.5751159    0.3609339 -38.47  0.002223482    1.532    0.347
        81 -13.9560     61.0549     75.5771   9.5795498785e+01   5.4526170951e+01    0.7146478    0.4564346 -38.30  0.001104092    1.464    0.317
        82 -13.2847    213.1305     78.3242   5.7605574667e+01   2.1149597027e+01     1.089856    0.6309615  79.78  0.004297061    2.558    0.609
        83 -13.0366    216.6268     73.3684   5.5774485843e+01   2.1130494317e+01    0.8033764     0.501283 -72.69  0.003381626    2.250    0.556
        84 -12.3034    114.0157     80.1545   7.9997065938e+01   4.4413836188e+01    0.4652345    0.3707914 -51.09  0.001295004    1.299    0.230
        85 -12.5185    201.0094    192.1147   8.6250009997e+01   3.5247970869e+00    0.3692203    0.2820079 -11.77  0.001592742    1.384    0.277
        86 -10.6033     32.8031     81.2232   1.0734834007e+02   5.6363499480e+01    0.1800272    0.1251414 -41.99 0.0007659981    1.300    0.231
        87 -12.6602     16.9201     78.7394   1.1248345968e+02   5.8147630678e+01    0.3972445    0.1726526 -64.77  0.001304289    1.842    0.457
        88 -12.5394     22.9745     71.7537   1.0880554009e+02   5.9292450997e+01    0.3190264    0.2211396   7.40 0.0006745301    1.750    0.429
        89 -11.7810     40.4148    243.6336   1.2447654222e+02   1.9563636567e+01    0.2317171     0.145646  89.24  0.001621461    1.425    0.298
        90 -13.0439      7.8683     50.7208   1.0982094738e+02   6.4787517511e+01    0.8431737    0.3385506 -20.37  0.003696763    3.563    0.719
        91 -13.2580      6.1385     43.8128   1.0878124969e+02   6.6298655116e+01     0.725691    0.3278339  15.00  0.003975162    2.629    0.620
        92 -14.0962    198.9359     69.8224   5.7661048635e+01   2.5975934234e+01     1.169433    0.6987805  37.24  0.003727373    2.123    0.529
        93 -12.4862    199.8871     62.2346   5.5427987762e+01   2.6953661236e+01    0.4251831    0.3519608 -26.53 0.0009338556    1.271    0.213
        94 -11.2750     42.1285     76.9431   1.0298020248e+02   5.6445105466e+01    0.2131084     0.193842  12.45  0.001377652    1.258    0.205
        95 -12.4853    241.9212     71.4624   5.1756870055e+01   1.5673499382e+01    0.4731123    0.3050483 -66.14  0.002288363    1.826    0.452
        96 -13.8951    133.4001     66.0999   7.0203777571e+01   4.2803938008e+01      1.02455    0.8338975  12.32  0.003715557    1.408    0.290
        97 -13.9969    101.2611     49.4819   7.3413215443e+01   5.2794973322e+01    0.8274198    0.7348761  64.12  0.001622117    1.350    0.259
        98 -12.5251     14.4209    223.8332   1.2782291002e+02   2.6034269196e+01    0.4393611    0.1896414  64.86  0.002144869    1.898    0.473
        99 -12.3509     24.8906    217.4267   1.2561151801e+02   2.6201946734e+01    0.5912611     0.291652  61.00  0.003569541    1.654    0.395
       100 -13.0502    135.6282     50.4046   6.4415051226e+01   4.4912190595e+01    0.6461453    0.3520838  34.86  0.002558747    2.200    0.545
       101 -13.7997     25.7289    227.5536   1.2606053608e+02   2.4162103043e+01    0.6032246    0.3181683 -62.48  0.003745249    2.181    0.541
       102 -13.9415    112.0717     40.0563   6.6763469867e+01   5.1963018470e+01      0.87663    0.5150746  22.45  0.003231283    2.299    0.565
       103 -12.2309    100.4884     64.9680   7.9128233266e+01   5.0171379942e+01    0.4835163    0.3307962 -31.62  0.002254267    1.452    0.311
       104 -12.4686     38.0904     68.3884   1.0225873972e+02   5.8739716121e+01    0.6041318    0.2485833  29.74  0.002748276    2.732    0.634
       105 -14.2975    178.1522     57.4113   5.7764166031e+01   3.3171057689e+01     1.018251     0.745924 -39.74   0.00290286    1.358    0.263
       106 -12.0309     24.3944     59.9060   1.0535757177e+02   6.1766525482e+01    0.3009706    0.1913333 -48.15 0.0008215583    1.242    0.195
       107 -13.5600     22.2541    181.3320   1.2365108540e+02   3.3964629974e+01    0.5345063    0.4216195 -71.61  0.002415323    1.302    0.232
       108 -13.1621    198.4654    181.6174   8.4725474028e+01   5.7598850460e+00    0.3501268    0.3090569 -59.40  0.001858503    1.436    0.303
       109 -13.2601    248.2120     51.6700   4.6344691396e+01   1.7200214700e+01    0.6893972    0.4289985 -34.43  0.003604451    1.490    0.329
       110 -11.8911    230.0706     55.4906   4.9377709859e+01   2.0722676528e+01    0.4884591    0.2156631  63.37  0.002038942    2.357    0.576
       111 -11.8038     24.1692     49.2591   1.0244916662e+02   6.4000917141e+01    0.4330141    0.1368186 -34.09  0.001510373    4.265    0.766
       112 -10.1290     33.2280     49.6696   9.8720755135e+01   6.3126388141e+01    0.1117628   0.09174544 -69.46 0.0002155811    1.520    0.342
       113 -13.5357     20.7865    225.2509   1.2679391484e+02   2.5118739141e+01    0.4339112    0.3316112  87.06  0.002538073    1.196    0.164
       114 -12.7069    237.8773    230.6907   8.6286116323e+01  -7.9475358432e+00    0.2888296    0.1280986  41.64  0.001465334    2.230    0.552
       115 -13.6178     96.8363    238.8015   1.1395403002e+02   1.2992136102e+01    0.5536402    0.3558007  48.65  0.002474009    1.248    0.198
       116 -13.0358     66.7016    223.2184   1.1822374237e+02   2.0092732743e+01    0.6704521    0.5186495  41.67  0.004519793    1.365    0.268
       117 -13.8235     63.1974    214.6905   1.1814477202e+02   2.2230685683e+01    0.7105445    0.3869131  59.05  0.003978258    1.622    0.384
       118 -13.3514    157.7852     43.6799   5.7380093445e+01   4.0409846450e+01    0.9714711     0.641977  18.16  0.004065103    2.138    0.532
       119 -12.5587     94.6004    218.4772   1.1226111272e+02   1.7065113821e+01    0.3366936    0.1870938  48.98  0.001502708    1.526    0.345
       120 -12.4004    185.7581    213.6618   9.3096107992e+01   2.7282757560e+00    0.2115073    0.1954497 -22.12  0.001374446    1.216    0.177
       121 -12.1820    170.0102     43.7104   5.5107904434e+01   3.7286393959e+01    0.3626237    0.2869222  52.00  0.001687842    1.237    0.192
       122 -10.6356     55.5060     41.0924   8.6393621993e+01   6.2163090313e+01    0.1860005    0.1143951 -38.86 0.0003705304    1.456    0.313
       123 -12.6200     75.8741     37.4339   7.7158107324e+01   5.9595270436e+01    0.3436476    0.2378623  35.83 0.0008431039    1.445    0.308
       124 -12.1411     69.5489     36.7551   7.9197384151e+01   6.0775725688e+01    0.4373666    0.2195779  34.15  0.001211345    2.060    0.514
       125 -13.8469    241.8620     34.3906   4.2987199861e+01   2.0933799821e+01     0.862869    0.6477044  80.68  0.003065298    1.334    0.250
       126 -13.9322    171.0636    243.1659   1.0040826545e+02   7.0195619803e-01    0.9323823    0.5195293  33.52  0.005191199    1.528    0.345
       127 -11.7526     58.4568     35.4012   8.2941062534e+01   6.2723508287e+01    0.5049815    0.2223232  33.01  0.002281288    2.407    0.585
       128 -12.2793     46.2328     33.9244   8.7420116656e+01   6.4639566219e+01     0.471674    0.2735977 -29.42  0.002541884    1.571    0.363
       129 -14.9046      8.2281    183.5906   1.2667891982e+02   3.4757429770e+01      1.06008    0.8060833  74.35  0.007750171    1.085    0.078
       130 -12.2650     77.3530    156.9368   1.0807991496e+02   3.2994148859e+01    0.4591544    0.3016542  39.61  0.001652256    1.572    0.364
       131 -12.9030      1.8883     21.6345   1.0396910881e+02   7.0792782724e+01    0.2471655    0.1359238 -55.58  0.001084599    1.594    0.372
       132 -13.9632     74.0317    153.2322   1.0834557747e+02   3.4350694098e+01    0.7257074    0.5196465  35.33  0.002825408    1.527    0.345
       133 -12.7206    208.8336    154.4059   7.6971431468e+01   8.5456077423e+00    0.6444069    0.4222439  41.06  0.003114766    1.531    0.347
       134 -14.5226     16.0347    175.7344   1.2453257647e+02   3.5771359411e+01     1.205625    0.4244308  48.38   0.00592271    2.557    0.609
       135 -11.5292     27.5695     33.2307   9.5520951262e+01   6.6804610299e+01    0.3203953     0.198152 -52.75  0.001867612    1.629    0.386
       136 -11.3983     31.4091     31.0778   9.2908065405e+01   6.6819227472e+01    0.2252879    0.1475132   8.62 0.0007128541    1.617    0.382
       137 -11.0906     91.0490     34.0002   7.0631459128e+01   5.7286097692e+01    0.2314499    0.1553931  14.23  0.001134848    1.714    0.416
       138 -10.9554     89.1647     30.1573   6.9665251566e+01   5.8208632125e+01    0.2010297    0.1630609  12.11 0.0002526992    1.164    0.141
       139 -12.9039     56.8152     27.5408   8.0288407612e+01   6.4227346138e+01    0.5902463    0.2947222  44.24  0.001994078    2.364    0.577
       140 -12.9339     67.7333     24.6525   7.4741180606e+01   6.2919226782e+01    0.7019668    0.3202181  37.14   0.00324924    2.169    0.539
       141 -10.9976    154.8143    157.6057   8.9204350278e+01   1.8975761040e+01    0.2245688    0.1365568  52.76  0.000955267    1.752    0.429
       142 -10.7758     98.0671     27.4548   6.5828479394e+01   5.6754298694e+01    0.2098364    0.1280035  49.57  0.001027261    1.587    0.370
       143 -12.0029     46.4512     21.0509   8.1778635293e+01   6.6686118321e+01    0.3330556    0.2205557 -22.73   0.00119402    1.323    0.244
       144 -11.2564    136.7206    211.3762   1.0269601910e+02   1.1621502776e+01    0.2188429    0.1635744 -73.10 0.0009028158    1.637    0.389
       145 -11.4241    133.1077    152.6941   9.3333907364e+01   2.4379924768e+01    0.2565028    0.2128445 -47.54 0.0002563958    1.235    0.190
       146 -11.9352    103.1008    150.2672   1.0037616585e+02   3.0481483819e+01    0.4084244    0.2823412 -36.40  0.001778322    1.777    0.437
       147 -13.5956      9.0122    210.7034   1.2809342470e+02   2.9105271482e+01    0.8619463     0.518289  69.24  0.005952624    1.268    0.212
       148 -13.2643     16.7258    195.6828   1.2577940698e+02   3.1429508109e+01    0.9056435    0.2348114 -69.71  0.004032322    3.097    0.677
       149 -14.7796    229.9415    129.0809   6.7321172652e+01   8.7349840616e+00     1.342404     1.108454  64.13   0.00728552    1.483    0.325
       150 -11.1044    150.7814    206.9889   9.9106256591e+01   9.9853142358e+00    0.2561426    0.1631156  28.89  0.001285024    1.651    0.394
       151 -13.0583    246.2886    133.0407   6.5503067284e+01   4.8769873186e+00    0.5531778    0.3802617 -38.04  0.002926484    1.333    0.250
       152 -12.8592    133.8762    102.9416   8.1192731020e+01   3.5340411174e+01     1.271884    0.3730049  49.96  0.003537085    3.882    0.742
       153 -14.0170    120.1657    102.3726   8.4735957703e+01   3.8387138176e+01     0.784443     0.457289  34.46  0.002557079    1.937    0.484
       154 -13.0885     77.1989    117.2553   1.0087457046e+02   4.2577386450e+01    0.7926389    0.4242856 -59.85  0.003482017    1.753    0.430
       155 -15.0891    105.9249    121.5836   9.3593311863e+01   3.6759061025e+01     1.793146     1.153516  31.86  0.007985773    1.758    0.431
       156 -15.6638    106.2109    105.8633   8.9625052405e+01   4.0363612309e+01     1.737412     1.407653  -8.03  0.007090008    1.534    0.348
       157 -12.5869     57.4221    203.4590   1.1827092029e+02   2.5270528163e+01    0.5026644     0.235226 -87.68  0.002357233    2.485    0.598
