#   1 NUMBER                 Running object number                                     
#   2 MAG_AUTO               Kron-like elliptical aperture magnitude                    [mag]
#   3 X_IMAGE                Object position along x                                    [pixel]
#   4 Y_IMAGE                Object position along y                                    [pixel]
#   5 X_WORLD                Barycenter position along world x axis                     [deg]
#   6 Y_WORLD                Barycenter position along world y axis                     [deg]
#   7 A_WORLD                Profile RMS along major axis (world units)                 [deg]
#   8 B_WORLD                Profile RMS along minor axis (world units)                 [deg]
#   9 THETA_WORLD            Position angle (CCW/world-x)                               [deg]
#  10 FWHM_WORLD             FWHM assuming a gaussian core                              [deg]
#  11 ELONGATION             A_IMAGE/B_IMAGE                                           
#  12 ELLIPTICITY            1 - B_IMAGE/A_IMAGE                                       
         1 -10.4096      5.3788     86.2447   1.0884814208e+02   5.8207523956e+01     1.656145    0.4391027 -62.66  0.004683399    2.650    0.623
         2 -11.0017     35.1671     61.5198   9.0394763202e+01   6.1352620455e+01     1.658296    0.7224578 -24.46  0.005939289    3.784    0.736
         3 -10.9133     37.7325     10.7916   6.8613086909e+01   6.9337206492e+01     1.055756    0.3448665 -40.92  0.004280142    4.119    0.757
         4 -11.0769     23.7737     32.3355   8.5336850431e+01   6.7979536770e+01     1.475017    0.5034271 -35.30  0.004944206    2.870    0.652
         5 -10.4596     27.5542     10.9363   7.3656638882e+01   7.0718704146e+01    0.9131174     0.390518  37.21  0.004757712    2.318    0.569
         6 -10.0187     18.3514      4.6099   7.5301970857e+01   7.2640346609e+01    0.5131162    0.3709484 -49.75  0.002555699    2.399    0.583
         7  -9.2541      2.2915     14.3877   8.9613866599e+01   7.2789183003e+01    0.3328272    0.2028232 -58.92  0.001468755    2.448    0.592
         8 -10.4680      5.4501      4.6326   8.2954357632e+01   7.3972697967e+01    0.5144488    0.3468536  -0.85  0.001734603    1.205    0.170
         9 -10.2816      4.8919     41.6920   9.8411120947e+01   6.7817557359e+01    0.8217055    0.3623668 -62.30  0.004027798    2.453    0.592
        10 -10.7633    134.0591     30.8829   4.7480137485e+01   4.7622143629e+01    0.3751335    0.2798907   4.25  0.002004006    1.743    0.426
        11 -10.2078     63.0551      2.8700   5.4682079229e+01   6.5863869057e+01    0.6189007    0.4680015 -32.39    0.0040406    1.606    0.377
        12 -10.3642     69.5523     40.6679   6.8721659428e+01   6.0166219699e+01      1.47426    0.3961259 -35.04  0.004944102    3.997    0.750
        13 -10.2881     76.2743     31.9688   6.2870803723e+01   6.0164424044e+01    0.7129521     0.549558  84.06  0.002448551    2.245    0.555
        14  -9.9465     63.2735     21.3056   6.2973173024e+01   6.3921005149e+01    0.6494711    0.3905948 -42.29   0.00261842    2.102    0.524
        15  -9.8508     64.6711     13.2271   5.8876324025e+01   6.4573853788e+01    0.3588623    0.2594895  14.52 0.0002493304    1.310    0.237
        16  -9.2871    101.0566     32.0316   5.5420742031e+01   5.5059916376e+01    0.5048492    0.2238792 -34.06  0.001502813    2.391    0.582
        17 -10.3219     51.4396     14.8301   6.4613440440e+01   6.6724219878e+01     1.002469    0.5008332  11.42  0.004197178    3.317    0.699
        18 -10.0092    133.9983     12.0466   4.1515305009e+01   4.9626382346e+01    0.5789965    0.1814267 -36.86  0.002319118    3.263    0.694
        19  -9.7060     10.2421     18.8007   8.6891425397e+01   7.1458708854e+01    0.6526815    0.2790823  -9.33  0.002567672    4.256    0.765
        20  -9.3456     77.9723      4.1335   5.0680823106e+01   6.2826725513e+01     0.489725    0.2760061   7.78    0.0024776    2.217    0.549
        21  -8.4792     72.0592      8.4492   5.4306020794e+01   6.3632601642e+01    0.2624332    0.1884309  -3.46 0.0005993319    1.458    0.314
        22  -9.4468     73.5118     19.0872   5.8447100548e+01   6.2267146026e+01    0.3418738    0.2116086 -33.95   0.00111586    1.797    0.444
        23  -8.8304     73.8305     12.6159   5.5567435847e+01   6.2884998210e+01    0.4474641    0.2226835  -2.76  0.001946139    3.062    0.673
        24  -9.2874     96.4467     14.5077   5.0007991383e+01   5.7997500316e+01    0.5532798    0.2663511  -9.40   0.00240444    2.985    0.665
        25  -9.0056    125.9396      4.6628   4.0481633243e+01   5.2165064823e+01    0.2876152    0.2058321  -2.05  0.000889989    1.762    0.433
        26  -8.4118    125.4013     13.1674   4.3363999921e+01   5.1545455840e+01    0.2646824    0.1977317 -55.02  0.000984269    1.548    0.354
        27  -9.3561    126.9700      8.8223   4.1663046808e+01   5.1571352452e+01    0.2851735    0.1806904  41.60 0.0008934811    1.593    0.372
        28  -8.6490    104.6459     14.7965   4.8163264313e+01   5.6157691773e+01    0.3497163    0.1674893  22.86  0.001346609    3.542    0.718
        29  -9.1459    115.5384      4.3648   4.2197321658e+01   5.4598758255e+01    0.3002549    0.2088068 -57.22 0.0008221865    1.774    0.436
        30  -8.9712    102.2495      8.1700   4.6245464193e+01   5.7293932574e+01    0.3922633    0.2217769 -51.30  0.001776557    2.474    0.596
        31  -8.8737    112.3395     15.2993   4.6653963653e+01   5.4368677971e+01    0.2720194    0.2087297 -50.01 0.0006888089    1.544    0.352
        32  -9.1789    114.2389      9.6261   4.4271597350e+01   5.4454991470e+01    0.3770861      0.19687  40.75 0.0006395572    1.910    0.476
        33  -9.2681    110.1546      4.4921   4.3262552075e+01   5.5818856397e+01    0.4352767    0.2549323 -36.94  0.002370917    1.970    0.492
        34  -8.6645    104.4364      2.1173   4.3542603050e+01   5.7295916992e+01    0.3636255    0.1923046  44.58   0.00191171    1.675    0.403
        35  -9.6072     85.4620     12.9336   5.2266886725e+01   6.0493762133e+01    0.3896446    0.2553953 -56.52   0.00149807    2.380    0.580
        36  -8.1857     80.5274     12.3895   5.3443685799e+01   6.1564706384e+01    0.2485999    0.1845124 -55.78  0.000942139    1.953    0.488
        37  -8.2228    141.6834     12.0774   4.0304158529e+01   4.7802026850e+01    0.1675083    0.1616049  85.24 0.0004585607    1.124    0.110
        38  -8.1854    151.3000      1.6375   3.5914619351e+01   4.6451380486e+01    0.1739997     0.112843 -51.50 0.0009888561    1.650    0.394
        39  -8.4897     97.6098      6.1823   4.6535958819e+01   5.8488303811e+01     0.225607    0.1672083   1.85 0.0008824847    1.532    0.347
        40  -8.3814     95.9934      2.9704   4.5668521044e+01   5.9101503108e+01    0.1869089    0.1618909  50.20 0.0004742367    1.049    0.046
        41  -7.7434    165.7470      5.9865   3.5379599808e+01   4.2669110599e+01     0.162344    0.1446238 -80.86 0.0002248777    1.093    0.085
        42  -7.7785    142.7908      4.6709   3.7918758720e+01   4.8203012997e+01    0.1795629   0.08420047 -37.82 0.0006756611    2.281    0.562
        43  -8.8650     89.0949      2.1460   4.6954027027e+01   6.0659317701e+01    0.1925998    0.1415547  33.91 0.0007901639    1.237    0.192
        44  -7.7621    136.5394      1.4969   3.7847145186e+01   4.9937702671e+01    0.1258611     0.106298  69.95 4.507788e-05    1.007    0.007
        45  -7.2787    183.0039    136.4978   6.6448053014e+01   1.7718426595e+01    0.2124578    0.1313639  20.73 0.0008104237    2.537    0.606
        46 -11.4355    193.8032    249.6631   8.5980073004e+01  -5.1752161860e+00     1.097104    0.2781882  38.51  0.004086554    3.658    0.727
        47  -9.3395    133.5044    131.9224   7.6957642466e+01   2.9069157213e+01    0.5077781    0.2776864  57.07  0.001853851    2.388    0.581
        48  -8.1783    136.0000    129.0094   7.5597600787e+01   2.9227009446e+01    0.3851772    0.1504803 -49.98  0.001191835    2.593    0.614
        49  -9.9780     66.9872    128.5493   9.5623793024e+01   4.1750864027e+01    0.6432247    0.3738483 -43.71  0.002814078    1.737    0.424
        50 -10.1740     71.2278    125.6982   9.3681287724e+01   4.1864373494e+01    0.6206197    0.3950687 -80.36  0.001434292    2.071    0.517
        51  -9.8696     98.8614    128.6263   8.5844406428e+01   3.6597353922e+01    0.7474291    0.4494286  68.97  0.002542762    2.940    0.660
        52  -9.9580    140.8567    118.3324   7.1667249184e+01   3.0614224421e+01    0.5968411    0.3906075 -66.50  0.001361144    2.029    0.507
        53  -9.8069    110.9088     89.8866   7.1953690936e+01   4.3183993186e+01    0.8911898    0.3619455  36.50  0.002971117    2.915    0.657
        54 -10.4593    123.7618     89.8795   6.8338230121e+01   4.0438989928e+01     1.119255    0.6555446 -22.62    0.0034627    2.539    0.606
        55 -10.0984    117.1851    125.3987   7.9776480604e+01   3.3907872138e+01    0.7150316    0.4971885  82.40  0.001369037    2.292    0.564
        56 -10.1575    108.8676    114.4887   7.9392900108e+01   3.8123282427e+01    0.7856352    0.5084179 -83.25    0.0016582    2.876    0.652
        57 -11.0756    109.1047    100.8490   7.5639976208e+01   4.1190642479e+01     1.107839     0.883588  88.07  0.004909859    1.677    0.404
        58 -11.2564    121.0401    108.6083   7.4355721435e+01   3.7006812653e+01     1.875674    0.7317688 -42.32  0.005776405    2.595    0.615
        59  -9.5494    127.9830    102.3120   7.0739033334e+01   3.6912808018e+01    0.4993782    0.3206846 -52.85  0.001195168    1.638    0.389
        60 -10.7525    131.2426    119.1060   7.4353286058e+01   3.2491902675e+01    0.8449506    0.5982593  85.02  0.002177986    2.214    0.548
        61 -10.9965    133.7621    109.0975   7.1062156454e+01   3.4186791484e+01     1.688697    0.6239078 -50.63   0.00529795    2.987    0.665
        62 -10.1824     58.4217    124.3228   9.7497687181e+01   4.3986230537e+01    0.6520547    0.4098374  80.75  0.002262112    2.419    0.587
        63  -9.9342     41.9998    122.6933   1.0252864416e+02   4.6344807987e+01    0.7209836    0.3984358  86.69  0.002820167    2.832    0.647
        64  -9.8193     27.3598    122.5895   1.0727613487e+02   4.7792029217e+01    0.5833237    0.3127737  74.55  0.002227872    2.817    0.645
        65  -9.8213    139.5174    104.2206   6.8271930019e+01   3.3974401092e+01    0.8944446    0.4440536 -55.64  0.001550598    2.498    0.600
        66  -8.1735    158.1985    121.9569   6.8388033011e+01   2.6057734927e+01    0.2559353     0.176894 -70.36 0.0009644723    1.963    0.491
        67  -7.4786    152.6661    120.7113   6.9375511537e+01   2.7530664592e+01    0.1572754    0.1252259   2.92 0.0007018421    1.629    0.386
        68  -8.6464     99.5207    119.3659   8.3411799701e+01   3.8738117579e+01    0.3519225     0.231532  -4.73  0.001317915    2.636    0.621
        69  -8.4559      1.4754    116.3306   1.1471515360e+02   5.1176528444e+01    0.3658928    0.1108539 -75.72  0.001185834    2.953    0.661
        70  -8.4685    237.0460    117.0125   5.2501516689e+01   1.0814180304e+01    0.1557046    0.1454262 -49.57 0.0006904426    1.105    0.095
        71 -10.2881     92.3540    112.9487   8.3991667855e+01   4.1578717404e+01    0.7069414    0.5201642  66.80  0.001739874    1.782    0.439
        72  -8.8635     21.6710    116.0914   1.0810392920e+02   4.9899483676e+01    0.2161522     0.151252  89.88  0.001159801    1.527    0.345
        73  -8.5462    152.5497    115.0648   6.7961822561e+01   2.8775462161e+01    0.2392697    0.1503998 -44.43 0.0004010334    1.545    0.353
        74 -10.2852     78.1056    112.8950   8.8524417733e+01   4.3997701126e+01    0.5709864    0.4346055 -77.56  0.001665884    1.578    0.366
        75  -8.0542    167.4634    113.9948   6.4298086854e+01   2.5703575905e+01     0.233788    0.1470189 -43.26 0.0004988287    1.525    0.344
        76  -8.5141     68.6251     81.6928   8.3327180131e+01   5.2706561473e+01    0.4879367    0.1344017 -49.39  0.001543905    3.422    0.708
        77  -9.3775     64.0167    101.6826   9.0484530405e+01   4.8832134805e+01     0.395299    0.3313726  72.86  0.002089786    1.487    0.327
        78 -10.5991     63.0928     95.4802   8.9209488244e+01   5.0428170132e+01    0.9894104    0.6081195 -86.10   0.00178897    3.430    0.708
        79 -10.2596     65.8979    110.7085   9.2042860835e+01   4.6377450861e+01    0.7174147    0.4952932 -81.37  0.001868106    1.909    0.476
        80  -9.5676     59.8710    109.4819   9.3800960536e+01   4.7512141423e+01    0.5100102    0.3421699  79.57  0.001734542    2.322    0.569
        81  -9.8759     14.5585    110.5561   1.0961476380e+02   5.1800123588e+01    0.6540951    0.3500797 -84.07  0.002429654    2.041    0.510
        82  -8.0837    158.9467    111.7405   6.5617819702e+01   2.8061677225e+01     0.267141    0.2139259 -44.48  0.000438839    1.209    0.173
        83 -10.8571     21.7069    102.3378   1.0573639081e+02   5.3297740475e+01     1.167461    0.5884955  82.82  0.002931179    3.850    0.740
        84  -9.3360     35.1516    110.3454   1.0251645153e+02   5.0150870981e+01    0.3587129    0.2305234  77.39  0.001665912    2.178    0.541
        85  -8.2551    149.9344    109.5109   6.7136670392e+01   3.0537363625e+01    0.2542439    0.1952878 -44.88 0.0005974006    1.269    0.212
        86  -9.9740     19.4441     88.0463   1.0378070592e+02   5.6892402431e+01    0.8906422    0.4615063 -42.36  0.004444862    1.708    0.414
        87 -10.8730     45.0132    102.2787   9.7356340163e+01   5.1105269536e+01    0.8648486     0.486741  70.88  0.003075013    3.855    0.741
        88  -8.8460     39.9323    106.1671   1.0000668238e+02   5.0703947643e+01    0.3325026     0.182845 -73.53  0.000826449    2.057    0.514
        89  -9.5819    149.4677    103.0180   6.5519043470e+01   3.1999472125e+01    0.4803865    0.3148619 -58.07  0.001368335    1.734    0.423
        90  -8.5458    150.4134     96.3125   6.3476960563e+01   3.3147756428e+01    0.3465152    0.2542678   2.85  0.001479492    2.054    0.513
        91  -8.8085     91.6706    103.7724   8.1796076113e+01   4.3864624777e+01    0.4206218    0.3360979 -10.91  0.001316677    1.473    0.321
        92  -7.8870     96.9880    102.0000   7.9637779780e+01   4.3292938143e+01    0.3181117    0.1183204  39.58  0.001064358    2.770    0.639
        93  -7.9634     36.3234    105.3303   1.0111012590e+02   5.1276446757e+01    0.1486153   0.09069797 -35.75 0.0003501385    1.699    0.412
        94  -9.6325      6.2672    103.4582   1.1136532436e+02   5.4057574677e+01     0.416632    0.2623615  62.98  0.001613656    2.017    0.504
        95  -8.2917    166.0372    103.8449   6.2001140631e+01   2.8084809944e+01    0.2614678    0.2111469 -47.65 0.0005747234    1.196    0.164
        96  -9.5111     81.5204     99.9402   8.4057459981e+01   4.6524441987e+01    0.5942237    0.3449786 -50.37  0.002292262    1.644    0.392
        97  -8.7722     82.5832     93.6087   8.1943372336e+01   4.7789096422e+01     0.408235     0.248165  11.79  0.001438519    2.539    0.606
        98  -8.3144     74.0543    102.7002   8.7297102795e+01   4.7090838400e+01    0.2536972     0.193554 -61.05 0.0004408908    1.351    0.260
        99  -8.1971    159.0056    101.1667   6.2833638373e+01   3.0215769068e+01    0.2634394    0.2099399 -50.32 0.0005643944    1.235    0.190
       100  -8.9948    186.1202     99.4518   5.6851536125e+01   2.4420960899e+01    0.3750652    0.2912098 -18.42  0.001458934    1.569    0.363
       101  -9.5472     94.4932     97.2075   7.9083328955e+01   4.4843287967e+01    0.4069189     0.322302  72.91 0.0007485816    1.668    0.401
       102  -8.7362     90.1340     94.0183   7.9571431520e+01   4.6359041510e+01    0.2397281    0.2117717 -57.49 0.0002996999    1.191    0.160
       103  -9.2303     95.9279     90.9059   7.6810973935e+01   4.5960051084e+01    0.6386742    0.3908364  -7.51  0.002210367    3.295    0.696
       104 -10.0104    242.6183     95.4592   4.7131753440e+01   1.3440298766e+01    0.3646719    0.2225806 -71.12  0.001763858    2.193    0.544
       105  -8.6454    249.3553    248.7810   7.5669877174e+01  -1.2023172194e+01    0.2061732    0.1738925  82.30  0.001147662    3.987    0.749
       106  -7.6403     95.9870    136.1630   8.8407234382e+01   3.5232672492e+01      0.25452    0.1685353  62.08 0.0007227552    1.942    0.485
       107  -9.9393     16.0172     70.3842   1.0117356582e+02   6.1160685220e+01    0.5215703    0.2221701 -56.97   0.00140296    1.901    0.474
       108 -10.8945     20.9306     54.4376   9.4575179587e+01   6.4147870534e+01     1.068889    0.6814016 -41.81  0.003273355    1.292    0.226
       109  -8.6770    112.6506    133.9807   8.3114667647e+01   3.2725545029e+01    0.4135514    0.2755312  72.39  0.001353108    2.300    0.565
       110  -8.6292     86.4921    134.2618   9.0813501067e+01   3.7318347888e+01    0.4003248    0.2283396  41.55   0.00146273    1.823    0.452
       111 -10.0658     12.9238     45.2780   9.5514941171e+01   6.6586272982e+01    0.7164546    0.3395763  -9.31  0.001919741    2.700    0.630
       112  -9.2966    150.7604    248.1174   9.4415718705e+01   1.2735872716e+00     0.295604     0.186883 -31.82  0.001603447    1.923    0.480
       113  -8.6366     82.2179    130.1931   9.1227245943e+01   3.9039085371e+01    0.4004771     0.243186 -71.23  0.001190071    1.974    0.494
       114  -8.4551    233.4376    247.2604   7.8199397386e+01  -9.9721220796e+00    0.1398177    0.1022859 -34.68  0.000438455    1.550    0.355
       115  -7.0605    209.4417    133.5175   6.0636677234e+01   1.3015720934e+01    0.1450972    0.1295811 -36.26 7.233608e-05    1.013    0.013
       116  -9.4620    193.4628    234.8758   8.3709215264e+01  -2.8471451016e+00    0.2667487    0.2482393 -81.34  0.001316836    1.646    0.392
       117  -9.7015      6.7859     32.3479   9.4264634810e+01   6.9437871329e+01     0.323444    0.2349379 -13.26 0.0005319489    1.193    0.162
       118 -10.1233      7.3412     27.8165   9.2265798067e+01   7.0198613170e+01    0.4732688    0.2466848  28.09  0.002743569    2.150    0.535
       119  -8.6666    164.4930     94.1541   5.9775901991e+01   3.0338901738e+01    0.2827545    0.2259211 -78.74 0.0006679138    1.460    0.315
       120  -9.8246    138.6825     92.5967   6.5255776110e+01   3.6562520557e+01    0.4143405    0.3372081 -51.04  0.001328927    1.242    0.195
       121  -9.1669    139.8708     74.4871   5.9716625019e+01   3.9732357204e+01    0.5940725    0.2896762 -45.03  0.001559814    2.109    0.526
       122  -9.5597    140.5717     82.4922   6.1898789419e+01   3.8098737156e+01    0.5082925    0.2392882 -41.59  0.001249506    2.116    0.527
       123 -10.5917     25.5219     78.0101   9.9086615883e+01   5.8722685525e+01    0.6586822    0.5017334  75.51  0.001999156    1.880    0.468
       124 -10.0971     37.2763     80.5132   9.4984820329e+01   5.7048470353e+01     0.685916    0.3537478  -9.90  0.002700828    3.189    0.686
       125  -8.7579    157.5700     90.7011   6.0329194865e+01   3.2600120987e+01    0.3553427    0.2191242 -39.01  0.001387484    1.615    0.381
       126  -9.9922     50.1799     54.3173   8.1550958733e+01   6.0920846198e+01    0.5259271     0.328586 -54.07  0.001680941    1.906    0.475
       127  -9.4318     56.4358     42.9559   7.4702476693e+01   6.1990454795e+01    0.9097502    0.5650698  -0.20  0.004431813    2.067    0.516
       128 -10.4277     48.3687     82.4579   9.1155411916e+01   5.5356736989e+01     1.164244    0.4412334 -49.71  0.002250922    2.273    0.560
       129 -10.7209     55.1997     70.8586   8.5062163164e+01   5.6974277801e+01    0.7342665    0.5345091  55.90   0.00269811    1.941    0.485
       130 -10.2284     62.6359     60.6262   7.8767827058e+01   5.7910953172e+01    0.7270294    0.3086452  33.96  0.002959936    2.422    0.587
       131  -7.1511    174.2992     88.6358   5.6330604482e+01   2.9117053895e+01    0.1582496    0.1117481 -70.33  0.000703386    1.724    0.420
       132  -8.6973    163.1611     86.9794   5.8124393303e+01   3.2004930748e+01    0.2952371    0.2411864 -30.75 0.0008448944    1.297    0.229
       133 -10.2040     85.4324     86.3590   7.8873104212e+01   4.8883193366e+01    0.5377117     0.430952  72.85 0.0009450562    1.704    0.413
       134  -9.6739     87.5709     78.5516   7.5762037632e+01   5.0128849587e+01    0.6630881    0.3917696  23.16  0.002439809    2.158    0.537
       135  -9.0186     64.1228     86.1408   8.6269613020e+01   5.2411685613e+01    0.6662074    0.3117171 -45.06  0.002767977    1.973    0.493
       136 -10.3606    103.9710     82.3260   7.1734941751e+01   4.6166816591e+01    0.5661805    0.3318719 -54.24 0.0009263097    1.990    0.497
       137  -9.7238    105.1083     71.3854   6.7943349672e+01   4.8056821471e+01    0.8433639    0.4821465 -24.40  0.003079382    2.286    0.563
       138  -9.3998    109.8261     63.7206   6.4074614296e+01   4.8427301070e+01    0.3706434    0.2772133 -59.76 0.0009689537    1.657    0.396
       139  -8.8055    110.9231     58.1638   6.1923601096e+01   4.9124027063e+01     0.344765    0.2342178  24.69  0.001266697    1.774    0.436
       140  -8.7140    157.9431     82.5852   5.8013890726e+01   3.4034366273e+01    0.5126037    0.2130095 -36.38  0.001589216    2.512    0.602
       141  -8.6412    156.8504     75.8923   5.6373333852e+01   3.5492809907e+01    0.3908305    0.2104435 -40.74 0.0009337639    1.839    0.456
       142  -7.2552    116.6792     84.7066   6.8755641392e+01   4.3021600199e+01    0.1531595    0.1195414   6.77   0.00028657    1.611    0.379
       143  -8.7537    149.9342     80.5298   5.9175494660e+01   3.6286390406e+01    0.4339367    0.2008106 -44.39  0.001197971    2.166    0.538
       144  -8.7382    119.1103     80.4486   6.6790960360e+01   4.3331794432e+01    0.3519923    0.2395105 -62.32 0.0006531778    1.899    0.473
       145  -8.7129    119.9044     75.6501   6.5100000214e+01   4.4069763297e+01     0.293301    0.2339278 -19.53 0.0005687592    1.402    0.287
       146  -9.2335     74.1615     79.0575   8.0534665743e+01   5.2378415003e+01     0.632479    0.2583984 -50.22  0.001967264    2.487    0.598
       147  -8.6598    166.1957     78.6805   5.5253127920e+01   3.2799393830e+01    0.3062099    0.2131129 -32.45  0.001449263    1.528    0.345
       148  -8.2377    184.2886     77.8067   5.1683780514e+01   2.8732912481e+01    0.2382582    0.2328666   0.34 0.0007509454    1.181    0.153
       149  -9.3526    127.4502     74.9057   6.2884865346e+01   4.2515850514e+01    0.3989474    0.2767508 -61.66   0.00104418    1.802    0.445
       150  -9.3258    130.0158     57.6043   5.6867193263e+01   4.4880523101e+01    0.5170358    0.1911964 -42.36  0.001855515    2.831    0.647
       151  -8.7779    129.9684     68.5601   6.0302429871e+01   4.3072954934e+01    0.5930017    0.3033096  29.27  0.001973971    3.445    0.710
       152  -7.9789    130.8032     64.6168   5.8877042158e+01   4.3553944183e+01    0.2543109    0.2016362 -48.65 0.0007501929    1.326    0.246
       153  -8.9203     54.9744     63.3219   8.2703737310e+01   5.8529135525e+01     0.471279    0.3013013  10.43  0.001441326    1.842    0.457
       154 -10.1361     34.4148     89.7879   9.8407909958e+01   5.5202047456e+01    0.6588521    0.3198848 -74.34  0.002165849    2.972    0.664
       155  -7.9646    162.9242     73.2104   5.4394696817e+01   3.4522327331e+01    0.2705116    0.1856679 -63.27 0.0005595979    1.683    0.406
       156  -9.3058    115.0654     72.0036   6.5283458997e+01   4.5809640689e+01    0.5777799    0.3295513 -30.65  0.001956193    1.969    0.492
       157  -9.8955     81.6329     72.2822   7.5761911265e+01   5.2469858662e+01    0.4218411    0.3111415 -64.61 0.0009634392    1.821    0.451
       158  -9.2013     83.5549     64.5966   7.2539917922e+01   5.3588160821e+01    0.5784529    0.4258781   6.75  0.002864834    1.593    0.372
       159  -9.0412    169.5943     69.9347   5.2224098239e+01   3.3496505017e+01    0.4367454    0.2105314 -27.49  0.001634952    2.710    0.631
       160  -9.2670    147.1591     69.2429   5.6525472108e+01   3.8935438740e+01    0.3954623     0.253049 -61.05   0.00103956    1.946    0.486
       161  -8.1855    156.5695     70.0093   5.4768037056e+01   3.6573932650e+01    0.2209446    0.1428515 -37.37 0.0005157323    1.574    0.365
       162  -9.7350     94.8600     68.2004   7.0042282693e+01   5.0743417620e+01    0.3995112     0.262739 -49.19 0.0008321848    1.669    0.401
       163  -7.8052     23.1655     68.8297   9.7715810629e+01   6.0951429494e+01    0.1755484    0.1616039 -48.96 0.0003639603    1.181    0.153
       164  -8.7825    138.0524     66.2551   5.7671351222e+01   4.1587550383e+01     0.358854    0.2370164 -47.70  0.001281907    1.592    0.372
       165  -8.4265    137.9150     61.3698   5.6215487208e+01   4.2426555447e+01    0.4110694    0.2310016  67.06  0.001698606    2.112    0.526
       166  -9.0068    121.2137     65.7857   6.1652744938e+01   4.5549293807e+01    0.3621014    0.2515395 -51.79 0.0009385562    1.613    0.380
       167  -8.0906    122.3569     60.8527   5.9779893343e+01   4.6121708561e+01    0.2676564    0.2066889 -11.16 0.0007491837    1.551    0.355
       168  -8.7596    150.3450     88.8083   6.1417414734e+01   3.4635725679e+01    0.3211273    0.2693667 -26.22  0.001227069    1.292    0.226
       169  -8.4641    157.7193     63.0261   5.2552405504e+01   3.7449880356e+01    0.2933621    0.1768269 -49.85  0.001064979    1.739    0.425
       170  -9.4230     97.5593     57.6961   6.5640275194e+01   5.2053151854e+01    0.7347508    0.4572926  -6.21  0.003030973    2.549    0.608
       171  -9.8762     73.1551     58.6938   7.4143793819e+01   5.6535536985e+01    0.5163543    0.2591466 -48.19 0.0009615751    2.223    0.550
       172  -9.3729     76.3038     50.0183   6.9866198242e+01   5.7472204445e+01    0.6251754    0.3630129  18.04   0.00270901    2.355    0.575
       173  -7.9705    164.6072     60.2284   5.0467565770e+01   3.6246252927e+01    0.1873224    0.1393328 -25.67 0.0003749529    1.544    0.352
       174  -7.7243    152.5269     60.0517   5.2719779160e+01   3.9163460962e+01    0.2114906     0.140771 -38.57 0.0006272044    1.535    0.348
       175  -9.4215    147.0327     56.3458   5.2738567139e+01   4.1052751448e+01    0.6759859    0.2904335 -26.03  0.002383413    3.218    0.689
       176 -10.3620     90.5481     37.8467   6.0593139091e+01   5.6532757419e+01    0.9029452     0.315631  36.92  0.003019162    3.661    0.727
       177  -9.4419     87.9676     56.4495   6.8233890352e+01   5.4192204576e+01    0.7884006    0.4120262 -30.79  0.002352795    2.083    0.520
       178 -10.1989     85.1529     47.8023   6.6027963480e+01   5.6154216050e+01    0.3959109    0.3145038 -65.55  0.001080603    1.805    0.446
       179  -9.2689    139.6327     39.6714   4.9152573204e+01   4.5195747071e+01     0.453274    0.2478711 -36.45  0.001660975    1.917    0.478
       180  -8.7732    141.9637     48.3583   5.1361966085e+01   4.3448056181e+01    0.2516219     0.195506 -46.20 0.0004628748    1.349    0.259
       181  -8.8942    138.9509     56.5284   5.4502398337e+01   4.2948271395e+01    0.3282099     0.221695 -56.91 0.0008586406    1.725    0.420
       182  -8.2043    139.3649     51.7821   5.2953811170e+01   4.3569043933e+01    0.3108336    0.2487661  10.73 0.0008355051    1.573    0.364
       183  -9.3726    118.2811     54.8017   5.8849081905e+01   4.8020327301e+01    0.5069868    0.2976921 -36.90  0.001284679    1.772    0.436
       184  -9.0967    121.0655     46.6085   5.5440188828e+01   4.8613534185e+01    0.3668137     0.202912 -35.67 0.0005945426    1.900    0.474
       185  -7.0544    157.6762     55.3327   5.0362133133e+01   3.8656601364e+01     0.150476    0.1057252 -72.43 0.0007050603    1.706    0.414
       186  -8.5792    162.7258     53.3781   4.8888813485e+01   3.7736895868e+01     0.334597    0.1904141 -27.94  0.001170452    2.040    0.510
       187  -9.1152    105.5172     51.5371   6.1172741599e+01   5.1362013763e+01     0.592748    0.2782964 -31.05  0.001703811    2.346    0.574
       188  -7.6057    230.4837     50.4944   3.8903606098e+01   2.2779142746e+01    0.1303151    0.1044292 -64.99 0.0002846288    1.040    0.038
       189  -8.4893    157.3411     48.3844   4.8429052203e+01   3.9753780493e+01    0.3058521    0.1697349 -35.28  0.001026473    1.872    0.466
       190  -9.6369    130.5470     46.3977   5.3176571637e+01   4.6435520151e+01    0.8473854    0.3711012 -20.12  0.001285068    3.884    0.743
       191  -9.0524    132.8535     35.7977   4.9288685246e+01   4.7307331593e+01    0.2506151    0.1957941 -39.06 0.0006996162    1.377    0.274
       192  -9.1692    188.2254    233.4685   8.4525576057e+01  -1.8559189274e+00    0.2326808    0.2061016 -54.69 0.0007568112    1.521    0.343
       193  -9.4319    149.8105     47.0022   4.9412455276e+01   4.1759710219e+01    0.5112766    0.2026967 -36.50  0.001240486    2.549    0.608
       194  -8.4744    111.9400     46.6633   5.7749307149e+01   5.0678524283e+01    0.2477025    0.1973557 -46.82 0.0005080405    1.395    0.283
       195  -8.9069    113.5181     41.8730   5.5696431074e+01   5.1001288827e+01    0.3321258    0.1867344  32.51  0.001444141    2.142    0.533
       196  -7.7121    162.1850     46.1622   4.6951187483e+01   3.8901337813e+01    0.1965318    0.1532136 -77.84 0.0005618963    1.355    0.262
       197  -9.4892    181.8051    229.1241   8.5118261511e+01  -1.7350339894e-01    0.3808113    0.2763243  45.41  0.002157864    1.559    0.358
       198  -9.6891     60.2485     33.5126   6.9355240028e+01   6.2829630359e+01    0.6088771    0.3244454 -34.91  0.002783559    1.891    0.471
       199  -9.1241    183.0169    224.4346   8.4091774595e+01   4.4463734480e-01    0.2265195    0.2033822  -7.32 0.0001399519    1.094    0.086
       200 -10.3577    213.6509    229.0342   7.8813408150e+01  -4.7911634410e+00    0.2253959    0.1896916  -0.40 0.0003745487    1.065    0.061
       201  -7.3340    112.7005    229.3460   1.0003715287e+02   1.0557132528e+01     0.137617   0.09560271  65.85 0.0003650705    1.680    0.405
       202  -6.9345    208.3077    227.6185   7.9593685574e+01  -3.8218470020e+00    0.1128482    0.1039375  83.75 0.0007023802    1.793    0.442
       203 -10.0017     79.3779     23.8548   5.8548535819e+01   6.0572979706e+01    0.7106111    0.2666391  35.91  0.002150895    3.060    0.673
       204  -8.9344     84.7789     21.2480   5.5835633895e+01   5.9777390188e+01    0.2482026    0.2304215 -13.54 0.0005981251    1.196    0.164
       205  -8.7579     40.1820     34.6482   7.8364795884e+01   6.5670723395e+01    0.3421859    0.2634178  20.34  0.001602142    1.242    0.195
       206  -9.8561     37.7895     41.7835   8.2316930380e+01   6.4785742342e+01     0.338962    0.3062716  72.35  0.001917195    1.784    0.439
       207 -10.2296     35.9259     37.9115   8.1660226888e+01   6.5675791508e+01    0.4224112    0.2177265 -32.00 0.0004070338    1.828    0.453
       208  -8.4972    153.8225     41.0892   4.6940639520e+01   4.1602150977e+01    0.3302334    0.1745474 -37.65  0.001254678    1.943    0.485
       209  -8.7103    153.5966     34.7433   4.5128126186e+01   4.2472185872e+01    0.3266885    0.1670006 -52.94  0.001420573    2.293    0.564
       210  -8.6168    104.9796     40.6662   5.7497603358e+01   5.3070672222e+01    0.3017626    0.2094037 -48.32  0.001022371    1.706    0.414
       211  -8.4539    105.8762     36.3917   5.5730372526e+01   5.3445435538e+01    0.3094069    0.2003475  30.44  0.000838126    1.686    0.407
       212  -8.6916    122.1671     37.8101   5.2246625008e+01   4.9560301629e+01    0.3800555    0.2610198 -38.34  0.001480317    1.567    0.362
       213  -9.1330    119.0429     34.6106   5.1880176492e+01   5.0691593316e+01     0.831765    0.3561829 -49.68  0.003054123    3.393    0.705
       214  -9.2175    110.2071     32.8660   5.3373806429e+01   5.2925431310e+01      0.38444    0.2695514 -43.07 0.0009724628    1.613    0.380
       215  -9.0230    144.3297     36.4034   4.7253882175e+01   4.4491572613e+01    0.2632451    0.2037548 -66.16 0.0004941281    1.429    0.300
       216  -8.2379    248.4991     36.0005   3.4239560522e+01   2.1122667964e+01    0.1803422   0.06598888 -54.39 0.0006745028    2.448    0.592
       217  -6.9358     73.2911    224.7144   1.0824170229e+02   1.7286371129e+01    0.1338377   0.08623637  63.46 0.0002595477    1.537    0.349
       218  -8.2143    102.4031     25.5668   5.2682676266e+01   5.5531877096e+01    0.2967406    0.1280907  35.49  0.001152965    2.859    0.650
       219  -9.0879    102.9583     20.9912   5.0850744927e+01   5.5910032645e+01    0.3296381     0.251353 -57.38  0.001112884    1.682    0.406
       220  -8.6187    227.2120     33.9909   3.5686760301e+01   2.5680464699e+01    0.2036024    0.1633208  75.59 0.0003960819    1.285    0.222
       221  -8.7475     45.1617     15.5982   6.7618118658e+01   6.7640936313e+01    0.2137932    0.1514027   8.81 0.0009317332    1.275    0.216
       222  -7.4018    103.8230    222.4291   1.0112024369e+02   1.3342112743e+01    0.1762099    0.1243041  24.59 0.0004872936    1.539    0.350
       223 -10.1058     46.3453     29.5163   7.3425611373e+01   6.5596684575e+01    0.4450735    0.2790278 -49.42  0.001317761    2.215    0.548
       224  -9.0100     42.4616     27.5677   7.4304795356e+01   6.6441399438e+01    0.2244302    0.1562769  -3.23 2.747768e-05    1.377    0.274
       225  -8.1495    239.1566     29.3280   3.3672721407e+01   2.3817652318e+01    0.1808483    0.1433007 -45.46 0.0003687106    1.276    0.216
       226  -9.3364    154.9213     26.4713   4.2515283823e+01   4.3139835378e+01    0.5262765    0.1583042  60.37  0.001979068    2.755    0.637
       227  -7.4203    119.2879     27.3641   4.9355655520e+01   5.1501619970e+01    0.1394282   0.09496666  27.83 0.0007023482    1.696    0.410
       228  -8.9626     91.4369     25.9334   5.5763275382e+01   5.7858922419e+01    0.2852349    0.2087404 -58.15 0.0009088587    1.931    0.482
       229  -8.4719     92.0424     20.9725   5.3663194765e+01   5.8287172968e+01    0.3647791    0.1981254  27.22  0.001570097    2.218    0.549
       230  -8.5334    144.3613     25.4439   4.3921548226e+01   4.5788548050e+01    0.2356493     0.159947 -35.88 0.0007067663    1.591    0.371
       231  -9.1181    132.8325     17.0816   4.3308208153e+01   4.9418114315e+01    0.5694573    0.2289829  69.41  0.002315239    2.471    0.595
       232  -8.3717    183.5609    219.8420   8.3201363641e+01   1.1604970164e+00    0.2156272    0.1690131  24.63 0.0003723608    1.166    0.142
       233  -8.6346    128.3550     25.7103   4.6926482592e+01   4.9567558688e+01    0.3010907    0.2130481 -40.38  0.001006216    1.550    0.355
       234  -8.3808    130.5075     20.5243   4.4830401664e+01   4.9617765393e+01     0.276727    0.2485354  -9.75  0.001742651    1.281    0.220
       235  -9.0947    139.4304     22.2500   4.3785263276e+01   4.7316502653e+01    0.3594322    0.2088359 -79.72  0.001592826    2.471    0.595
       236  -9.9384    118.3986     21.6426   4.7587236475e+01   5.2335539924e+01    0.3934135    0.2402145  51.25  0.001320612    1.436    0.303
       237  -8.4289    155.3295     17.6020   3.9912336123e+01   4.4005087918e+01    0.2023955    0.1514895 -59.58 0.0006954267    1.392    0.282
       238  -7.3346    210.7741    217.0826   7.7285790623e+01  -2.4854495740e+00    0.1535776   0.09884277 -37.50 0.0003356299    1.530    0.346
       239  -7.1388      2.3272    216.6990   1.2267234944e+02   2.7114093068e+01    0.1262521    0.0649747  63.23 0.0002743535    1.640    0.390
       240 -10.3054    150.4324    213.6357   8.9271621541e+01   7.6676899875e+00     0.249861    0.2395635 -21.30 0.0005280154    1.103    0.093
       241  -8.7358    102.3908    209.0020   9.9630600406e+01   1.6473011684e+01    0.2339002    0.1922926  31.19 0.0003721898    1.228    0.186
       242 -10.0550     10.6034    207.5772   1.2043833535e+02   2.8381823535e+01    0.5650344    0.3172933  18.18  0.003035357    2.502    0.600
       243  -7.9553    139.8659     18.3284   4.2501737292e+01   4.7622251464e+01    0.1955352    0.1576111 -17.41  0.000697193    1.470    0.320
       244  -7.4595    189.3897     18.5520   3.5949999891e+01   3.5886105088e+01    0.1255921    0.1061139 -80.29 7.876489e-05    1.021    0.021
       245  -7.5822     62.2902    208.6774   1.0901278084e+02   2.2345191170e+01    0.1403106   0.08902956  67.36  0.000299447    1.608    0.378
       246  -8.7871    120.9962     15.4135   4.4940544367e+01   5.2360784721e+01    0.3619362    0.1636235  39.04  0.001546824    2.527    0.604
       247  -7.5111    124.6623    204.6595   9.3718728227e+01   1.3828228666e+01    0.1464712    0.1108001 -11.25 0.0007050483    1.763    0.433
       248  -8.6177    173.1259    199.2139   8.1741348960e+01   6.6940964198e+00    0.2090749    0.1889393 -24.06 0.0002776893    1.095    0.086
       249  -9.0859    192.0418    194.2863   7.6813545816e+01   4.4436153196e+00    0.8124478    0.4145735 -63.12  0.002350708    5.963    0.832
       250  -7.6193    159.1059    196.9121   8.4417841171e+01   9.5709523434e+00    0.2275338    0.1723061 -82.78  0.001078233    2.015    0.504
       251  -9.2397     34.6688    196.5625   1.1422916837e+02   2.8515321420e+01    0.2230534    0.1964481 -79.73 0.0005872131    1.156    0.135
       252  -7.4502     81.5804    186.4385   1.0149900018e+02   2.4932505045e+01     0.140386    0.1321048  84.60 0.0001253107    1.033    0.031
       253  -7.3663    250.6367    185.2975   6.4247681049e+01  -3.0243535417e+00    0.1125829   0.09878719 -64.27 0.0007032912    1.717    0.418
       254  -7.4758    100.5426    185.5904   9.6543186927e+01   2.2184913712e+01    0.1421195    0.1388272  56.48 0.0005819208    1.055    0.053
       255  -7.3594    105.9611    182.0752   9.4580555643e+01   2.2133961600e+01    0.1724735    0.1602049 -72.74 0.0003640681    1.077    0.072
       256  -9.0126     36.8247    181.0631   1.1217617355e+02   3.2033935409e+01    0.2033731    0.1847963  45.11  0.001279828    1.226    0.184
       257 -10.4645    100.9995    176.0007   9.4819034666e+01   2.4430526285e+01    0.2083268    0.1999732  78.28            0    1.004    0.004
       258  -8.3738    248.5015    173.0012   6.2226389723e+01  -7.2146511600e-01    0.2012676    0.1074027 -37.49   0.00102673    1.572    0.364
       259  -8.5105    230.4436    168.2046   6.4301599867e+01   2.8706666018e+00    0.3400545    0.1158005 -42.83  0.001294372    2.654    0.623
       260  -7.6194     10.9761     13.0000   8.3793466613e+01   7.2275333069e+01    0.1735002   0.05699651  25.98 0.0008080677    2.982    0.665
       261  -8.6943    133.6163    145.3597   8.0080332276e+01   2.5893959713e+01    0.6345509    0.1549148 -54.28  0.001399714    5.965    0.832
       262  -9.4207    179.9624    146.2859   6.9337925707e+01   1.6299449705e+01     0.254737    0.2162044 -43.47 0.0002441603    1.127    0.113
       263  -9.6089     66.7151    144.0113   9.8698965958e+01   3.7819243422e+01    0.5241267     0.360002  71.71  0.001601921    1.802    0.445
       264  -8.9355    237.7696    145.2600   5.8363404715e+01   5.7178877910e+00    0.2180133    0.1453268  -7.48  0.001052385    2.097    0.523
       265  -8.0575    185.3205    143.2344   6.7516391898e+01   1.5858324270e+01    0.2666129    0.1726921 -39.69 0.0008398793    1.459    0.315
       266  -7.9946    123.2155    143.6723   8.2437930463e+01   2.8341338939e+01    0.2029192    0.1908953  20.98 0.0003390678    1.113    0.101
