#   1 NUMBER                 Running object number                                     
#   2 MAG_AUTO               Kron-like elliptical aperture magnitude                    [mag]
#   3 X_IMAGE                Object position along x                                    [pixel]
#   4 Y_IMAGE                Object position along y                                    [pixel]
#   5 X_WORLD                Barycenter position along world x axis                     [deg]
#   6 Y_WORLD                Barycenter position along world y axis                     [deg]
#   7 A_WORLD                Profile RMS along major axis (world units)                 [deg]
#   8 B_WORLD                Profile RMS along minor axis (world units)                 [deg]
#   9 THETA_WORLD            Position angle (CCW/world-x)                               [deg]
#  10 FWHM_WORLD             FWHM assuming a gaussian core                              [deg]
#  11 ELONGATION             A_IMAGE/B_IMAGE                                           
#  12 ELLIPTICITY            1 - B_IMAGE/A_IMAGE                                       
         1 -11.1147     16.6171     30.5950   1.0264048807e+02   6.9111401013e+01    0.8668872    0.4256995 -55.19  0.004654464    1.644    0.392
         2 -11.1444     12.3052     20.1379   1.0079771237e+02   7.1511890290e+01     1.036669    0.4993109 -35.49   0.00563617    1.803    0.446
         3 -10.5767     51.3475     14.1974   7.8091855362e+01   6.7970644669e+01     0.581152    0.3845885 -39.76  0.003105817    1.537    0.349
         4 -12.5680     21.4010     64.2917   1.1036847396e+02   6.1388691799e+01     1.551893    0.8068752 -59.60  0.008193969    1.479    0.324
         5 -11.8787     33.4103     11.3178   8.5030327661e+01   7.0949909161e+01    0.3715668    0.2512618  11.96 0.0003546998    1.578    0.366
         6 -12.2784     25.1910      8.6776   8.7947797766e+01   7.2350767268e+01    0.2756141    0.2347624   6.88 0.0003309299    1.267    0.211
         7 -12.5698     41.9049      4.5452   7.6910150628e+01   7.0778116972e+01     1.126274    0.5161697  41.60   0.00564031    2.365    0.577
         8 -11.7922      4.0038      8.0843   1.0023992106e+02   7.4364144432e+01     0.440437    0.3634337  37.49  0.002013149    1.738    0.425
         9 -10.9178      7.7510      2.2178   9.4754187576e+01   7.5111113215e+01    0.4589371    0.2632486  11.10  0.002840278    1.971    0.493
        10 -11.0677     82.8121     45.1413   8.0330351389e+01   5.7428222628e+01    0.7042586    0.5947325 -52.88  0.003900428    1.315    0.240
        11 -11.1859     90.5685     21.2703   6.7319206031e+01   5.9682177214e+01    0.7421774    0.6025426  14.69  0.004164001    1.201    0.167
        12 -12.8133     99.3746     37.5327   7.1860322260e+01   5.5398360768e+01     1.825024     1.112756  -1.71  0.007351919    2.486    0.598
        13 -11.1034     62.2695     37.2234   8.4601918803e+01   6.2427430028e+01     1.133824    0.2646678 -42.58  0.003579927    3.813    0.738
        14 -13.8068    160.0236     25.4001   5.3393771254e+01   4.2135836283e+01    0.5795688    0.4243398 -30.23  0.001902291    1.360    0.265
        15 -11.4129    162.8807     19.2954   5.0810683594e+01   4.2086015898e+01    0.5041803    0.3488056 -28.14   0.00166602    1.450    0.310
        16 -10.7756     32.3548     34.5974   9.6490796058e+01   6.6869679007e+01    0.6528576     0.308724 -31.92  0.003013047    2.291    0.564
        17 -10.2574     74.7901     25.4557   7.4520034895e+01   6.2246182067e+01    0.4347052    0.2541851 -43.66  0.002080878    1.845    0.458
        18 -10.2229    135.1374     24.7078   5.7677265387e+01   4.8702346608e+01    0.6487473    0.3186279  -6.11   0.00225345    3.120    0.680
        19 -10.9880      2.7035     18.8961   1.0571626477e+02   7.2393856282e+01    0.3721392    0.2807392 -61.27  0.002594214    1.312    0.238
        20 -10.2325     77.6707      4.5559   6.2970589767e+01   6.4380782697e+01    0.4701082     0.243015  46.33  0.002285266    1.815    0.449
        21 -10.7837     89.5529     11.6473   6.3007855077e+01   6.1093853918e+01    0.5027402    0.4250525 -18.37   0.00296014    1.158    0.136
        22  -9.9691     93.5165      7.6509   5.9945395256e+01   6.0655533014e+01    0.3127793    0.2831397  75.96  0.001067187    1.331    0.249
        23 -10.0461    101.8170     16.1541   6.1758668695e+01   5.7836034224e+01    0.4230968    0.3390606  78.55  0.001911977    1.563    0.360
        24 -11.2329    101.0400     11.3403   5.9735254567e+01   5.8558031346e+01    0.6746997    0.4760038  73.37  0.003423133    1.739    0.425
        25 -11.1789     81.9762      7.9427   6.3405816964e+01   6.3123419337e+01    0.2968804    0.2233763   8.47 0.0003158791    1.276    0.216
        26 -10.5436     59.8328     20.6691   7.7885590624e+01   6.5624405201e+01    0.3701812    0.2408995   7.44  0.001228315    1.857    0.461
        27  -9.7881     62.5759     17.3687   7.5106373981e+01   6.5652086106e+01    0.3427289    0.2705504 -58.90  0.001677681    1.868    0.465
        28 -10.6059    168.7407     17.3800   4.9301721929e+01   4.0743538513e+01    0.5047921    0.2320644 -11.14 0.0008770844    2.881    0.653
        29 -10.1734    125.6630      3.9927   5.1145337775e+01   5.3302101109e+01    0.5775371    0.1914353 -32.63  0.002123491    2.895    0.655
        30 -10.4922    123.7854     10.4755   5.4211893364e+01   5.3164535259e+01    0.6053244    0.3942993  85.21  0.002197507    1.940    0.484
        31 -10.3837    129.8311     19.2641   5.6600603324e+01   5.0697715375e+01    0.4123033      0.33306 -88.02  0.002137095    1.457    0.314
        32  -9.4897    124.3805     17.5308   5.7026757965e+01   5.2264179559e+01    0.4195874    0.2718672 -67.28  0.001833906    2.212    0.548
        33 -10.1408    111.6897     18.1087   6.0144794155e+01   5.5296837518e+01    0.5202081    0.2619939 -10.84  0.002061596    2.455    0.593
        34 -10.4590    115.0772     14.8097   5.7915341414e+01   5.4857739507e+01    0.4575994    0.3158459  -1.18  0.002255056    1.581    0.367
        35 -10.6595    140.0155     18.6356   5.4378162474e+01   4.8162299124e+01    0.4146038    0.3285997  44.78  0.001476037    1.231    0.188
        36  -9.7453    196.6203     10.6232   4.3796613951e+01   3.4137840538e+01     0.401209    0.2246538 -54.80  0.001818497    1.829    0.453
        37  -9.7922    199.0836     15.8542   4.5097584737e+01   3.2954447779e+01    0.3701764    0.2982277  61.52  0.001656077    1.268    0.212
        38 -10.2418    246.8997     17.8691   4.1308116614e+01   2.1146726723e+01    0.2423488    0.1683858  54.91 0.0008268057    1.678    0.404
        39 -10.8852    212.3524      4.5194   4.0581769570e+01   3.0760330596e+01    0.7206597    0.3554691  61.72  0.003303428    2.011    0.503
        40  -8.7181    210.3121      9.2939   4.2093091785e+01   3.0791765351e+01    0.1872575    0.1668521 -31.34  0.000506527    1.152    0.132
        41  -9.7105    215.0201     15.5147   4.3400829611e+01   2.8961107217e+01    0.4047282     0.290311  11.99  0.001625447    1.867    0.464
        42 -10.4667    211.3635     12.8861   4.3008071039e+01   3.0154604687e+01    0.7128991    0.3205632 -73.23  0.002622296    3.087    0.676
        43 -10.3135    236.6097      8.9123   3.9841249681e+01   2.4468433475e+01    0.5214819    0.2431663 -24.13   0.00226586    2.117    0.528
        44  -9.7956    231.9002      7.8516   3.9921651023e+01   2.5681989544e+01    0.3420117    0.2033784  66.55  0.001764994    1.738    0.425
        45 -10.2526    223.4405     15.1426   4.2532849743e+01   2.6934317880e+01    0.3947822    0.3029067   4.18  0.001570107    1.654    0.395
        46 -10.8648    225.1642      7.6546   4.0390155374e+01   2.7308336713e+01    0.5677534    0.3693898  17.70  0.002381825    2.293    0.564
        47  -9.7539    230.5081      2.9988   3.8774787759e+01   2.6502437315e+01    0.3030679    0.1907924 -44.21  0.000929966    1.383    0.277
        48  -8.9369     38.3063     16.4904   8.5347346089e+01   6.9486797838e+01    0.3559162    0.2102221  -3.38  0.001766509    2.283    0.562
        49  -9.9181    147.9736     14.9792   5.1605590700e+01   4.6485611766e+01    0.4123814    0.2336024  45.75   0.00178109    1.765    0.433
        50 -11.1344     81.0291     14.1057   6.6835819241e+01   6.2596734291e+01    0.6514699    0.2881736 -33.51  0.002605701    2.167    0.539
        51  -9.6090    180.6840     11.1933   4.5724568004e+01   3.8234188211e+01     0.297825    0.2510454   1.80 0.0009404222    1.346    0.257
        52 -10.8596    186.7244      8.6568   4.4240543112e+01   3.6903612582e+01    0.6162386    0.3487091  28.58  0.002485074    2.461    0.594
        53 -10.3654    191.9971      6.7683   4.3107502626e+01   3.5716720681e+01     0.313312    0.2100226  89.53 0.0009689076    1.512    0.339
        54  -9.8986    175.7270     10.2177   4.6001867648e+01   3.9638295529e+01    0.3476138    0.2295652  79.91  0.001684726    1.521    0.343
        55  -9.6786    174.6958      6.6068   4.4942518923e+01   4.0260319075e+01    0.2760145    0.1879087  -3.10 0.0006736557    1.744    0.427
        56 -10.0151    171.5887      6.2105   4.5180111545e+01   4.1117472361e+01     0.280763    0.2142114  46.47 0.0006864576    1.351    0.260
        57  -9.3824    169.9274     12.0235   4.7332055909e+01   4.0990637173e+01    0.2676213    0.1486734  46.55 0.0008376788    1.878    0.467
        58  -9.7785    156.2155     10.2962   4.8619600149e+01   4.4791443271e+01    0.3998107    0.1876331  -9.16  0.001513117    2.729    0.634
        59  -9.7818     72.5534     11.5919   6.8387739080e+01   6.4596032994e+01    0.3868809    0.2359188  33.97  0.001363229    1.634    0.388
        60  -9.4171     70.2113      8.1557   6.7379976705e+01   6.5465652181e+01    0.2228177    0.1868772   7.99 0.0007132097    1.039    0.038
        61 -11.0052    151.6732      4.5705   4.7199521901e+01   4.6524647184e+01      0.55781    0.3344539  -5.74  0.000661899    1.947    0.486
        62  -9.7906    138.7077      2.5598   4.8367143146e+01   5.0086541759e+01    0.3649499    0.2264318  -7.67  0.001731385    1.792    0.442
        63  -9.6285    145.9239     10.5568   5.0284030785e+01   4.7472685754e+01    0.3279122     0.187955  44.76 0.0006150533    1.743    0.426
        64 -11.2103    141.7400      8.9131   5.0337328523e+01   4.8723992093e+01    0.9042909    0.3967113  -5.90  0.003206088    3.206    0.688
        65  -9.2476    248.4684      9.4837   3.9139183226e+01   2.1706046843e+01    0.1291063    0.1102635 -52.62 0.0002033378    1.027    0.026
        66  -9.5480     56.3327      8.3272   7.2743790344e+01   6.7969324402e+01    0.3550094    0.1968954  45.44  0.001308069    1.933    0.483
        67 -10.6416    245.3574      3.1042   3.7796658466e+01   2.3063282852e+01    0.5971863    0.3731964  19.79  0.002884092    2.664    0.625
        68  -9.8776    216.9256      6.2917   4.0689447950e+01   2.9452963287e+01    0.4326148    0.2078084 -18.84  0.001877993    2.293    0.564
        69  -8.4122     65.4000      8.2762   6.9180494312e+01   6.6360761121e+01    0.1402255    0.0869872  18.77 0.0006986756    1.757    0.431
        70  -8.8570    133.0002      6.8801   5.1017418414e+01   5.1173823579e+01    0.3791592    0.1887102  85.05  0.001424755    2.833    0.647
        71  -9.4124    158.0858      4.2483   4.6207663514e+01   4.4863898197e+01    0.3973056    0.2387947 -65.62  0.001776566    1.985    0.496
        72 -10.3359    115.4787      4.4815   5.3317632262e+01   5.5795441578e+01    0.3293475    0.2150175  15.81 0.0007735874    1.688    0.408
        73  -9.5330    119.6896      2.0647   5.1438864017e+01   5.4966635613e+01    0.2527844    0.1898406  31.21 0.0007394813    1.302    0.232
        74 -10.2372    184.2396      3.0424   4.2753072769e+01   3.8086611470e+01    0.4523979    0.2477697  49.98  0.001673129    1.901    0.474
        75 -10.2792    105.6784      4.2029   5.5299976828e+01   5.8186948269e+01    0.4449625    0.2903007  87.13  0.001411549    2.137    0.532
        76 -10.5369    165.5966      2.5009   4.4652948314e+01   4.3036018080e+01     0.409834    0.2729505 -72.23  0.001990724    1.659    0.397
        77  -8.8206    196.4397      3.2004   4.1606901155e+01   3.4911741834e+01    0.1945864     0.114954 -39.22 0.0007239248    1.591    0.372
        78  -9.4765     98.7745      3.6516   5.6662551720e+01   5.9853597728e+01     0.249796    0.1324306  67.54 0.0005992117    2.133    0.531
        79  -9.6065     95.3030      1.4431   5.6443678483e+01   6.0851339629e+01    0.3090169    0.1528547  58.22  0.001412483    1.924    0.480
        80  -9.0164     68.1776      2.1267   6.4768778562e+01   6.6534468856e+01    0.1591599      0.15155 -21.93 0.0006859224    1.286    0.223
        81  -8.7757     58.9888      2.0160   6.8061642936e+01   6.8268571981e+01    0.1520987    0.1265012   5.71 0.0004642644    1.017    0.017
        82 -11.5126     14.3408      8.8988   9.4310163986e+01   7.3406057356e+01    0.4530895    0.2846084  13.84  0.002667872    1.777    0.437
        83  -9.2111    238.1807      1.3902   3.7842208428e+01   2.4870143379e+01    0.1769191    0.1091583 -79.98 0.0005015936    1.617    0.382
        84  -9.0361    179.2079      4.1887   4.3648852316e+01   3.9298701065e+01    0.1890262    0.1704119 -41.75 0.0005021625    1.117    0.105
        85  -9.1526     85.1025      1.4692   5.9143457357e+01   6.3117686704e+01    0.2544788     0.116128  53.50  0.001145976    2.033    0.508
        86  -9.2361     26.1552      1.4502   8.3140001664e+01   7.3349201516e+01    0.1544731    0.1091318  25.64 0.0006731524    1.513    0.339
        87  -9.1728     19.5775      1.2532   8.6814494520e+01   7.4137556241e+01     0.168549   0.09440795  26.08 0.0004213959    1.951    0.487
        88  -8.7600    100.9562    107.7576   9.4514211286e+01   4.0640285054e+01    0.1860797     0.127526  41.10 0.0005120104    1.556    0.357
        89  -9.6947    214.7756    249.6468   9.6272811387e+01  -4.0616673607e+00    0.1852174    0.1568753  25.75 0.0009843665    1.264    0.209
        90  -9.5715    127.6378    250.2978   1.1096396182e+02   8.4644838364e+00    0.1723308     0.105172  61.84  0.001095827    1.740    0.425
        91 -10.5663     21.4591    249.9977   1.2840795017e+02   2.1808784788e+01    0.2588803    0.1190878  48.74  0.001534761    1.542    0.352
        92  -9.6298    203.1125    106.4546   7.0513809698e+01   1.8614627239e+01    0.2145875    0.1493555  51.55 0.0004270241    1.525    0.344
        93 -11.2303     92.3024    104.6448   9.6210735477e+01   4.2901161981e+01    0.4492052    0.2762594  47.82 0.0005027036    1.752    0.429
        94  -9.8859     59.7849    105.4600   1.0607390921e+02   4.7623042791e+01      0.38453    0.1325578  34.50  0.001460224    3.189    0.686
        95  -9.4838     73.2638    104.3105   1.0175249730e+02   4.6033244223e+01    0.2862372    0.1487201  56.79  0.001151996    2.583    0.613
        96 -11.5989     47.4082     99.6056   1.0873803574e+02   5.0538961603e+01    0.7139332    0.5125667  37.22  0.001635802    1.598    0.374
        97  -9.8820     39.0960     96.3837   1.1076523899e+02   5.2209202072e+01    0.3083642    0.2074541 -77.75  0.001179914    1.369    0.270
        98  -9.9986     49.2080     91.9684   1.0659299499e+02   5.2175863936e+01    0.5668718    0.2530597 -74.23  0.001581878    2.835    0.647
        99 -10.2380     51.1515     86.6245   1.0474931225e+02   5.3226951712e+01    0.3960548    0.2560419 -23.27  0.001900637    2.217    0.549
       100 -11.3314    240.6003    110.2686   6.5291349788e+01   9.9561515967e+00    0.6148227    0.2468109 -27.92  0.002379354    2.378    0.579
       101  -9.9672     39.1107    113.3017   1.1364109111e+02   4.8115199763e+01     0.193896       0.1663 -31.40  0.001211858    1.469    0.319
       102  -9.1669    114.0455    102.5515   8.9563346864e+01   3.9331354759e+01    0.2281862    0.1510617  44.56   0.00102487    1.583    0.368
       103  -9.7007    106.2241    101.2016   9.1366310009e+01   4.1162949273e+01    0.2693814    0.2034831  51.36 0.0003686773    1.411    0.291
       104  -9.7774     87.4942    101.3476   9.6805040090e+01   4.4493035054e+01    0.3093477     0.205069  26.90 0.0009331424    1.900    0.474
       105  -9.3652    143.2935    100.0257   8.1339419575e+01   3.3636024665e+01    0.2181514    0.1933677 -42.33 0.0003182443    1.096    0.088
       106 -10.3472    118.6908     99.1231   8.7378156406e+01   3.9153505516e+01    0.2822461    0.2256536  34.04 0.0005522402    1.375    0.273
       107  -8.3518     83.3286     99.2919   9.7539216848e+01   4.5664954728e+01    0.1432939    0.1117353 -22.79 0.0007019458    1.624    0.384
       108  -9.0698     73.6586     98.6844   1.0033595724e+02   4.7319034729e+01    0.2251193     0.160588 -30.27  0.001098786    1.741    0.426
       109  -9.2119     66.1099     99.3209   1.0281806118e+02   4.8255252149e+01    0.1835977     0.170717  87.03 0.0003507731    1.113    0.102
       110 -10.0091     60.4057     96.9111   1.0406724803e+02   4.9604323389e+01    0.5281475    0.2795916 -83.20  0.001978487    3.100    0.677
       111 -10.2115    127.9398     97.1660   8.4386074212e+01   3.7630164085e+01     0.273531    0.2215627 -40.89 0.0005705276    1.200    0.167
       112  -9.4172     99.1457     97.7568   9.2469950166e+01   4.3277925761e+01    0.3071535    0.1869459 -29.86  0.001243587    2.219    0.549
       113 -10.5334     92.4901     96.4090   9.4063449779e+01   4.4786891806e+01    0.4398012    0.2662296 -34.18  0.001551285    1.996    0.499
       114  -9.9693    109.7373     95.4011   8.8807908834e+01   4.1787737506e+01    0.3544321    0.3449567  46.17  0.001958849    1.090    0.083
       115  -8.7303     32.4634     95.2654   1.1269497254e+02   5.3123068907e+01    0.2781684    0.1099748 -68.04 0.0007334925    2.113    0.527
       116 -10.8989     33.5865     90.4941   1.1145469352e+02   5.4166825108e+01    0.3242821    0.2668187  27.87  0.001515768    1.489    0.329
       117 -10.0015     86.9897     94.7802   9.5284322164e+01   4.6114593284e+01    0.4029028    0.2398654  52.65  0.001628105    1.967    0.492
       118  -9.9108    147.0625     93.8310   7.8672663388e+01   3.4041956924e+01    0.2984848    0.2548554 -58.76  0.001253819    1.229    0.187
       119 -11.5425     27.3355     89.3736   1.1332740401e+02   5.4995969419e+01    0.6571201    0.3801584 -45.42  0.003513565    1.729    0.422
       120 -10.8104     19.9976     90.9011   1.1601201342e+02   5.5222132783e+01    0.3007833    0.2084565 -75.29  0.001818866    1.177    0.150
       121 -10.6850     36.4401     84.3383   1.0926099406e+02   5.5368358513e+01    0.4267698    0.2720873 -78.08  0.001413127    1.557    0.358
       122 -12.1183     31.1309     80.6682   1.1034409461e+02   5.6741730238e+01    0.3463106    0.2356874 -53.47 0.0003993821    1.250    0.200
       123 -10.2223    130.1322     91.4124   8.2162412924e+01   3.8374676238e+01    0.4517419    0.3121589  27.42  0.001949231    1.820    0.451
       124 -11.2813    118.1712     91.8911   8.5476901867e+01   4.0844628168e+01    0.4887041     0.299124  41.86  0.001307988    1.739    0.425
       125  -9.2296    241.3186     92.0284   6.0705066034e+01   1.2529236643e+01    0.2083435    0.1602836 -29.37 0.0007506937    1.138    0.121
       126  -9.8189    154.2582     91.4390   7.6299998488e+01   3.2835262636e+01     0.250446      0.23683 -54.07 0.0004846184    1.065    0.061
       127  -9.4663    208.1138     90.4452   6.5392970496e+01   2.0159357489e+01    0.2437219    0.1955077 -50.88 0.0003643045    1.298    0.229
       128  -8.5721    185.7051     97.7072   7.1440469442e+01   2.4179777923e+01    0.1537075    0.1196355  10.76 0.0004393848    1.557    0.358
       129  -8.7575    168.3022     90.2978   7.2880071996e+01   2.9699746076e+01    0.1572355    0.1231482  11.15 0.0002426967    1.581    0.368
       130 -11.4532     88.1943     88.9573   9.3346163683e+01   4.7254478905e+01    0.3170949    0.2944455  18.77 0.0002755905    1.213    0.176
       131 -12.8880     61.7344     84.9999   1.0079701285e+02   5.2265386995e+01    0.5473565    0.4525431  28.47  0.001194491    1.413    0.292
       132 -11.0203     58.6621     74.6399   9.9083698192e+01   5.5092335296e+01    0.6288414    0.3474838  44.37  0.002951046    2.134    0.531
       133 -11.4169     71.3063     84.4344   9.7475200279e+01   5.1031724793e+01    0.6961738    0.3918306  62.01  0.002764976    2.894    0.654
       134  -8.8715    146.7340     88.0304   7.7044983275e+01   3.5279985927e+01    0.1889845    0.1340437 -40.42 0.0002712441    1.362    0.266
       135  -8.9483    113.5178     86.4725   8.5166579542e+01   4.2985863630e+01    0.1534574    0.1454856 -46.12 5.480564e-06    1.001    0.001
       136 -10.5943     67.4374     78.5931   9.7155114406e+01   5.2956535004e+01    0.4462028    0.2937341 -17.21   0.00192537    2.304    0.566
       137  -9.2425    153.3278     85.3797   7.4715619134e+01   3.4235800796e+01    0.2198011    0.1755126  12.59 0.0002893232    1.534    0.348
       138  -8.9013     14.3767     84.8622   1.1691725681e+02   5.7065313387e+01    0.1739587   0.08659151 -61.37 0.0004080191    1.537    0.349
       139  -9.4801    238.3097     84.3004   5.9174535841e+01   1.4314954311e+01    0.1409668    0.1062264  10.80 0.0002867701    1.601    0.376
       140  -8.8719    159.4677     84.4118   7.3049162616e+01   3.2941568457e+01    0.1549485    0.1517131 -39.69 4.691961e-05    1.019    0.018
       141  -8.4825    109.6612     84.3073   8.5605532481e+01   4.4244808747e+01    0.1547894    0.1210889 -86.15 0.0007042396    1.681    0.405
       142  -9.9654     44.3397     89.8040   1.0773910267e+02   5.3242812695e+01    0.2428447    0.2045658  30.35 0.0008823065    1.420    0.296
       143  -8.8797     18.7082     84.3377   1.1535693459e+02   5.6883624080e+01    0.1841299   0.08650259 -69.26 0.0009064812    1.685    0.407
       144  -9.7537     20.5341     80.2073   1.1398904334e+02   5.7728406462e+01    0.3734022    0.2309889  86.48  0.002006461    1.823    0.451
       145  -9.4022    163.4922     83.0004   7.1751587654e+01   3.2226859728e+01     0.231251    0.2141965  42.13 0.0005976878    1.115    0.103
       146 -10.3029    226.6046     81.3797   6.0073135053e+01   1.7343044739e+01     0.302678    0.1907413 -50.56  0.001079928    1.691    0.409
       147 -10.5126    180.4984     80.5250   6.7561254271e+01   2.8491247663e+01    0.4309443    0.3717965  14.98   0.00212843    1.291    0.225
       148  -9.5723    129.8725     81.6153   7.9265627840e+01   4.0460428680e+01    0.2587378    0.2030337 -31.18 0.0004087879    1.286    0.222
       149  -9.2699     45.0166     81.5573   1.0566732920e+02   5.5136616466e+01    0.2246449    0.1529746 -62.35 0.0006774016    1.247    0.198
       150  -9.7128    242.4556     80.9447   5.7765031861e+01   1.3914044458e+01    0.2172763   0.09199697 -47.49 0.0008089005    2.607    0.616
       151 -10.3669      3.2858     79.1348   1.1983883984e+02   5.9087274507e+01    0.2682955    0.1920361 -63.91   0.00162679    1.115    0.103
       152  -9.7220      1.7181     71.1593   1.1919081400e+02   6.1026897703e+01    0.3871992     0.104983 -60.19  0.001711386    2.384    0.580
       153  -9.9082      6.0818     73.1381   1.1792009471e+02   6.0337037171e+01    0.4149241    0.2272386 -38.42  0.002321421    1.970    0.492
       154  -9.5792     11.9984     70.9868   1.1536639498e+02   6.0488539453e+01    0.2663455    0.1508772 -75.03  0.001472111    1.509    0.337
       155 -10.2397      6.8867     67.4757   1.1664215483e+02   6.1608635157e+01     0.283553     0.193297  21.17  0.001801901    1.879    0.468
       156 -12.1741    121.3350     75.3097   7.9520887684e+01   4.3649509450e+01    0.6819943    0.4019399  31.39  0.002692426    2.198    0.545
       157  -9.5215    112.1012     75.8722   8.2268965401e+01   4.5529428056e+01    0.2864104    0.2188276  35.18  0.000746757    1.429    0.300
       158  -9.5732      9.5868     79.9204   1.1777278399e+02   5.8542722956e+01    0.2081046    0.1565991 -29.01  0.001347502    1.598    0.374
       159  -9.4677    151.4974     77.3670   7.2672256927e+01   3.6202939481e+01    0.3333206    0.1518758 -36.94  0.001197657    2.119    0.528
       160  -9.1038     49.3769     77.7531   1.0320410596e+02   5.5535181747e+01    0.2017226    0.1040343 -50.73 0.0005697249    1.641    0.391
       161 -10.0885    219.0610     76.9416   5.9999041563e+01   1.9755630352e+01    0.4987621    0.2208985  60.03  0.001927337    2.509    0.601
       162  -9.4934    250.6493     74.9499   5.5223592370e+01   1.3030469425e+01    0.3387163    0.1155909 -29.88  0.001252717    2.540    0.606
       163  -8.9975     85.5883     76.7411   9.0596298584e+01   5.0465556288e+01    0.1473763    0.1125685  -5.30 0.0005256873    1.743    0.426
       164 -10.9373     37.9858     74.3747   1.0646769457e+02   5.7573408660e+01    0.4238921    0.1888965 -46.53 0.0008896259    2.025    0.506
       165  -8.8806    189.8196     75.6156   6.4395346070e+01   2.7023905250e+01    0.2049512    0.1505299  74.47 0.0005274748    1.614    0.380
       166  -9.6339    179.4971     70.5140   6.4757636182e+01   3.0454615909e+01    0.3347877      0.23957  49.96  0.001539544    1.445    0.308
       167 -10.1368    173.6372     73.9197   6.6916156727e+01   3.1345397268e+01    0.4623147    0.2798309 -17.15  0.001807795    2.089    0.521
       168  -9.8973    101.8804     75.0150   8.4981546155e+01   4.7800531041e+01    0.2228068    0.2085026 -42.06 0.0003970417    1.011    0.011
       169  -9.8330    106.1496     74.1611   8.3436446484e+01   4.7121069030e+01    0.3372988     0.263773  13.78  0.001158302    1.597    0.374
       170 -10.0824     93.9079     75.1629   8.7467635663e+01   4.9306166788e+01    0.3081287    0.2157457  39.63 0.0008202386    1.553    0.356
       171  -9.4653    127.5960     74.2232   7.7500983875e+01   4.2460017809e+01    0.2644173    0.2148839   0.87 0.0006263931    1.486    0.327
       172 -10.1650    130.5065     72.4805   7.6176928642e+01   4.2132775908e+01    0.3474382    0.2687561 -18.88  0.001226786    1.439    0.305
       173 -10.7704     27.5874     44.0072   1.0210030302e+02   6.5392984616e+01    0.9252603    0.3075621 -54.87  0.003936205    2.346    0.574
       174 -11.1189    199.7614    246.9640   9.8363041668e+01  -1.6497001507e+00    0.3723963    0.2235635  40.62   0.00246809    1.381    0.276
       175 -10.4161      3.2662    246.9833   1.3106782366e+02   2.4076668383e+01    0.1693986    0.1130854  49.20 0.0009874282    1.367    0.268
       176  -9.4392     52.6200    244.9608   1.2320066698e+02   1.9190534953e+01    0.2102274   0.08804619 -73.59  0.001269529    2.536    0.606
       177  -9.0260    118.3129    242.3331   1.1178722334e+02   1.0943653347e+01    0.1019625    0.0824616  16.10  0.000704498    1.681    0.405
       178 -11.1805     31.3042     59.8980   1.0531103314e+02   6.1556294662e+01     1.039256    0.4203153 -68.58  0.002310593    2.894    0.654
       179 -10.4270     18.1342    242.1058   1.2861269861e+02   2.3424569933e+01    0.1385648    0.1106196  73.97 0.0005892646    1.280    0.219
       180 -10.3463    165.8353    246.3665   1.0399703264e+02   3.3962108352e+00    0.1958902     0.155555  35.24 0.0002974267    1.046    0.044
       181  -8.2803     24.3043    240.3369   1.2756055969e+02   2.3085747693e+01   0.08204309   0.07399283 -75.29 0.0006047753    1.670    0.401
       182  -9.3086     57.5227    238.9554   1.2201483021e+02   1.9586857273e+01    0.1440916   0.09166086 -84.25 0.0008860274    1.578    0.366
       183 -11.8312      8.3097    238.9706   1.3003435435e+02   2.4908681970e+01    0.4086999    0.1731783  80.48  0.002672164    1.970    0.492
       184  -9.3394    163.5314     73.4495   6.8819218876e+01   3.3953502930e+01    0.2998884    0.1319227  43.86  0.001026614    2.528    0.604
       185  -8.7537     89.4992     73.5099   8.8330177357e+01   5.0477632131e+01     0.148681    0.1360762 -40.99 1.331591e-05    1.006    0.006
       186 -10.4230     68.7831     68.0444   9.3537586137e+01   5.5137696688e+01    0.6532882     0.326822 -45.86  0.002866957    1.768    0.434
       187 -11.0420     45.8023     72.8319   1.0321868528e+02   5.7096557601e+01    0.2329377    0.1908024 -46.24 0.0002853452    1.108    0.097
       188  -9.4628    245.4805     71.9293   5.5099157283e+01   1.4554835563e+01    0.2202647    0.1228302 -30.39  0.001022427    1.561    0.359
       189  -9.4778    216.4400     70.7583   5.8700135233e+01   2.1317954301e+01    0.4761857    0.1262828 -32.56  0.001458074    3.256    0.693
       190  -9.4583    140.3039     71.8631   7.3536277052e+01   3.9941580643e+01    0.2590099    0.2185692 -80.98 0.0006730407    1.415    0.293
       191 -11.5187     79.9219     70.4341   9.0473743987e+01   5.2825677751e+01     0.650319    0.4637792  50.87  0.003027364    1.636    0.389
       192 -10.5464     86.8086     68.1940   8.7463648525e+01   5.2106604166e+01     0.736506    0.2912048  38.42  0.002684017    2.882    0.653
       193 -10.3396     85.9355     64.0284   8.6338336723e+01   5.3141468586e+01    0.3791146    0.2659889  23.89 0.0006952648    1.734    0.423
       194  -9.5254    192.0246     70.8886   6.2623380092e+01   2.7253537172e+01    0.2331241     0.228019 -48.38 0.0008084183    1.037    0.036
       195  -9.8299    113.5514     63.6803   7.7752000601e+01   4.7665127495e+01     0.305739    0.2720326  -9.65 0.0009833844    1.169    0.144
       196 -10.0203    110.8338     70.6242   8.0906086658e+01   4.6874851496e+01    0.3007406    0.1517334  49.98  0.001174084    2.146    0.534
       197 -10.5248    115.1178     68.6604   7.9028219069e+01   4.6347715272e+01    0.3970203    0.3149473  68.63  0.001446706    1.521    0.343
       198 -10.2935    101.2803     69.6210   8.3388386189e+01   4.9050511079e+01    0.2834879    0.2284157  73.58 0.0009104456    1.583    0.368
       199 -11.6351     99.5839     63.1166   8.1668706850e+01   5.0714853388e+01    0.7411307    0.5182076 -28.42  0.003501165    1.481    0.325
       200  -9.2006    168.4416     68.5210   6.6274590212e+01   3.3581092313e+01    0.3348823    0.1514695 -32.33  0.001201662    2.169    0.539
       201 -11.2605    144.2891     55.7228   6.7162097648e+01   4.1843437250e+01     1.226535    0.6339374  80.35  0.003363575    4.924    0.797
       202 -10.1835    147.3615     68.4486   7.0759133494e+01   3.8859788222e+01    0.2849798    0.2406821 -23.30 0.0008359165    1.202    0.168
       203  -9.7122     55.6165     64.3874   9.7169035957e+01   5.7818466529e+01    0.3749724    0.2185516 -51.98  0.001499146    1.473    0.321
       204  -9.5374    121.4188     67.5400   7.6914376755e+01   4.5169518544e+01    0.3946167    0.1347889 -43.79  0.001250269    2.872    0.652
       205  -9.3287     62.0936     67.5095   9.5756481287e+01   5.6237890520e+01    0.2135036    0.1665274 -49.46 0.0006514342    1.117    0.105
       206  -8.6699     37.3157     68.3282   1.0520607674e+02   5.9047748184e+01    0.1383347   0.08489501 -37.26 0.0007045064    1.676    0.403
       207  -9.0007    187.2149     67.3961   6.2420934078e+01   2.9023923156e+01    0.2136762     0.150639  76.82 0.0009437175    1.704    0.413
       208  -9.9547     46.6142     65.3974   1.0086621952e+02   5.8709113897e+01    0.4469972    0.2215254  19.08  0.001895913    2.912    0.657
       209  -9.4694    228.9339     65.0239   5.5409426756e+01   1.9236919585e+01    0.2167556    0.1863372 -45.08 0.0003090636    1.084    0.077
       210 -10.2100    125.7024     64.6046   7.4770057418e+01   4.4750921039e+01    0.3177428    0.2389962 -81.00 0.0007193991    1.877    0.467
       211  -9.1849    108.0443     65.3203   7.9905905860e+01   4.8529209510e+01    0.1997724    0.1974888  24.31 0.0004745557    1.075    0.070
       212  -9.5006     55.5505     68.2401   9.8360111263e+01   5.6962618783e+01     0.227735    0.1696255 -64.95  0.000367836    1.340    0.254
       213  -9.1187    236.2926     63.3778   5.4036547908e+01   1.7789710730e+01    0.1446143    0.1068085   9.88 0.0007021272    1.741    0.426
       214  -9.9180    218.2426     61.5737   5.5909063931e+01   2.2254761348e+01    0.3792287    0.2365157 -11.97  0.001640379    1.968    0.492
       215 -10.3101    131.6524     60.5407   7.1838157344e+01   4.4098916735e+01    0.7582456    0.2361796 -42.18  0.002307728    3.160    0.684
       216 -10.1508     12.5949     57.7864   1.1241356801e+02   6.3494817482e+01    0.3400737    0.1997249 -25.86  0.001899602    2.035    0.509
       217 -11.2382      4.7763     56.8068   1.1541782476e+02   6.4169636543e+01    0.6816043    0.2642014 -49.69  0.003415544    2.009    0.502
       218  -9.3181     10.4740     55.0018   1.1265694535e+02   6.4257545306e+01    0.2691965    0.1126794 -44.96  0.001090293    2.053    0.513
       219  -8.9550     45.9689     62.0192   1.0011842298e+02   5.9545146644e+01    0.2026408    0.1374483 -30.91 0.0004684172    1.566    0.362
       220  -9.4111    245.3449     61.1394   5.2378036933e+01   1.6085418179e+01    0.1841633    0.1764208  16.02  0.001127172    1.183    0.155
       221  -8.8764    198.4910     61.5338   5.8806392332e+01   2.7109904977e+01     0.150303    0.1439424 -21.81 0.0008090707    1.053    0.051
       222  -9.0000     75.4453     60.8361   8.8800560265e+01   5.5631893481e+01    0.1997561    0.1230927 -36.41 0.0009271686    1.560    0.359
       223 -10.1577     49.4645     57.4222   9.7316789270e+01   6.0141238862e+01    0.4891774    0.2453076 -41.46  0.002265392    1.822    0.451
       224 -10.7197     40.3773     60.5242   1.0186446065e+02   6.0506650435e+01    0.4106295    0.2591378  17.32  0.001634365    2.010    0.503
       225  -9.6348     44.7137     56.8587   9.9018854807e+01   6.0835336610e+01    0.3227158    0.1900999 -22.62  0.001429586    2.300    0.565
       226 -10.2640     48.3267     50.9247   9.5582269769e+01   6.1679364649e+01    0.3779818    0.2904239 -26.61  0.002200527    1.286    0.223
       227  -9.1015     52.5176     48.4895   9.3009021950e+01   6.1646258326e+01     0.319492    0.1805041 -48.28 0.0008486612    1.531    0.347
       228  -9.0835    184.6729     60.3424   6.0721660656e+01   3.0791184883e+01    0.2416575    0.1700761 -63.02 0.0009018563    1.674    0.403
       229  -9.4234    163.4864     59.9901   6.4534590683e+01   3.6272184749e+01    0.2543471    0.1986084  -5.52  0.000631956    1.490    0.329
       230  -9.6600    160.1167     60.0325   6.5228047822e+01   3.7124802953e+01    0.2577213    0.2221958  53.84 0.0003934735    1.186    0.157
       231 -10.8423    153.4285     66.6013   6.8796160594e+01   3.7687614613e+01    0.4856808    0.4064595 -37.73  0.001702021    1.158    0.136
       232 -11.1533     89.2683     38.4175   7.5387315537e+01   5.7357686931e+01     0.361733    0.3091258 -70.76 0.0009198969    1.545    0.353
       233 -10.9222     85.4260     53.3630   8.2655600728e+01   5.5386065423e+01    0.7090701    0.3961194 -28.25  0.002995612    2.022    0.505
       234  -9.2939    103.5004    232.9676   1.1349902891e+02   1.4507338536e+01    0.1467187    0.1091929 -66.00  0.001024961    1.595    0.373
       235 -12.0809     88.9550     30.0872   7.1861293628e+01   5.8756725485e+01    0.3930693    0.3681009 -70.56 0.0005408336    1.335    0.251
       236  -9.7575     14.9961    231.2985   1.2867944719e+02   2.5555850038e+01    0.1424765    0.0978869  65.74 0.0005762164    1.037    0.036
       237  -9.3047     31.1479    223.2981   1.2559719812e+02   2.5294403536e+01    0.1477439    0.1241769  44.77  0.001185539    1.482    0.325
       238 -10.5074    108.0706     28.0072   6.5352812935e+01   5.4879319781e+01    0.3743892    0.2923386 -12.89  0.001607854    1.279    0.218
       239 -10.1565    119.5547     54.9307   7.2958710856e+01   4.7942054040e+01    0.6445218    0.1317236 -37.99  0.001668463    4.439    0.775
       240  -9.7548    115.9341     57.8190   7.4996741639e+01   4.8242565123e+01    0.3736559    0.2019915 -42.06  0.001529182    1.791    0.442
       241  -9.1448    109.6045     57.9521   7.6830990530e+01   4.9617086024e+01    0.3434764    0.1787887  32.56  0.001270547    2.570    0.611
       242  -8.9933     70.7851     58.2413   8.9547676719e+01   5.6935680864e+01    0.1860207     0.147809 -25.00  0.000288069    1.268    0.211
       243  -8.8880     13.1568     51.1905   1.1059164599e+02   6.4945085128e+01    0.1789115    0.1598581  40.23  0.001263968    1.428    0.300
       244  -9.2360    242.8651     56.6344   5.1510282236e+01   1.7246977346e+01    0.1880566    0.1309894  87.59  0.000949214    1.764    0.433
       245  -9.3786    157.0297     55.2368   6.4264240004e+01   3.8698382282e+01    0.2896944    0.1794694 -44.92 0.0009768753    1.639    0.390
       246  -9.0178    104.7810     56.3723   7.7662541745e+01   5.0949381014e+01    0.2519257    0.2056911   5.77  0.001151734    1.396    0.284
       247 -11.0540    108.9407     51.2557   7.4529629837e+01   5.0987731926e+01    0.4092605    0.2727698  26.67 0.0003867366    1.829    0.453
       248  -8.7978    192.5113     55.5364   5.7964014135e+01   2.9526793376e+01    0.1543753    0.1408533 -54.33 0.0001285654    1.076    0.070
       249  -9.7169    184.3145     52.9531   5.8498646973e+01   3.2014281215e+01    0.4410312    0.1828865 -27.76  0.001551326    2.438    0.590
       250  -9.8169     76.8687     54.9288   8.6184762255e+01   5.6607406261e+01    0.2791874    0.2254691  -1.15 0.0008829078    1.407    0.289
       251 -10.4324     72.0841     45.1652   8.4150348265e+01   5.9336899530e+01    0.8173153    0.1881116 -41.92  0.002450814    3.937    0.746
       252  -9.8826     73.2098     37.8489   8.0698331817e+01   6.0486542437e+01    0.2775377    0.2481056  21.17   0.00146624    1.171    0.146
       253 -10.0677     56.8395     31.3019   8.4196372527e+01   6.4337666322e+01    0.3181015    0.2028022 -34.71 0.0008534795    1.372    0.271
       254 -11.5830     65.0406     52.0815   8.9443115104e+01   5.9109625161e+01    0.6371838    0.5882459 -76.75  0.003253249    1.314    0.239
       255 -10.9608     50.9856     27.4979   8.4932899605e+01   6.5876685429e+01    0.4620758    0.4233983 -50.62  0.001985329    1.355    0.262
       256 -10.6658     43.1328     25.0040   8.7277919397e+01   6.7401897083e+01    0.4100793    0.3717365 -56.61  0.001552658    1.434    0.303
       257 -10.2551     67.4487     36.6120   8.2322997220e+01   6.1696025133e+01    0.4097914    0.2577651  32.03  0.001376756    1.747    0.428
       258 -10.5171     66.2131     42.9469   8.5455509212e+01   6.0729034163e+01    0.2806599    0.2208103 -33.76  0.000420131    1.118    0.106
       259 -10.0240    145.0682    219.8993   1.0439443533e+02   1.0284765388e+01    0.2666809    0.1959488 -29.36   0.00166175    1.845    0.458
       260  -9.6083    219.6717     54.3607   5.3721046786e+01   2.2943888010e+01    0.2601261    0.1724019  63.20 0.0005291122    1.619    0.382
       261  -9.3057      1.2501     52.4843   1.1599782656e+02   6.5320687948e+01     0.223344   0.07931124 -68.45  0.001030395    2.142    0.533
       262  -9.7217      5.5639     48.6375   1.1328040959e+02   6.5964121281e+01    0.3533284    0.1756069 -35.92  0.001441083    2.021    0.505
       263 -10.5299      2.0639     45.8270   1.1417442886e+02   6.6765466944e+01    0.4102236    0.1482621 -66.10  0.001692262    2.089    0.521
       264  -9.1114    205.0273     52.6630   5.5232016350e+01   2.6784442930e+01     0.200028    0.1983403 -32.49 0.0005486314    1.067    0.063
       265 -10.3391    163.9338     49.8833   6.1111595459e+01   3.7760041336e+01    0.3404143    0.3037836 -31.35 0.0008216545    1.099    0.090
       266  -9.5361    159.5569     49.5314   6.1833169710e+01   3.8947426489e+01     0.283644    0.2214115  60.07 0.0006209462    1.305    0.234
       267 -10.2522    142.3724     50.8249   6.5872558537e+01   4.3129859208e+01    0.7458102    0.4030376  10.06  0.001946514    5.474    0.817
       268 -10.0195    154.5764     61.1723   6.6760433522e+01   3.8338601596e+01     0.637415    0.4276427  27.29  0.002493666    1.902    0.474
       269  -9.6026    125.0924     50.3152   6.9809434786e+01   4.7445768594e+01    0.2607217    0.2166423 -32.52 0.0006366392    1.165    0.142
       270  -9.6143    122.5925     45.8264   6.8758496477e+01   4.8784271100e+01    0.3950727    0.2444277 -42.29  0.001455521    1.631    0.387
       271 -11.7773    128.7863     44.8192   6.6837253673e+01   4.7454974947e+01    0.5579038    0.4845283  85.17  0.001923072    1.343    0.256
       272  -9.6909    123.9881     41.7457   6.6841900055e+01   4.9100169758e+01    0.3003278    0.2418325  41.86  0.001034276    1.250    0.200
       273  -8.2760    197.3112     50.6297   5.5753299333e+01   2.9023370345e+01    0.1654337    0.1055727 -58.35 0.0007035049    1.772    0.436
       274 -10.1621     41.2656     47.2638   9.7233305469e+01   6.3296860260e+01    0.6669117    0.4321702 -68.19  0.001792822    1.908    0.476
       275  -9.5482    232.1319     48.8515   5.0700789345e+01   2.0743106841e+01    0.2181623    0.1724505 -59.22 0.0004953443    1.255    0.203
       276  -9.7967    226.3333     54.0813   5.2797959578e+01   2.1392786460e+01    0.2857856     0.132748 -20.70  0.001080933    2.461    0.594
       277  -8.7354    103.4807     49.5422   7.5467710364e+01   5.2478757915e+01    0.2269992    0.1393852 -24.30 0.0005759761    1.774    0.436
       278  -9.4625    105.3372     46.3600   7.3679696353e+01   5.2635718840e+01    0.3075153     0.211223  11.97 0.0009427152    1.946    0.486
       279  -9.5622    203.6458     48.0390   5.4075760189e+01   2.7785589617e+01    0.3357176    0.1919622 -84.51   0.00128626    2.612    0.617
       280 -10.6252    137.9671     46.0785   6.5154712773e+01   4.4989064417e+01    0.4543764    0.3503102 -19.69  0.002090064    1.339    0.253
       281 -10.5224    145.3501     42.8751   6.2380895497e+01   4.3611690253e+01    0.3470961    0.2230481  63.74 0.0006440728    1.642    0.391
       282  -8.4845     10.4917     46.4674   1.1054568413e+02   6.6161136078e+01    0.2083381    0.1159607 -55.32 0.0007463066    1.338    0.253
       283  -9.9661      8.9971     41.9993   1.1002055888e+02   6.7229248545e+01    0.4134501    0.2074514 -57.34  0.001653051    1.474    0.321
       284  -9.9006    165.8510     45.0502   5.9139700244e+01   3.7982279219e+01     0.275891    0.2243093  78.03 0.0003367238    1.325    0.245
       285  -9.1266    161.8227     45.3722   5.9989390979e+01   3.8985420044e+01    0.2385943    0.1483184  57.48  0.001030549    1.605    0.377
       286  -9.9227    220.0067     41.7007   5.0167782126e+01   2.4583305162e+01    0.3366447    0.2558151  27.25  0.001055935    1.647    0.393
       287 -10.8625    228.8117     43.0860   4.9534481175e+01   2.2286145500e+01    0.4832516    0.2488805  60.75  0.001974351    2.048    0.512
       288 -11.1594    224.9266     41.2672   4.9479742529e+01   2.3449910675e+01    0.4772597    0.3344848 -22.34  0.001853481    1.437    0.304
       289  -9.2348    178.3117     47.3790   5.7736983045e+01   3.4391751767e+01    0.1997985    0.1468003  77.96 0.0005329716    1.509    0.337
       290  -9.4660    187.3710     43.4365   5.5048826825e+01   3.2595251224e+01    0.4347562    0.2925353  17.58  0.001866568    2.053    0.513
       291 -10.6210    116.4094     42.5208   6.9087680678e+01   5.0773870316e+01    0.4913343    0.3592363  76.10  0.001736965    1.806    0.446
       292  -9.4529    111.4921     42.5191   7.0415086706e+01   5.1906806631e+01    0.2305023    0.2211227   6.96 0.0006656762    1.035    0.034
       293  -9.0746    108.2827     38.6726   6.9757036060e+01   5.3250974063e+01    0.2101401    0.1536828  56.15 0.0001733574    1.473    0.321
       294  -9.1838    110.9911     37.2255   6.8421385180e+01   5.2859528510e+01     0.306443    0.2453303 -34.71  0.001214664    1.229    0.186
       295 -11.1164     18.7142     41.5706   1.0536767579e+02   6.6658554783e+01    0.6105356    0.4851762 -44.91  0.004095313    1.042    0.040
       296  -9.9288    153.6453     41.1532   6.0090169765e+01   4.1727100738e+01    0.4070892    0.2435467 -33.28  0.001568133    1.623    0.384
       297 -10.4340    164.8688     35.7416   5.6163629642e+01   3.9542878134e+01    0.6493657    0.3488138 -30.74  0.002704724    1.805    0.446
       298 -10.2939    158.3748     35.3070   5.7152218380e+01   4.1307636626e+01    0.4021668    0.2868507  47.27  0.001555622    1.419    0.295
       299 -10.5164    152.9343     34.9645   5.8030593794e+01   4.2777105558e+01    0.3872269    0.2771938 -58.18 0.0003095718    1.596    0.373
       300 -11.3724    153.2690     28.5612   5.5672093412e+01   4.3525601427e+01    0.4241243    0.3833536  18.62 0.0006281848    1.158    0.137
       301 -10.3558     74.4841    216.9233   1.1734627781e+02   2.1245764392e+01    0.3430646    0.1969085  60.12  0.001966293    1.490    0.329
       302  -9.7266     10.5723    218.0239   1.2886455098e+02   2.8324805200e+01    0.1436911   0.07858697 -89.74  0.000320146    1.517    0.341
       303  -9.3785    197.8724     39.8145   5.2428555897e+01   3.0376383358e+01    0.2199771    0.1901427  31.44 0.0006199987    1.303    0.232
       304  -9.1977    179.2360     39.8694   5.5175683507e+01   3.5208111135e+01     0.201478    0.1712767  18.75 0.0003744897    1.332    0.249
       305 -10.2910     51.5528     38.2164   8.9402539325e+01   6.3827301456e+01    0.3958723    0.3760753 -58.39  0.002567078    1.292    0.226
       306 -10.6564     42.2090     37.8342   9.3285549463e+01   6.5113232857e+01    0.4170786    0.4040647 -25.87  0.002835902    1.230    0.187
       307  -9.0746     38.4980     34.5099   9.3608702592e+01   6.6207444684e+01    0.3287989    0.2125482  18.81  0.001838073    1.814    0.449
       308  -8.8379     34.5085     39.5017   9.7382669423e+01   6.5652217685e+01     0.130539    0.1044869 -38.31 -0.0001173334    1.020    0.020
       309 -10.9975    236.3802     36.9245   4.7094200231e+01   2.1298794323e+01    0.4274607     0.266954 -50.65  0.001574535    1.495    0.331
       310 -10.0622    200.8353     35.8266   5.0842258711e+01   3.0139375597e+01    0.3842415    0.2382438 -66.99  0.001684838    1.911    0.477
       311  -9.6476    182.1626     25.1640   5.0017375071e+01   3.6312132185e+01    0.3728622    0.2994268   3.71  0.001912803    1.449    0.310
       312 -10.4173    188.6929     31.3064   5.1073001260e+01   3.3852136799e+01    0.3988599     0.300641  19.21  0.001079453    1.639    0.390
       313 -10.1038    186.5090     27.3035   5.0112614444e+01   3.4915204406e+01    0.4561902    0.3132004   2.60  0.002091238    1.872    0.466
       314  -9.5134    187.7932     36.5910   5.2849531540e+01   3.3409522214e+01    0.2970685    0.2461181  73.17  0.001301918    1.231    0.188
       315  -9.9070    183.9928     34.9941   5.2896059241e+01   3.4610914878e+01    0.3826323    0.2642325 -23.18  0.001398009    1.482    0.325
       316  -9.7616    175.8517     36.3471   5.4564878540e+01   3.6570653974e+01    0.2693202    0.2166135 -22.89 0.0006359671    1.266    0.210
       317 -10.1400    140.3316     33.9964   6.0163536850e+01   4.6166515617e+01    0.6685289    0.2304779 -44.61  0.002076237    3.444    0.710
       318 -10.1317    136.1557     34.8158   6.1357374908e+01   4.7114898282e+01    0.5920615    0.3749957 -26.78   0.00207035    1.576    0.366
       319  -9.5822    120.4887     36.4635   6.5641726853e+01   5.0743796162e+01    0.3358475    0.2615201  42.04  0.001633783    1.283    0.221
       320  -9.1091    117.2903     36.6693   6.6533477372e+01   5.1475072323e+01    0.2144245    0.1500393  53.22 0.0004659436    1.453    0.312
       321  -9.4419      4.2270     30.2686   1.0887322869e+02   7.0000454681e+01    0.3803053   0.09495284 -46.07  0.001629745    2.756    0.637
       322 -10.3401      6.9804     33.6376   1.0853483634e+02   6.9137730669e+01    0.5427969    0.1896222 -46.46  0.002633229    2.108    0.526
       323 -10.0396      1.9334     36.5255   1.1187514882e+02   6.8797180204e+01    0.1471131    0.1336488 -35.04  0.001109524    1.239    0.193
       324  -9.4814    248.5473     36.5281   4.5818013170e+01   1.8586137769e+01    0.1357044    0.1161444 -44.60 0.0002259901    1.006    0.006
       325 -10.9343      5.0547    216.6289   1.2974052140e+02   2.9092765310e+01    0.3507906     0.101763  64.54  0.001760626    2.877    0.652
       326  -9.7314    194.0971     33.8648   5.1134592260e+01   3.2124267330e+01    0.2396369     0.200196  83.83 0.0004020749    1.228    0.186
       327  -9.3388    242.0458     31.9178   4.5252599414e+01   2.0612202101e+01    0.2075233    0.1839561 -43.89 0.0007223646    1.043    0.041
       328  -9.4031    147.8353     31.3818   5.7699615619e+01   4.4582251612e+01    0.2673789    0.1962378 -36.82  0.001292078    1.358    0.264
       329  -8.0058     83.0259     28.7721   7.3209056627e+01   6.0153207731e+01    0.3905843    0.1649307 -37.29 0.0002539726    2.234    0.552
       330 -10.0358     78.9966     32.0073   7.6055320729e+01   6.0421499457e+01    0.3718444    0.1670979 -39.14  0.001134469    2.098    0.523
       331 -10.5134     78.5033     26.4940   7.3699859383e+01   6.1383322755e+01    0.5178816    0.3094359  27.88  0.002435263    1.923    0.480
       332  -9.4942    188.0757    214.6874   9.5754060447e+01   4.0943400733e+00    0.1801493    0.1335741  30.71  0.001150474    1.123    0.109
       333 -10.1912    200.4582     27.8318   4.8507798617e+01   3.1232348569e+01    0.4476153     0.299223  38.96  0.002114431    1.777    0.437
       334  -9.7700    142.9954     29.0546   5.7772660968e+01   4.6138261396e+01     0.306409     0.204747 -26.08  0.001423723    1.501    0.334
       335  -9.0272    127.5054     30.0101   6.1403396593e+01   4.9941830013e+01    0.2201258    0.1442396 -24.88 0.0006140379    1.527    0.345
       336  -9.4193    119.0520     18.4974   5.8595031982e+01   5.3471075266e+01    0.2213503    0.1837875  88.24 0.0006893885    1.439    0.305
       337  -9.7236    123.8750     29.6041   6.2074553373e+01   5.0892812365e+01     0.239955    0.1900349 -24.37 0.0007612369    1.249    0.199
       338 -10.2197    120.6017     26.3947   6.1533766450e+01   5.2119137395e+01    0.3569777    0.2901392 -27.87  0.001218019    1.222    0.181
       339 -11.7276    117.0498     22.9689   6.0946198872e+01   5.3419115879e+01    0.2834252    0.2382571   9.63  0.001527049    1.202    0.168
       340  -9.0974    175.0405    203.3272   9.6374934328e+01   7.8835346360e+00    0.1819074    0.1461873  38.27  0.001147358    1.085    0.078
       341  -8.9537    131.4078     25.4585   5.8744989528e+01   4.9555463046e+01    0.2552285    0.1574796  39.94 0.0005658937    1.679    0.404
       342  -9.5648    214.3722     27.0792   4.6709186824e+01   2.7804571595e+01     0.366606    0.2417448  46.58  0.001789735    1.733    0.423
       343  -8.6950    194.6634     28.6746   4.9476906842e+01   3.2624260477e+01    0.1520253    0.1079256  31.49 0.0007051429    1.720    0.419
       344 -10.5345     65.4061     26.2132   7.8384450964e+01   6.3810651447e+01    0.3972252    0.2923708 -46.33  0.002114371    1.518    0.341
       345 -10.9202     27.4564     29.5764   9.6820673001e+01   6.8359337487e+01    0.3799479    0.2877979  10.37  0.001700997    1.486    0.327
       346  -8.9296    148.6809     25.9345   5.5541101271e+01   4.5052588860e+01    0.2000813    0.1801808 -31.20 0.0001978634    1.119    0.107
       347  -9.8808      1.5819     24.9020   1.0851289494e+02   7.1249966632e+01     0.227743    0.1359244 -57.96  0.001421538    1.309    0.236
       348 -10.1082      1.7393    199.5999   1.2963343857e+02   3.2561845735e+01    0.2430996    0.1067727 -87.54   0.00148517    1.848    0.459
       349 -10.4367    222.1877     23.5156   4.4919816187e+01   2.6298524043e+01    0.3636157    0.2651625 -69.70  0.001936148    1.381    0.276
       350 -10.1308    226.8929     19.6279   4.3427865744e+01   2.5603906641e+01    0.2578849    0.2209156 -17.00  0.001002232    1.271    0.213
       351  -9.7642    237.0226     23.8295   4.3627972416e+01   2.2727890553e+01    0.3602001    0.1680791  65.46  0.001499546    2.223    0.550
       352  -9.6896    230.9031     22.5853   4.3849982066e+01   2.4309365904e+01    0.4149385    0.1854715  83.59  0.001672187    2.734    0.634
       353  -9.2146    176.4884     25.5114   5.0917993517e+01   3.7767181717e+01    0.2177636     0.161605 -58.84 -5.075123e-05    1.416    0.294
       354  -9.1150    178.9339     20.0109   4.8787505224e+01   3.7756615127e+01    0.1957759    0.1897139  80.47  0.000410193    1.034    0.033
       355  -9.6232    171.8140     24.6396   5.1305179082e+01   3.9106670853e+01    0.2665695    0.2401749  87.87 0.0009643581    1.112    0.100
       356 -10.0221    174.7077     21.6225   4.9888250037e+01   3.8691222632e+01    0.4622158    0.2321603  65.46  0.001928469    1.920    0.479
       357 -10.0122    102.7091     23.9604   6.5039011685e+01   5.6654215429e+01     0.533489    0.2434344 -41.80  0.001548549    2.414    0.586
       358  -9.8721     14.0019    193.2783   1.2708045733e+02   3.2684036068e+01    0.1523747    0.1108835  67.51 0.0004800345    1.086    0.080
       359  -9.9837      6.9860    191.3461   1.2830160095e+02   3.3707587979e+01    0.2785147     0.118913  87.47  0.001590268    1.958    0.489
       360  -9.1188     31.9965    189.0000   1.2333093374e+02   3.1747173094e+01    0.1702918   0.05842427  34.33 0.0008019118    2.939    0.660
       361 -10.1211      5.3573    183.0477   1.2820157730e+02   3.5513149386e+01    0.3558396    0.1029112 -83.24  0.001641941    2.964    0.663
       362 -10.6747     25.5768    174.6368   1.2360973162e+02   3.5390855143e+01    0.2928182    0.2048259 -82.49  0.001080082    1.228    0.186
       363 -11.6010      5.8589    165.4778   1.2714103538e+02   3.9129713802e+01    0.4968199    0.2236399  70.35  0.002059087    1.942    0.485
       364  -9.6862    247.9772     24.7735   4.2933817392e+01   2.0120024501e+01    0.2457537    0.1332302  66.10 0.0004148581    1.985    0.496
       365  -9.4124    250.4477     22.4322   4.2156089302e+01   1.9839937717e+01    0.2574633    0.1046951 -33.09  0.001134258    2.007    0.502
       366  -9.0968     22.3745    164.7741   1.2355722406e+02   3.7822257820e+01    0.1676002   0.08582759 -68.43 0.0009459007    1.743    0.426
       367  -9.1859     17.6510    164.7065   1.2457754208e+02   3.8275957144e+01    0.1059078   0.08091366 -53.84 0.0007030829    1.673    0.402
       368  -9.8504    145.1320     21.8667   5.4672455945e+01   4.6464662923e+01    0.3429593    0.2473544 -33.58  0.001689699    1.392    0.282
       369  -8.8335     44.6228     30.7547   8.9228674395e+01   6.6166349354e+01    0.1294577   0.08913152  -9.82 0.0006942065    1.637    0.389
       370 -10.8450     22.0833     22.2572   9.6428117639e+01   7.0280975538e+01    0.2093273    0.1591116 -47.64            0    1.220    0.181
       371 -10.6712     10.1699    162.6492   1.2604960566e+02   3.9378231024e+01     0.205882    0.1395996 -86.83  0.001396984    1.162    0.140
       372  -9.6965    173.0145     16.7078   4.8490170536e+01   3.9684163452e+01    0.5035236    0.2085325  84.38  0.001624322    3.544    0.718
       373  -9.9842     30.8536     21.2893   9.1450834864e+01   6.9560500299e+01    0.2629828    0.2010005 -10.84 0.0007409771    1.265    0.209
       374  -9.0129    230.5401    162.4852   7.8703386717e+01   4.1560771788e+00    0.1322724    0.1139559   1.02 0.0002269138    1.025    0.025
       375  -9.3553     43.9449    159.8107   1.1826981054e+02   3.6683588615e+01     0.235194    0.1262375  76.99 0.0007932303    1.931    0.482
       376  -9.6195    179.5688    157.7887   8.7196009803e+01   1.4548041312e+01    0.2480014    0.2147333 -13.07  0.001398602    1.194    0.163
       377 -10.0543     16.3443    153.8924   1.2406286357e+02   4.0768474013e+01    0.3889498    0.1659529  77.13    0.0017938    2.393    0.582
       378 -11.0807      7.5803    154.4432   1.2607337858e+02   4.1381178272e+01    0.2581369    0.1927472 -44.94  0.001649409    1.865    0.464
       379 -10.9703      7.0576    148.9925   1.2581707135e+02   4.2628090718e+01    0.4543236      0.15399 -62.43  0.002178123    2.618    0.618
       380  -8.8237    189.6013     19.8721   4.7396324646e+01   3.4970587552e+01    0.1967337    0.1194127  13.23 0.0008002054    2.445    0.591
       381  -9.0410     32.4983    154.4859   1.2039453817e+02   3.9108919620e+01    0.1235382   0.09766983  85.92 0.0008105102    1.009    0.009
       382  -9.9379     22.9883    150.3031   1.2223353399e+02   4.0976405591e+01     0.281078    0.1388093 -87.65  0.001481326    1.780    0.438
       383  -9.5277    205.1604     15.1530   4.4259845300e+01   3.1477018141e+01    0.2915187    0.1591966 -68.86  0.001248175    2.126    0.530
       384  -9.5124    199.8069     19.4067   4.6075051176e+01   3.2378389195e+01    0.3949619    0.1806647  50.32  0.001465618    2.367    0.577
       385  -9.3241     51.6977    148.9697   1.1520281212e+02   3.8247720537e+01    0.1855169    0.1409812 -82.33 0.0005546106    1.128    0.114
       386  -9.8690     67.5417     18.5363   7.3790345928e+01   6.4604190907e+01     0.260305    0.1637413 -29.42 0.0007791003    1.451    0.311
       387  -9.3539     66.9798     15.4740   7.2431557368e+01   6.5136074276e+01    0.2009058    0.1733018 -45.96  0.001212433    1.439    0.305
       388  -9.6552     25.8346     19.0090   9.2952578414e+01   7.0511000093e+01    0.1888406    0.1564119 -13.67 0.0002694702    1.146    0.128
       389  -8.9822     33.3733    147.7729   1.1952340515e+02   4.0546519352e+01    0.1736878   0.09456073 -67.05 0.0006796888    1.600    0.375
       390 -10.8522     16.9196    146.3912   1.2332565537e+02   4.2402524066e+01    0.3024969    0.2009264  80.74  0.001014214    1.237    0.192
       391  -9.0316     47.0633    146.9882   1.1609904731e+02   3.9248046199e+01    0.1854072    0.1437635 -44.71 0.0009836206    1.635    0.388
       392 -10.3486    246.4382    143.5964   7.2067583575e+01   3.9867478067e+00    0.4367978     0.225873 -29.90  0.002115735    1.737    0.424
       393 -10.4183      4.1658    142.1623   1.2600399026e+02   4.4374811419e+01    0.3458767    0.1291777 -81.17  0.001438517    2.124    0.529
       394  -9.3116     43.8532     18.0450   8.3506723569e+01   6.8484195292e+01    0.1748869    0.1452533 -35.18 0.0004397103    1.233    0.189
       395  -9.8062     97.7008    143.2139   1.0287847023e+02   3.3003377096e+01     0.286128      0.20429  29.28   0.00144228    1.679    0.404
       396 -10.4321     15.5320    138.3694   1.2296839988e+02   4.4348959813e+01     0.243677    0.1364173  76.63 0.0006163336    1.630    0.387
       397  -9.5210     51.3640    138.3628   1.1391565624e+02   4.0760203060e+01    0.1826836    0.1383633 -45.49 0.0006381803    1.588    0.370
       398 -10.2242     25.5372    136.3279   1.2027659917e+02   4.3949935348e+01    0.2536873    0.1814151 -61.14 0.0007334927    1.390    0.281
       399  -9.1064    241.4996    136.4754   7.1267918639e+01   5.9046672120e+00    0.1383175    0.1161735  -5.31  4.03472e-05    1.051    0.049
       400  -9.0489     74.8873     17.1403   7.0421849354e+01   6.3424373672e+01    0.1862807     0.142171   9.56  0.000371886    1.291    0.225
       401 -11.9807      5.1348    134.6972   1.2521430113e+02   4.5993623302e+01     0.323049    0.2254117  85.41 -0.000430966    1.116    0.104
       402  -9.1943     34.7265     16.6430   8.7198111659e+01   6.9915295196e+01    0.2053926    0.1225579 -31.97 0.0006554172    1.410    0.291
       403  -9.7132    152.5289     15.3368   5.1000670765e+01   4.5250797119e+01    0.2988345    0.2024937  56.66  0.001233556    1.403    0.287
       404  -8.6285     40.6588    131.3426   1.1577640365e+02   4.3626960334e+01    0.1394654   0.08314806  71.74 0.0007048373    1.779    0.438
       405  -8.6997     96.2425     16.3306   6.3350410176e+01   5.9074293438e+01    0.1407249   0.09849556  13.48 0.0003698035    1.540    0.351
       406  -9.2055    191.6882     14.9456   4.5634050880e+01   3.4964574294e+01    0.1947779    0.1792844 -52.62 0.0003861095    1.047    0.045
       407  -8.6691     56.5239     15.4678   7.6563668356e+01   6.6951993944e+01    0.1322527    0.1092128  -8.00  0.000129131    1.030    0.029
       408  -9.5899    241.5439     17.9523   4.1748348714e+01   2.2352226170e+01    0.3607893    0.1759175 -88.99  0.001580549    2.485    0.598
       409 -10.6199      5.3483    123.0256   1.2418976335e+02   4.8663246341e+01    0.4524179    0.1930216  32.60  0.002414507    2.578    0.612
       410  -9.1776    246.6509     12.6756   4.0046561314e+01   2.1772148525e+01    0.1265816   0.09694094  31.94 0.0007049098    1.750    0.429
       411  -9.1851     21.9325    130.8060   1.2062249547e+02   4.5561487192e+01    0.1789276    0.1486889 -68.14  0.001210194    1.229    0.186
       412 -10.0881     16.0073    120.1882   1.2106566545e+02   4.8546820841e+01    0.5634036    0.2255336  72.35  0.002235581    3.482    0.713
       413 -11.4569      8.2940    116.4263   1.2278027836e+02   4.9999692446e+01    0.5336665    0.4509605  44.24  0.003822527    1.416    0.294
       414 -10.9246     15.8127    129.4632   1.2206892178e+02   4.6386972506e+01    0.3483208    0.2385315  35.68 0.0003263456    1.696    0.410
       415 -10.5175     11.9286    123.1288   1.2246484071e+02   4.8167835318e+01    0.3849009     0.132733 -69.94  0.001788068    2.177    0.541
       416  -9.2817      6.3687    107.8754   1.2243802509e+02   5.2138149040e+01     1.669073          nan -61.33  0.003671116   10.146    0.901
       417 -10.9780      3.6672    102.5533   1.2265257466e+02   5.3559055939e+01    0.7191121    0.2202076 -49.81  0.003011144    3.356    0.702
       418  -8.8991    165.5104     12.4944   4.8082253389e+01   4.2112677735e+01    0.1431116    0.1356957  53.85 0.0002558151    1.059    0.056
       419 -10.2272      2.8830     97.8509   1.2236679999e+02   5.4711419323e+01    0.2987897     0.206769 -44.78  0.001007836    1.600    0.375
       420 -10.2601      5.0596     93.4708   1.2117568591e+02   5.5616294338e+01    0.3488939    0.2149651  49.48  0.001680047    1.845    0.458
       421  -9.5473      6.9818     90.2729   1.2015301066e+02   5.6256905323e+01    0.1829506    0.1360576  85.95 0.0005695652    1.250    0.200
       422 -11.2659     68.1786    127.0815   1.0771196337e+02   4.1289417744e+01    0.4722551    0.3906654 -55.73  0.002752587    1.224    0.183
       423 -11.2869     72.5300    121.2641   1.0545658786e+02   4.2069776429e+01     0.540715    0.4257454 -81.20  0.002896298    1.211    0.174
       424  -9.6020     96.7731    127.4973   1.0009413576e+02   3.6779920115e+01    0.2791274    0.1942828 -58.67  0.001099211    1.365    0.267
       425  -9.2127    119.7987    127.0478   9.4040095361e+01   3.2696002950e+01    0.1944974    0.1839992 -55.60  0.001072597    1.062    0.059
       426  -8.7064     26.2724    127.6203   1.1913493224e+02   4.5926080209e+01    0.2049721    0.1251868  86.54  0.000564556    1.493    0.330
       427  -9.8362     24.9388    124.0000   1.1907250296e+02   4.6902091591e+01    0.2799917    0.2166481  -6.76   0.00172938    1.952    0.488
       428  -9.8148     22.4804    121.5239   1.1945116826e+02   4.7702501682e+01    0.3781864    0.1350148 -59.16  0.001707816    2.335    0.572
       429 -10.1347     51.2644    124.6413   1.1195268469e+02   4.4038742076e+01    0.2671526    0.1792758 -71.95  0.001176709    1.288    0.223
       430 -10.3598     43.1945    124.3985   1.1414041675e+02   4.5011389380e+01    0.4487587    0.1068041  43.23  0.001576132    4.089    0.755
       431 -10.4635     38.5837    119.6826   1.1474461600e+02   4.6631329236e+01    0.3141838    0.2213765  44.28  0.001569877    1.546    0.353
       432  -9.2568     82.6802    119.6767   1.0231491772e+02   4.0925989305e+01    0.2051474    0.1841939   6.97 0.0006482077    1.409    0.290
       433  -9.5600     79.5365    118.7439   1.0300292792e+02   4.1634200787e+01     0.274789    0.2173387  89.24 0.0007841697    1.315    0.240
       434  -9.1214    132.7424    119.6338   8.9067027156e+01   3.1744163389e+01     0.212359     0.141181  54.91  0.000640029    1.616    0.381
       435 -10.0672    113.8394    116.8810   9.3226855211e+01   3.6133764866e+01    0.2604316    0.2385877  68.02 0.0006370336    1.114    0.102
       436  -9.5498     53.8182    117.0005   1.0998856237e+02   4.5575627874e+01    0.2815343    0.1637248 -60.57  0.001182864    1.490    0.329
       437  -9.5516     50.8614    114.1470   1.1035387337e+02   4.6618306794e+01    0.1812919    0.1599672 -83.24 0.0003062281    1.056    0.053
       438 -10.0670     34.9563    116.0443   1.1525011924e+02   4.7870937091e+01    0.1922104    0.1546809 -77.72  0.001203292    1.017    0.017
       439  -9.0950     31.5256    115.0548   1.1609230655e+02   4.8438373143e+01    0.2139385    0.1397993  88.85 0.0009455351    1.441    0.306
       440 -11.4914     25.8401    111.9026   1.1729858032e+02   4.9709128903e+01    0.4076512    0.2971178 -74.79  0.001446016    1.100    0.091
       441  -9.2037    101.6684    112.4335   9.5446431348e+01   3.9427190096e+01    0.1829693    0.1466698  29.63 0.0007177875    1.441    0.306
       442 -10.9044     83.6569    109.9079   9.9945512753e+01   4.3096608086e+01    0.6317832    0.3818971  34.86  0.002303991    1.874    0.466
       443 -10.0825     67.4184    111.0675   1.0492791802e+02   4.5245075471e+01    0.2403212    0.1892774  57.44 0.0007232168    1.358    0.264
       444  -8.8209    125.6796    110.6530   8.8601518076e+01   3.5168907625e+01    0.1566129    0.1226649  -8.16 0.0007049231    1.734    0.423
       445 -10.0019     40.1695    109.1303   1.1266430562e+02   4.9014659322e+01    0.3434596    0.1538465  44.10  0.001578577    2.436    0.590
       446  -9.2222    112.4602    108.0255   9.1416479891e+01   3.8409533563e+01    0.2401831    0.2019279  45.38  0.001232048    1.244    0.196
       447 -10.0210      9.9479     88.1628   1.1889565302e+02   5.6573111801e+01    0.4357513    0.2632347  76.36  0.002447992    1.803    0.445
