#   1 NUMBER                 Running object number                                     
#   2 MAG_AUTO               Kron-like elliptical aperture magnitude                    [mag]
#   3 X_IMAGE                Object position along x                                    [pixel]
#   4 Y_IMAGE                Object position along y                                    [pixel]
#   5 X_WORLD                Barycenter position along world x axis                     [deg]
#   6 Y_WORLD                Barycenter position along world y axis                     [deg]
#   7 A_WORLD                Profile RMS along major axis (world units)                 [deg]
#   8 B_WORLD                Profile RMS along minor axis (world units)                 [deg]
#   9 THETA_WORLD            Position angle (CCW/world-x)                               [deg]
#  10 FWHM_WORLD             FWHM assuming a gaussian core                              [deg]
#  11 ELONGATION             A_IMAGE/B_IMAGE                                           
#  12 ELLIPTICITY            1 - B_IMAGE/A_IMAGE                                       
         1  99.0000    137.1460    120.5545   4.7440941987e+01   3.1079885609e+01     8.584441     3.756074 -34.76   0.02851819    2.844    0.648
         2 -14.4390    244.2320     27.1108   6.4574661445e+00   2.2429986806e+01     3.537335     2.427969 -88.96   0.02252194    1.357    0.263
         3 -16.1803    240.0556     98.7281   2.2073333403e+01   1.3064189685e+01     5.607073     3.787306  41.28   0.02998751    1.810    0.448
         4 -14.0093    160.4620    101.8456   3.6958988242e+01   2.9783448265e+01      4.12621     1.754187 -37.28  0.002344797    2.429    0.588
         5 -13.9188    177.7547     94.6079   3.1420380711e+01   2.7179983636e+01     2.662717     1.166904 -30.18  0.004373183    2.840    0.648
         6 -14.3078    247.6156     46.0006   9.9818612021e+00   1.9368528420e+01     3.211498     1.550179  49.59   0.01409157    2.758    0.637
         7 -12.1054    137.8566     42.4217   2.4710718638e+01   4.4908423705e+01    0.5662197    0.4984917  -9.50  0.002894839    1.252    0.201
         8 -14.7908    238.4657     82.4957   1.8744129102e+01   1.5956425310e+01     2.371395     1.465684 -28.59   0.01209304    1.756    0.430
         9  -8.9025    213.2961     14.3462   6.4803046851e+00   3.0447689948e+01    0.2341322    0.1615094 -59.47  0.000868121    1.325    0.245
        10 -10.5622    195.6999     11.2207   7.4667601137e+00   3.4732968546e+01    0.3939518     0.203517  86.59  0.001949579    1.972    0.493
        11  -8.6457    156.4688      7.7547   1.1179748840e+01   4.4248908623e+01     0.161288    0.1231558   7.71 0.0009459922    1.704    0.413
        12  -9.1216    179.1979      7.2062   8.2424208645e+00   3.8941718074e+01    0.1773359    0.1299084 -72.54 0.0008420912    1.339    0.253
        13 -10.6429    183.0113      3.7266   6.9672767238e+00   3.8374849242e+01    0.3891308    0.2170408 -59.17  0.002060701    1.895    0.472
        14  -9.2853    205.2450      3.7665   4.8565463930e+00   3.3310498164e+01    0.2455143    0.1563161 -31.93  0.001393583    1.740    0.425
        15  -8.3445     98.0032      1.9607   1.9528870982e+01   5.8137238496e+01    0.1447792    0.1225683  38.48 0.0003046248    1.045    0.043
        16 -11.8425    191.4111    153.7447   4.2878763710e+01   1.2847410604e+01    0.7769389    0.5354843 -35.74  0.003435559    1.406    0.289
        17 -10.1476    249.4367    249.0427   5.0054908316e+01  -1.1687996037e+01    0.2211706     0.173563 -47.27  0.001470589    2.187    0.543
        18  -8.7482    100.1884    250.1747   7.9042867802e+01   9.7594412170e+00     0.161967    0.1193379  58.61 0.0002598709    1.255    0.203
        19 -11.1871    177.1558    168.5092   4.9092562784e+01   1.2711393753e+01    0.6798654     0.280245 -55.42  0.002097139    3.949    0.747
        20 -11.0267    186.3043    169.1401   4.7265488796e+01   1.0833768909e+01    0.3812326    0.3085744  71.73  0.001230693    1.708    0.414
        21  -9.3629    165.1722    163.9906   5.0797142447e+01   1.5968163261e+01     0.221936    0.2036511 -83.26 0.0004865896    1.292    0.226
        22  -8.1042     25.4922    164.4429   8.6287967625e+01   3.7724245634e+01    0.1263565    0.1075278 -78.19 8.385649e-05    1.050    0.048
        23  -9.3695    213.8761    161.7679   4.0189496437e+01   7.0593752011e+00    0.3576216    0.2405811 -65.15  0.001478553    2.432    0.589
        24 -10.1652    168.5432    156.0083   4.8304656241e+01   1.6958795510e+01    0.2340168    0.2039358  35.79 0.0005077544    1.147    0.128
        25  -9.9411    221.6953    212.5662   4.8733422015e+01  -2.8614153306e+00    0.2319507    0.2063999  31.11 0.0007331574    1.335    0.251
        26 -10.9856    173.2209    149.9664   4.5914358474e+01   1.7260446883e+01    0.4519067    0.3179715 -25.64  0.002078192    1.582    0.368
        27 -12.8915    233.0566     95.4539   2.2331387603e+01   1.4981679541e+01    0.5188348    0.4149717  55.02  0.001663274    1.388    0.279
        28 -11.6681     67.5076    143.8866   7.2036481077e+01   3.7937872925e+01    0.7829723    0.4754855  52.02  0.003430622    1.878    0.468
        29  -9.3426    185.8915    208.6900   5.5079057074e+01   3.5328595393e+00    0.2327892    0.1862888 -82.48  0.001045982    2.099    0.524
        30 -12.3719      2.6484    134.3779   8.8951432963e+01   4.6630317967e+01    0.8890339    0.3213189 -71.34  0.003222001    2.172    0.540
        31 -13.1392     13.7959    133.8671   8.5808114344e+01   4.5994197440e+01     2.033986     1.158092 -61.64   0.00745313    1.433    0.302
        32 -12.4453     31.8807    128.8196   7.9862766249e+01   4.5706359309e+01    0.6321285     0.452224  13.77  0.001326778    1.710    0.415
        33 -10.5857    245.8716    185.5148   3.9277006894e+01  -2.2936805452e+00    0.2281923    0.2124748  -2.79 0.0004513317    1.239    0.193
        34 -11.2050    210.7074    136.2649   3.5200198682e+01   1.2340632002e+01     0.583962    0.3471437 -20.32  0.001906937    2.216    0.549
        35 -10.6437    213.5557    129.2453   3.3096813115e+01   1.3059840522e+01    0.3539972    0.2440846 -41.54 0.0009966018    1.346    0.257
        36 -13.5061    199.5244    100.8417   2.8913327175e+01   2.1153423753e+01      2.38331    0.6655844  49.31  0.007536981    3.673    0.728
        37  -8.6556    147.4040    135.2591   4.8498937845e+01   2.5729405245e+01     0.214715    0.1469576 -54.85 0.0006355166    1.580    0.367
        38  -7.7684     59.4694    183.4500   8.0179336399e+01   2.9458576494e+01    0.1312849    0.1201537 -87.66 0.0008071204    1.056    0.053
        39  -9.8160    248.6031    177.7898   3.7306454575e+01  -1.4908636278e+00    0.2590182    0.1843066  -0.00  0.001481375    1.486    0.327
        40 -13.1144     39.9812    126.8254   7.7104357663e+01   4.5397090318e+01    0.9709693    0.6590838 -53.01  0.001242498    1.303    0.233
        41  -8.2092    196.4496    179.5126   4.7306687872e+01   6.9769504461e+00     0.141175    0.1298004  -5.15  6.32466e-05    1.027    0.026
        42  -9.5688    208.5551    126.9087   3.3463863047e+01   1.4498511691e+01     0.273583    0.2154927  48.21  0.001139637    1.364    0.267
        43 -12.8780    214.5476    180.4301   4.3921992035e+01   3.6132361389e+00     1.388141    0.9624733 -52.22  0.005030383    1.776    0.437
        44  -8.6919     91.3037    118.5910   5.9704766386e+01   4.0377577408e+01    0.1872324    0.1448615  22.25 0.0003636714    1.427    0.299
        45 -13.6509     48.0217    128.0136   7.4880455607e+01   4.4243290314e+01     2.225569     1.293113  13.23  0.002366102    2.308    0.567
        46 -12.0554    125.7070    105.1812   4.6398609229e+01   3.6778318856e+01     1.034247    0.6603175  63.45  0.004214485    2.146    0.534
        47 -11.0982    150.0458    109.2586   4.1324956489e+01   3.0654358967e+01      0.38781    0.3546151 -53.56 0.0006991274    1.123    0.109
        48  -8.5143    225.0288    207.5355   4.7187354822e+01  -2.5843959535e+00    0.1807881    0.1179087  33.93 0.0006151329    1.516    0.340
        49  -8.6856    108.4924    107.5442   5.1829788437e+01   3.9750877900e+01    0.1517132     0.144699 -13.19 -0.0001378942    1.029    0.028
        50 -10.8033    112.9574    104.7379   4.9797456942e+01   3.9483894903e+01     0.378815    0.3105001 -41.23  0.001909633    1.199    0.166
        51 -10.4520    143.9176    100.5097   4.0459579692e+01   3.3779206900e+01    0.3449892    0.2920789 -77.22 0.0007402975    1.417    0.294
        52  -8.9231    113.6735     95.0106   4.6889580975e+01   4.1386250296e+01    0.2107682    0.1918555 -34.44 0.0003990148    1.084    0.078
        53  -9.9974    149.2861    176.9505   5.7125940724e+01   1.6294339960e+01    0.4487456    0.2855262 -70.58  0.001769541    2.455    0.593
        54  -9.8868    127.2835     84.4059   4.0097005319e+01   4.0595498878e+01    0.3979379    0.2370144 -35.84  0.001721218    1.728    0.421
        55 -10.8700    193.5347     68.8648   2.1975527831e+01   2.7860608644e+01    0.4029098    0.3323883  73.43  0.001088533    1.215    0.177
        56 -10.8278    191.0119     81.7566   2.5660807456e+01   2.6366292746e+01    0.4068214    0.2235382 -31.12  0.001744673    1.967    0.492
        57 -10.1923    193.9773     78.3111   2.4285929240e+01   2.6253924641e+01    0.2668635    0.2033651 -37.40 0.0006763292    1.301    0.231
        58 -10.8981    190.5134     74.9831   2.4023839089e+01   2.7592498947e+01    0.3676916    0.3442742   0.75  0.001205186    1.227    0.185
        59  -9.4762    170.7649     79.3370   2.8755167654e+01   3.1490475010e+01    0.3092335    0.1944823 -43.27 0.0006094927    1.588    0.370
        60  -8.2566     85.9915     79.9910   5.0862303205e+01   4.9705066634e+01    0.1649193    0.1524705  -6.42            0    1.011    0.011
        61  -8.7022    171.3113    177.9501   5.2321487454e+01   1.1933171820e+01    0.2042438    0.1881277 -28.25 0.0009971155    1.089    0.082
        62  -8.5375    188.2966    175.3173   4.8132206771e+01   9.2648914292e+00    0.1474635    0.1085131  -3.30 0.0003503199    1.610    0.379
        63  -9.6339    150.1886     68.5450   2.9958759611e+01   3.8145107342e+01    0.6286913    0.1944693 -36.96  0.002055621    3.251    0.692
        64 -10.7684    206.6967     64.8226   1.8988709062e+01   2.5464713285e+01    0.5035939     0.294615 -27.53 0.0005733349    1.966    0.491
        65 -10.0240    208.1269     59.1074   1.7415759013e+01   2.5983522089e+01     0.292311    0.2167067 -29.63 0.0007479163    1.470    0.320
        66 -14.4311    228.2652    168.7933   3.9010755431e+01   3.2788536119e+00     4.680692     2.403702 -22.04   0.01247752    2.501    0.600
        67  -9.5790    212.8602     63.3323   1.7775688010e+01   2.4304908437e+01    0.2775159    0.1946067  72.26  0.001487694    1.467    0.318
        68  -9.8977    136.9435     61.0514   3.0673697944e+01   4.2444155630e+01    0.2266585    0.2116161  35.97 0.0007128726    1.039    0.037
        69  -9.7076    184.4219     53.4692   1.9463598725e+01   3.2282434499e+01    0.2383243     0.227904  49.53 0.0005013271    1.142    0.124
        70  -9.2445    173.5218     54.5180   2.1516141035e+01   3.4726346953e+01     0.139167    0.1314202  78.96 9.927018e-05    1.013    0.013
        71 -10.3897    141.1839     51.1864   2.6714508176e+01   4.2925179562e+01    0.2838063    0.1997096 -14.66 0.0008810022    1.730    0.422
        72 -10.1583    179.2956     50.1391   1.9393476890e+01   3.3964793582e+01    0.2805375    0.1995256  71.44  0.001462945    1.382    0.276
        73 -10.2718    185.5788     48.3090   1.7947251524e+01   3.2724733394e+01    0.3405913    0.2441532  79.62 0.0006045197    1.420    0.296
        74  -8.2996    200.6602     47.6657   1.5657519848e+01   2.9289788817e+01    0.1338311    0.1019939  31.22 0.0007051392    1.752    0.429
        75 -10.7016    204.1058    201.5880   5.0084924007e+01   1.7171108589e+00    0.3452807    0.3148084 -13.51   0.00090055    1.130    0.115
        76  -8.7422    175.0235     43.5031   1.8293566504e+01   3.5877846732e+01    0.1927344    0.1267591  64.09 -9.546732e-05    1.424    0.298
        77  -9.9580    191.2404     33.7086   1.3446352339e+01   3.3271431714e+01    0.4822181    0.2731682  -6.97  0.001979737    3.414    0.707
        78  -9.5467    193.5114     28.5122   1.1876194117e+01   3.3360379651e+01    0.3435656    0.2127384 -24.65  0.001388969    1.931    0.482
        79  -8.9583    180.8008     36.9580   1.5692539885e+01   3.5335116037e+01    0.1881289    0.1732512  38.50 0.0004858166    1.240    0.193
        80  -9.6032    190.7525     40.9672   1.5332187301e+01   3.2477759454e+01    0.3120652    0.2275582  55.28  0.001293571    1.380    0.275
        81  -9.4094    198.5032     35.0299   1.2857717234e+01   3.1420983227e+01    0.2119921    0.1651757  56.28 0.0003724001    1.335    0.251
        82  -8.7898    173.2020     35.3652   1.6381341582e+01   3.7343160001e+01      0.19029    0.1194106  77.18 0.0005504504    1.627    0.385
        83  -9.7721    168.2227     40.8263   1.8647265434e+01   3.7854315298e+01    0.2596884    0.1996177  41.41 0.0004252399    1.406    0.289
        84  -9.3048    123.0742     31.5259   2.4378827818e+01   4.9700264649e+01    0.1952596    0.1802049  -3.24 0.0005238669    1.160    0.138
        85  -9.1555    185.1955     28.1331   1.2820106036e+01   3.5351251730e+01    0.2485472     0.188227  -4.75  0.001383242    1.818    0.450
        86 -11.7882    199.5966    163.8658   4.3413331402e+01   9.3248286012e+00     0.711481    0.6125448 -11.17  0.002483823    1.130    0.115
        87 -10.8602    192.9952    195.0238   5.1074276097e+01   4.7521830784e+00    0.9930061    0.5059778 -61.56  0.003023983    5.484    0.818
        88  -9.1065    115.8392    199.7821   6.9051225341e+01   1.7331286053e+01    0.1875585     0.180807  -1.72 0.0005540347    1.139    0.122
        89  -9.0685    189.9386     14.9863   8.9797153738e+00   3.5676633948e+01     0.198562    0.1677811 -80.84 0.0008655456    1.063    0.060
        90  -8.4864     25.0639    243.6645   9.2891860720e+01   2.0554270846e+01    0.1488662    0.1165698  62.19 0.0004984689    1.095    0.087
        91 -10.4865    244.4468    229.3732   4.7605065383e+01  -8.5249180570e+00    0.3350759    0.2017267  45.88  0.001843555    2.387    0.581
        92  -8.2526    245.3733    216.2427   4.5121060511e+01  -6.8268709319e+00     0.125344     0.078982   5.16 0.0003573849    1.624    0.384
        93 -10.5659    191.9845    144.1842   4.0620557239e+01   1.4597457717e+01    0.4061598    0.2888599 -27.63 0.0003813122    1.455    0.313
        94 -12.0477    190.7115    161.6696   4.4752706631e+01   1.1441841857e+01    0.9031047    0.5280491 -47.70 0.0008944344    1.789    0.441
