#   1 NUMBER                 Running object number                                     
#   2 MAG_AUTO               Kron-like elliptical aperture magnitude                    [mag]
#   3 X_IMAGE                Object position along x                                    [pixel]
#   4 Y_IMAGE                Object position along y                                    [pixel]
#   5 X_WORLD                Barycenter position along world x axis                     [deg]
#   6 Y_WORLD                Barycenter position along world y axis                     [deg]
#   7 A_WORLD                Profile RMS along major axis (world units)                 [deg]
#   8 B_WORLD                Profile RMS along minor axis (world units)                 [deg]
#   9 THETA_WORLD            Position angle (CCW/world-x)                               [deg]
#  10 FWHM_WORLD             FWHM assuming a gaussian core                              [deg]
#  11 ELONGATION             A_IMAGE/B_IMAGE                                           
#  12 ELLIPTICITY            1 - B_IMAGE/A_IMAGE                                       
         1 -11.7218      8.9714     24.8500   1.1450425926e+02   6.8816920006e+01    0.7258164     0.315726 -48.89  0.004098939    2.243    0.554
         2 -11.4861      3.9577     19.9926   1.1500756434e+02   6.9906675751e+01    0.3899906    0.2232246 -37.07  0.002698886    1.369    0.269
         3 -11.6630     19.7456     17.2608   1.0660057020e+02   6.8973500366e+01    0.3712205    0.3459885 -35.76  0.002961687    1.718    0.418
         4 -11.4241     85.0102     21.3132   8.4108902192e+01   5.9062318381e+01    0.4229771    0.2298864   2.77  0.001953174    2.691    0.628
         5 -11.2198     76.3465     16.4261   8.4793201367e+01   6.1162975447e+01    0.4053567    0.2245561  28.63  0.002197483    1.759    0.432
         6 -11.8288     81.2587      6.1186   7.9327500871e+01   6.1228378829e+01     0.223596    0.1827622  20.20 0.0002758588    1.081    0.075
         7 -11.7383     78.6379     10.6082   8.1827709767e+01   6.1315506922e+01    0.3691459    0.2839051  -2.92  0.001290457    1.284    0.221
         8 -11.6939     74.8544      5.5037   8.0897324003e+01   6.2459444404e+01    0.3723058    0.2358566 -10.70  0.001594235    1.649    0.394
         9 -11.8181    132.6566     15.2744   7.0861642075e+01   4.9619571782e+01    0.4821555    0.3101737 -44.10  0.002647689    1.822    0.451
        10 -11.3404    164.1903     14.5519   6.5494783024e+01   4.2294034409e+01    0.2288544    0.1981932  89.49 0.0002707524    1.098    0.089
        11  -9.6964     50.0041     15.0115   9.3113409829e+01   6.5584972167e+01    0.1996171    0.1166506 -25.31  0.001216771    1.638    0.390
        12 -11.4656      9.2177      7.9699   1.0754786068e+02   7.1150437763e+01    0.2457503    0.1505001 -13.37            0    1.318    0.241
        13 -12.5162     25.8516     13.7846   1.0240721749e+02   6.8795035648e+01    0.3218364    0.2515289   7.24 0.0003752206    1.175    0.149
        14 -11.9170     18.0251      4.3636   1.0173980354e+02   7.0753368474e+01    0.5728401    0.3976112  37.41  0.004106288    1.989    0.497
        15 -10.8283     13.4369      1.4299   1.0253768095e+02   7.1550950037e+01    0.3538269    0.1253693  23.69  0.001827093    2.997    0.666
        16 -11.8910     26.7354      3.6518   9.7485058222e+01   6.9873401353e+01    0.2490984    0.1633141  20.92 0.0009360952    1.316    0.240
        17 -12.2797     31.6613      2.4201   9.4801933961e+01   6.9405432942e+01    0.3151189     0.171349  36.72  0.001408417    1.803    0.445
        18 -10.7104     99.6569     13.2116   7.7217620935e+01   5.6992630134e+01    0.2475002    0.2262029 -16.15  0.001045294    1.246    0.197
        19 -10.6407    114.4323     12.3392   7.3542760269e+01   5.3955846836e+01     0.298256    0.1956343  79.28 0.0009630679    1.925    0.480
        20 -12.2947     61.7478     11.4782   8.7458916305e+01   6.4155647477e+01    0.3032734    0.2466592  63.96 0.0009148332    1.885    0.469
        21 -10.0659      3.9733     10.5749   1.1122788768e+02   7.1235248431e+01    0.2161597    0.1302684 -56.22  0.001198499    3.113    0.679
        22  -9.5116    122.3384      9.1239   7.0872058474e+01   5.2503663907e+01    0.1645974    0.1083993 -37.59 0.0009335228    1.775    0.437
        23  -9.4279     31.8407      9.4002   9.7899561748e+01   6.8629220062e+01    0.1372682   0.08420683  17.39 0.0003030668    1.440    0.306
        24  -9.1887    226.2366      8.6534   5.7171735052e+01   2.8444347688e+01    0.1252998   0.07276987 -63.81 0.0003845218    1.562    0.360
        25  -9.3921     37.4915      8.4999   9.5157205129e+01   6.8019772477e+01    0.1136556   0.08415321   4.49 4.121067e-05    1.043    0.041
        26  -9.1349    183.3193      7.0171   6.1094113896e+01   3.8494057673e+01    0.1793388    0.1003217  10.99 0.0007049419    4.306    0.768
        27 -10.3351    115.3838      4.2864   7.0649024399e+01   5.4432525659e+01    0.2540353    0.1840347  11.25  0.001201061    1.575    0.365
        28 -10.4751     70.6203     14.4579   8.5785124897e+01   6.2369546845e+01    0.2105471    0.1352598 -24.58 0.0006972323    1.609    0.378
        29  -9.4952    142.9064      1.5339   6.4996039382e+01   4.8466068390e+01     0.185537    0.1035917  65.28 0.0003045994    1.476    0.323
        30 -10.1179    139.2012      1.6439   6.5601713001e+01   4.9309149842e+01    0.2299051   0.09765032  66.07  0.000755929    1.970    0.492
        31 -10.1810     87.9299    227.1238   1.3219793466e+02   1.5801945113e+01    0.2328631    0.1704911  43.11  0.001346951    1.355    0.262
        32 -10.8932    246.9073    250.1062   1.0435621383e+02  -1.4177395760e+01    0.3509376     0.161802  26.53  0.001765153    2.110    0.526
        33 -11.1262    250.4376    245.1425   1.0289457156e+02  -1.4017066401e+01    0.5819726    0.1941066 -37.48  0.002644884    3.034    0.670
        34 -11.6391    224.7569    247.0689   1.0784058226e+02  -1.0602821832e+01    0.4487857    0.1762722 -34.69  0.002069237    2.758    0.637
        35 -12.3225    233.1586    246.4754   1.0620435160e+02  -1.1761062980e+01    0.3502987    0.2732588  17.92  0.002347102    1.078    0.072
        36  -9.6348    127.8501    249.6338   1.2697972456e+02   4.9000945895e+00    0.1645599     0.156098  59.55  0.001108828    1.164    0.141
        37 -10.0673     72.5966    250.1515   1.3758926618e+02   1.3464731977e+01    0.1764222    0.1677821  23.53  0.001246685    1.578    0.366
        38 -11.9458     27.8299    246.3900   1.4523882193e+02   2.0059990916e+01    0.5030264    0.2298857 -84.53  0.002814819    1.989    0.497
        39 -12.6492     21.0094    249.0088   1.4655363737e+02   2.0337276075e+01    0.6625708    0.3904232  55.43  0.004463317    1.381    0.276
        40 -11.7764     14.2367    244.5729   1.4740642048e+02   2.1949172542e+01    0.5093574    0.1820711 -80.04  0.002628346    2.463    0.594
        41 -12.3381      6.7530    243.8278   1.4859205969e+02   2.2888856150e+01    0.6283332    0.3481996 -85.68  0.004199994    1.442    0.307
        42 -12.1735     17.2239    238.3234   1.4651886132e+02   2.2856054035e+01    0.5158718    0.2912404  35.67  0.003196826    2.111    0.526
        43 -10.0517      5.8322    226.8115   1.4775456122e+02   2.6372361428e+01    0.2763338   0.05634033  54.07  0.001077241    4.200    0.762
        44 -10.4186    115.8293    225.7903   1.2626267718e+02   1.1514495750e+01    0.1973109    0.1446451  70.51 0.0006642803    1.389    0.280
        45 -10.0105     10.6729    226.3433   1.4688298815e+02   2.5978319440e+01     0.125087   0.06142086  69.65 0.0007050946    1.742    0.426
        46 -10.4640    180.8353    224.4089   1.1252123403e+02   2.1293120542e-01    0.2125406    0.1582944 -36.96 0.0005924226    1.468    0.319
        47  -9.8888     81.1988    224.5082   1.3326453373e+02   1.7388720307e+01     0.259208    0.1536722 -89.01  0.001219593    1.879    0.468
        48 -10.9165    141.2344    221.4657   1.2027655312e+02   7.9185622582e+00    0.3179124    0.2391606  18.28  0.001321264    1.696    0.410
        49 -10.9038    123.1537    221.5122   1.2411580000e+02   1.1125013765e+01    0.3358146    0.2381308  55.07  0.001300622    1.296    0.228
        50  -9.3116     51.4923    222.5471   1.3899991260e+02   2.2015580662e+01      0.12532    0.1000282  78.19 9.889871e-05    1.026    0.026
        51 -10.4584     13.1317    221.9482   1.4615567801e+02   2.6634948407e+01    0.1780018    0.1380531  70.38 0.0004423305    1.156    0.135
        52  -9.9196    174.1127    219.8857   1.1312467665e+02   2.2405145944e+00    0.2111941    0.1810324  56.23 0.0009842345    1.228    0.186
        53  -9.9146     22.0015    220.4456   1.4443409740e+02   2.6007291947e+01    0.1563239    0.1011241  47.85 0.0004760121    1.515    0.340
        54  -9.6973    250.4798    219.0787   9.8259494730e+01  -1.0409550470e+01     0.178469    0.1095709 -31.33 0.0005439973    1.515    0.340
        55  -9.8260    191.5175    217.0490   1.0906685481e+02  -3.8797376505e-01    0.2316265    0.1807511 -46.72  0.001021105    1.419    0.295
        56  -9.6402    194.5336    215.4722   1.0817434747e+02  -6.4771030745e-01    0.2044392    0.1233886  29.94 -4.951888e-06    1.683    0.406
        57 -10.9895     10.0125    217.0489   1.4638436428e+02   2.7979450889e+01    0.2773792    0.1590611  66.18  0.000736632    1.455    0.313
        58  -9.4736     37.9994    217.4915   1.4116562010e+02   2.4801608518e+01    0.1678255    0.1087139  45.66 0.0005157438    1.532    0.347
        59 -10.6612    234.6779    216.3419   1.0059327212e+02  -7.5858275935e+00    0.1822395    0.1629326  87.45  0.001113307    1.773    0.436
        60 -10.1320     31.0262    215.5454   1.4234457170e+02   2.6043196246e+01    0.2392499    0.1372282  84.38  0.001365846    1.540    0.351
        61  -9.7901    201.5434    215.5340   1.0678365208e+02  -1.9016263559e+00    0.1365687    0.1205693  11.11 0.0003308762    1.057    0.054
        62  -9.3875    137.1970    215.6405   1.2022261517e+02   9.8240180191e+00    0.2028488    0.1247134  33.11 0.0009426124    1.729    0.422
        63  -9.8675    170.4523    213.4762   1.1277431050e+02   4.1154261515e+00    0.1392067     0.129033  38.04 0.0002809373    1.013    0.013
        64  -9.4615    142.8441    213.3822   1.1864291231e+02   9.2532417372e+00    0.1972606    0.1269524  32.34 0.0006432888    1.651    0.394
        65 -10.9394     20.6860    211.7856   1.4401695222e+02   2.8000812814e+01    0.3181998    0.1588454  75.26 0.0009379415    1.896    0.472
        66 -10.3515    208.9654    212.0827   1.0468277692e+02  -2.6064509680e+00    0.2044205    0.1827028   8.96 0.0004656806    1.018    0.018
        67 -10.1436    237.5012    208.4620   9.8598349590e+01  -6.7907399934e+00    0.1330729    0.1101259  -2.16 0.0001938302    1.093    0.085
        68 -10.6631    240.4002    210.8132   9.8516912964e+01  -7.6226325577e+00    0.1841455    0.1092943 -25.45 0.0009477421    1.686    0.407
        69 -12.2213      4.2006    207.8604   1.4682142162e+02   3.0492222982e+01    0.4964522    0.2855816 -81.91  0.003153229    1.353    0.261
        70  -9.7182    184.4075    208.7811   1.0902091567e+02   2.4145614051e+00    0.1885681    0.1306724 -30.73 0.0005722781    1.612    0.380
        71  -9.9918    223.1243    201.2742   9.9893317161e+01  -3.2091578016e+00    0.3106646    0.2138068 -76.22  0.001294164    3.356    0.702
        72  -9.8836    175.2140    202.4181   1.0977052404e+02   5.3634923241e+00    0.2024153    0.1291843  51.31 0.0005681321    1.629    0.386
        73  -9.9185    218.4330    201.4914   1.0083159021e+02  -2.4310261863e+00    0.1359914    0.1220873  -2.10 0.0001415178    1.017    0.017
        74  -9.4064     34.6731    200.9664   1.4031186306e+02   2.8840402128e+01    0.1700054    0.1315287  88.93  0.000408001    1.033    0.032
        75 -10.0280    227.0049    196.9889   9.8325419348e+01  -3.1431436381e+00    0.2089742    0.1845689  -4.29 0.0006593385    1.032    0.031
        76 -11.1236    192.5080    195.2797   1.0478746567e+02   3.4517097010e+00    0.3764828    0.1894345 -54.21   0.00149525    2.519    0.603
        77 -10.5933    215.5089    194.6616   1.0006058795e+02  -7.0541725323e-01    0.2468628    0.1863989 -14.92 0.0006025521    1.421    0.296
        78  -9.5736    202.9938    195.9820   1.0279156078e+02   1.3466801716e+00    0.1702886    0.1586656   9.63 0.0006000419    1.010    0.010
        79  -9.5360    246.3236    190.3207   9.3501175594e+01  -5.2626274649e+00     0.136615     0.094516  -3.18 0.0005316274    1.677    0.404
        80  -9.2030    205.5090    190.4514   1.0119235164e+02   1.9073579383e+00    0.1411513    0.1316162   2.35  0.000129326    1.014    0.013
        81 -10.1093    218.0000    186.9649   9.8040393130e+01   2.3330862010e-01    0.2348629   0.07633103 -41.51 0.0008097066    2.993    0.666
        82  -9.5466     61.7827    184.9917   1.3260220898e+02   2.9136714011e+01    0.1857393   0.09861057 -67.36  0.000876868    1.706    0.414
        83 -11.5464     16.0926    182.6327   1.4246142606e+02   3.4953265442e+01    0.4088516    0.2052655  85.47  0.002098793    1.941    0.485
        84  -9.9256    166.9926    183.4955   1.0790561557e+02   1.0841325264e+01    0.2312987    0.1438546  43.65 0.0008538404    1.566    0.361
        85 -10.6572      2.4116    180.4174   1.4512573152e+02   3.6669484019e+01    0.2903702    0.1485176  66.85  0.001600691    1.918    0.479
        86 -11.3471    247.6309    183.0149   9.1819297345e+01  -4.2567824134e+00    0.4805534    0.2546336  18.12  0.001884574    3.330    0.700
        87 -10.9961    244.5815    178.1495   9.1368597882e+01  -2.9150334649e+00    0.2755979    0.1545784 -26.06  0.001277006    1.913    0.477
        88 -11.2345    224.3487    178.3274   9.5068248119e+01   6.4390467633e-01    0.2816794    0.2631295 -24.02 0.0004806566    1.056    0.053
        89  -9.5093     36.0669    178.5116   1.3766755349e+02   3.3854120897e+01    0.1623389    0.1227974  43.39 0.0004629091    1.462    0.316
        90 -10.3714    200.1763    176.8082   9.9478547922e+01   5.5563676759e+00    0.2022599    0.1698224  -3.10 0.0005369767    1.317    0.241
        91  -9.5838     70.1925    177.6165   1.2960907212e+02   2.9716726232e+01    0.1667743    0.1350652  27.19   0.00051038    1.538    0.350
        92  -9.7331     74.7088    171.4090   1.2757705027e+02   3.0554123606e+01    0.1710855    0.1390705  27.18 0.0007223563    1.509    0.337
        93 -11.1170     12.9887    170.9421   1.4202433005e+02   3.7918024268e+01    0.2492781    0.1245224  80.29  0.001158549    2.122    0.529
        94  -9.6935    209.8731    166.1912   9.5290876667e+01   5.7141348684e+00    0.2020548    0.1699848  -2.24 0.0004865783    1.321    0.243
        95  -9.6551     67.1824    165.1193   1.2845058289e+02   3.3168364875e+01    0.1991905    0.1505384  78.80 0.0007252557    1.348    0.258
        96 -10.6177     51.4226    164.5954   1.3227455722e+02   3.5374522348e+01    0.3533569    0.1827219 -40.12  0.001486716    2.806    0.644
        97 -10.1871      4.5979    168.7049   1.4365457296e+02   3.9138724500e+01    0.2437979   0.08387139 -69.61  0.001144442    2.168    0.539
        98 -10.5515     44.7576    163.1355   1.3370482460e+02   3.6526229761e+01    0.3050143    0.1431227 -71.81  0.001376577    1.940    0.485
        99 -10.3344    246.4086    162.2325   8.7782078746e+01  -4.5124733336e-01    0.1951295    0.1169512 -47.11 0.0005413884    1.638    0.390
       100  -9.4046    200.2386    162.6446   9.6443185590e+01   8.3670147550e+00    0.1993122     0.138597  36.32 0.0005601177    1.527    0.345
       101 -11.4540     36.7648    158.9509   1.3510098862e+02   3.8424541475e+01    0.4088873    0.2942345 -76.36  0.002405101    1.166    0.142
       102  -9.9704    238.7018    158.4266   8.8302410707e+01   1.6272718756e+00     0.251139    0.1636272 -20.64  0.001123268    1.802    0.445
       103 -10.6671    247.9055    158.5049   8.6753979689e+01  -5.7241963125e-02     0.193688    0.1365893  44.69  0.001033341    1.592    0.372
       104 -10.9417     22.6153    155.9718   1.3817464228e+02   4.0543390443e+01    0.3516012    0.2615751  51.13  0.002216147    1.465    0.317
       105  -9.0465    235.6880    154.6785   8.8028920586e+01   2.8768657509e+00    0.1421289    0.1072124  -4.64 0.0005870219    1.652    0.395
       106  -9.3815    216.9452    155.0000   9.1500636898e+01   6.4773365520e+00     0.235666   0.08408157  46.86 0.0008068975    2.973    0.664
       107  -9.9255    197.0009    153.7512   9.5137290890e+01   1.0849349014e+01    0.2022223    0.1297292  46.37  0.000893286    1.609    0.378
       108  -9.1821    151.6651    153.3208   1.0504247547e+02   2.0684614051e+01    0.1631074    0.1238285  85.97  0.000586047    1.704    0.413
       109 -10.4533    178.1674    151.4874   9.8598438704e+01   1.5368241808e+01     0.331607    0.2710761  79.56  0.001590679    1.465    0.317
       110 -10.0958     26.5405    149.2458   1.3636161176e+02   4.1769365974e+01    0.2398539    0.1075669 -72.80 0.0005636447    1.933    0.483
       111  -9.3197    233.5424    146.5258   8.6644316231e+01   4.8001785291e+00    0.1426679    0.1293249 -36.55 4.206413e-05    1.004    0.004
       112 -10.4013    206.9870    146.0489   9.1415970003e+01   1.0296749778e+01    0.2284139    0.2202035 -30.48 0.0006999266    1.030    0.029
       113 -11.6526      9.4175    145.5420   1.4016450967e+02   4.4097537531e+01    0.3877573    0.1807624  47.95  0.001998112    2.438    0.590
       114  -9.6619     22.6978    144.3142   1.3668550663e+02   4.3288795710e+01     0.127157    0.0843418  76.97  0.000221821    1.615    0.381
       115 -10.4548      2.9169    144.1051   1.4159242979e+02   4.4904921970e+01    0.1943509    0.1116341 -50.63  0.001131402    1.710    0.415
       116  -9.5090     81.5254    139.9133   1.2018747954e+02   3.7202643599e+01     0.213338    0.1328222 -56.07 0.0003747159    1.472    0.320
       117 -10.4211    236.6882    138.9577   8.4459780350e+01   5.5923971589e+00    0.2183549    0.2034644  54.31 0.0003930093    1.193    0.162
       118 -10.8542     54.5759    136.0485   1.2688277607e+02   4.1907567452e+01     0.585865    0.3023061  68.87  0.002116532    3.705    0.730
       119 -12.0993      9.2378    136.7592   1.3916116826e+02   4.6146407887e+01    0.2451336    0.2062255 -49.42 0.0002399757    1.287    0.223
       120 -11.1374      2.8801    137.6499   1.4087934437e+02   4.6389102789e+01    0.3138331    0.1283139 -67.14 0.0005233174    1.803    0.445
       121 -10.2421      5.6782    133.7155   1.3970111356e+02   4.7101427897e+01    0.1820549    0.1496577 -62.96 0.0005996491    1.140    0.123
       122  -9.9550     40.4774    135.7294   1.3071169006e+02   4.3601184680e+01    0.2025286    0.1810497  36.03 0.0007938734    1.320    0.242
       123 -10.6969     21.6881    135.8151   1.3579047971e+02   4.5379426436e+01    0.2723688    0.2088284  71.64   0.00119572    1.402    0.287
       124  -9.7773    137.8536    135.3846   1.0425993060e+02   2.7739383036e+01    0.2284054    0.1493998  33.34 0.0009497688    1.758    0.431
       125 -11.6476     36.6702    130.6525   1.3092550485e+02   4.5205576018e+01    0.3462354    0.3360068  -9.55  0.002202058    1.245    0.197
       126 -10.3618     73.9511    129.2785   1.2011157547e+02   4.0920826332e+01    0.2545727    0.1937702 -56.51 0.0008003929    1.189    0.159
       127  -9.7324    249.3130    129.6880   8.0424043018e+01   4.8385494395e+00    0.1391537    0.1012812 -67.37 0.0007030861    1.633    0.388
       128  -9.4986    243.0177    128.4685   8.1142831488e+01   6.2768674828e+00     0.187401    0.1408206  53.31 0.0005109758    1.496    0.332
       129 -11.1735      1.9715    125.7952   1.3968589178e+02   4.9156301649e+01    0.3865474    0.1553762 -63.54 0.0006133699    1.802    0.445
       130 -10.0937    219.8878    124.5159   8.4113068077e+01   1.1771528987e+01    0.2267241     0.187934 -43.30 0.0008842454    1.123    0.109
       131 -10.3269     40.0882    122.2246   1.2848624576e+02   4.6847417097e+01    0.2645068    0.1841298 -44.48  0.001316397    1.381    0.276
       132 -11.2172     10.4130    122.4863   1.3695771048e+02   4.9350841758e+01    0.2495875    0.2228705  70.46  0.001240936    1.281    0.220
       133 -11.7892     17.6913    117.0651   1.3408984269e+02   5.0060007077e+01    0.4827281     0.262542 -46.58  0.002392253    1.681    0.405
       134 -10.2698     19.4537    121.9232   1.3435117971e+02   4.8804219808e+01    0.2055949    0.1575297 -28.54 0.0006246442    1.532    0.347
       135 -10.1527    226.4796    124.4611   8.2963505355e+01   1.0382421582e+01    0.1462061     0.132917 -53.04 0.0003343272    1.020    0.020
       136  -9.8327    249.7006    118.3342   7.7929601500e+01   6.7909878826e+00     0.142459   0.09828904 -65.46 0.0005636573    1.653    0.395
       137 -10.7223     86.0254    116.5298   1.1375855588e+02   4.2052171209e+01     0.269296    0.2000336 -52.43   0.00135951    1.253    0.202
       138  -9.5296    179.4652    116.5234   8.9963746003e+01   2.2473284117e+01    0.1553161     0.149697 -68.58 9.442512e-05    1.007    0.007
       139 -10.7439     35.0000    113.0152   1.2827603928e+02   4.9499521889e+01    0.5132388    0.1683019 -60.31  0.002073424    2.456    0.593
       140 -11.2449     37.1077    110.1462   1.2708019553e+02   4.9952748455e+01     0.479909    0.2596529  59.18  0.002111416    2.988    0.665
       141 -10.1277    248.5295    112.4802   7.6840682531e+01   8.0594782582e+00    0.1389096    0.1216211 -48.87 5.336681e-05    1.029    0.028
       142  -8.7644    212.5312    112.4912   8.2609735734e+01   1.5683687307e+01    0.1488667    0.1389444 -56.21  0.000294738    1.023    0.022
       143  -9.3461    107.6516    112.1857   1.0648103548e+02   3.9190381993e+01    0.2031225    0.1350211 -40.44 0.0002434482    1.510    0.338
       144  -9.4287     66.4845    112.5880   1.1864087551e+02   4.5918393773e+01    0.1374087    0.1264643 -61.43 0.0001608178    1.064    0.060
       145 -10.3807     43.9486    109.7729   1.2490736311e+02   4.9332822325e+01    0.3395458    0.1956991 -33.20 0.0007097999    2.015    0.504
       146 -12.1661     16.2416    108.7304   1.3314562610e+02   5.2063289509e+01    0.4234518    0.3330971  -3.49 0.0005891884    1.586    0.369
       147 -11.5396     23.9023    107.4906   1.3061003880e+02   5.1749017214e+01    0.3124538    0.2572148  70.05  0.002020603    1.459    0.315
       148 -12.1371     20.2699     98.3897   1.3002954851e+02   5.4069184567e+01    0.6944862    0.2757221 -64.59  0.002961408    2.183    0.542
       149 -10.2223     56.2055    109.5746   1.2109416876e+02   4.7959037218e+01    0.1773646     0.131905   6.90 0.0006751951    1.684    0.406
       150  -9.2814      1.2575    109.6805   1.3770230003e+02   5.2826729409e+01    0.1118943   0.07860946  85.61 0.0002071895    1.542    0.351
       151 -10.2368     63.3471    107.5295   1.1842641475e+02   4.7504168194e+01    0.2355699    0.1935901  61.90   0.00131963    1.469    0.319
       152 -10.9552      3.5821    100.3654   1.3558247715e+02   5.4750565440e+01    0.2968224    0.2208764 -89.57  0.001048926    1.461    0.316
       153 -10.6669      3.0097    105.1930   1.3651865287e+02   5.3720993262e+01    0.2225608    0.1559196 -61.19 0.0004388925    1.089    0.082
       154 -10.1670      6.5740    106.7741   1.3570801187e+02   5.3155740508e+01    0.2248228    0.1350335 -70.82  0.001329644    1.391    0.281
       155  -9.5705    133.4477    107.5174   9.8323886841e+01   3.4901414845e+01    0.1533137    0.1503244 -23.65 0.0001007153    1.049    0.046
       156 -11.0008    243.7463    104.2543   7.5747141286e+01   1.0477868839e+01    0.1808005    0.1637316 -10.99   0.00105405    1.359    0.264
       157 -10.1311    223.3643    103.9493   7.8788911358e+01   1.4873403714e+01    0.2301795    0.1953352 -88.42 0.0005058675    1.232    0.188
       158 -11.1086     69.9599    102.4187   1.1513936732e+02   4.7735663308e+01    0.3747878    0.2654801  12.50  0.001294368    1.767    0.434
       159 -10.5831      9.9286    102.5197   1.3400275504e+02   5.3886906310e+01    0.2084499    0.1771401  36.58  0.001113126    1.471    0.320
       160 -10.6676    247.9833    102.3161   7.4723995321e+01   9.9530028777e+00     0.190774    0.1736811 -75.82 0.0005731538    1.104    0.094
       161 -10.7158     35.6338    101.2864   1.2572879733e+02   5.2100578833e+01    0.2165072    0.2007329  19.45  0.001033431    1.266    0.210
       162 -10.5692     27.5450    101.0885   1.2825336200e+02   5.2880754140e+01    0.2376219    0.1527158 -33.33 0.0009843069    1.618    0.382
       163  -9.7926    119.8064    101.4108   1.0025638830e+02   3.9111168669e+01    0.2176204    0.1434879  32.47 0.0009457335    1.716    0.417
       164 -10.8562     63.1279     98.5858   1.1632733710e+02   4.9535164380e+01    0.3530316    0.2444648  22.06  0.001856224    1.663    0.399
       165  -9.7642     50.4961     99.1334   1.2049583230e+02   5.1000068123e+01    0.1977687    0.1170999 -55.55 0.0004296695    1.489    0.328
       166  -9.3200    141.0367     97.0361   9.3567834924e+01   3.5387015492e+01    0.1799512    0.1750963 -52.39 0.0002975042    1.027    0.027
       167 -10.5194      1.9044     93.3250   1.3492940519e+02   5.6373788827e+01    0.3444538    0.1008623 -56.49  0.001600039    2.246    0.555
       168  -9.4960    227.4573     93.4615   7.5738361718e+01   1.5854710363e+01    0.1444808     0.127218 -64.05 0.0001098214    1.020    0.019
       169  -9.3585     98.6077     93.4906   1.0403084710e+02   4.4946695376e+01    0.1442816    0.1358494 -38.29 0.0001042618    1.037    0.035
       170  -9.1416     66.5901     93.4971   1.1391489194e+02   5.0165923562e+01    0.1375449     0.121356 -38.86 0.0001553345    1.017    0.016
       171 -11.6054     11.2057     91.2277   1.3156765893e+02   5.6270056932e+01    0.3073944    0.2127092  -1.90  0.001959246    1.774    0.436
       172 -10.6428     94.6546     91.6739   1.0468876883e+02   4.6045759855e+01    0.3079618    0.1889009  -0.93  0.001098428    3.370    0.703
       173  -9.8669    171.3957     91.2031   8.5121194128e+01   2.9388248486e+01    0.2205043    0.1389046 -50.43 0.0009485454    1.627    0.385
       174 -10.8641     26.2531     90.9271   1.2655724266e+02   5.5219295879e+01    0.2402985    0.1672306 -12.17   0.00142919    1.694    0.410
       175  -9.3530    167.3309    109.2827   9.0731300015e+01   2.6795187821e+01    0.1546586    0.1254934  13.79 0.0002636717    1.610    0.379
       176  -9.5171    103.7590     88.6210   1.0113558138e+02   4.4971489636e+01      0.19554    0.1375889  51.89  0.000588492    1.560    0.359
       177  -9.0605     73.2513     88.6531   1.1046826058e+02   5.0221660582e+01    0.1312698    0.1075601 -77.87 0.0002912971    1.585    0.369
       178 -12.0587     48.0547     85.6348   1.1796684164e+02   5.4195504839e+01    0.4294389    0.3802539  33.91  0.002758213    1.316    0.240
       179 -10.7297    112.9178     85.9215   9.7750367970e+01   4.3689795844e+01    0.3325596    0.2888565 -83.87  0.001098081    1.405    0.288
       180 -10.6827     67.1556     85.5418   1.1157541676e+02   5.1761305416e+01    0.2647731    0.1801624 -45.90  0.001399158    1.340    0.254
       181 -10.3897      3.7263     85.9257   1.3301550111e+02   5.7851134088e+01    0.1938681    0.1781769  15.94  0.001480068    1.375    0.273
       182 -10.9416    118.1459     83.3435   9.5557731938e+01   4.3105003679e+01    0.3519845     0.319925   0.93   0.00192228    1.157    0.135
       183 -10.3661     29.5175     82.6361   1.2356173193e+02   5.6700502045e+01    0.3469063    0.1186851 -46.39   0.00103427    2.338    0.572
       184 -11.8764     19.2489     80.9278   1.2671925888e+02   5.7892801972e+01    0.3088918    0.2591042  67.36 0.0007196704    1.617    0.381
       185 -11.3773     23.5092     79.7836   1.2497174340e+02   5.7800278702e+01    0.3315905    0.1236418 -56.82 0.0009919282    2.176    0.540
       186 -11.2582     39.4327     81.0070   1.1972267214e+02   5.6093425541e+01    0.2243277      0.19904 -29.96 0.0003419491    1.075    0.070
       187 -10.4498     85.3676     80.8549   1.0438177982e+02   4.9856613903e+01     0.208974    0.1209895 -34.86 0.0009483581    1.752    0.429
       188 -11.1023     71.2837     79.2566   1.0842080345e+02   5.2428173718e+01    0.2752964    0.2310059   5.47 0.0004292871    1.231    0.187
       189  -9.8794     75.4786     79.4686   1.0711576503e+02   5.1743634803e+01    0.2296629    0.1668999 -32.88 0.0006655462    1.309    0.236
       190 -10.0679     74.7823     75.6397   1.0619582060e+02   5.2598622187e+01    0.2174586    0.1785136 -16.30  0.001247118    1.197    0.164
       191  -9.1679     81.3337     79.2383   1.0516948440e+02   5.0848846713e+01    0.1354084     0.102402   0.17 0.0002691514    1.540    0.350
       192 -10.7278     12.3860     77.2823   1.2829830420e+02   5.9128158344e+01    0.3354454    0.1354043 -68.69  0.001467797    2.902    0.655
       193 -10.5025      2.1664     72.6054   1.3089463686e+02   6.0688218630e+01    0.2399389    0.1430894 -47.96 0.0007032102    1.261    0.207
       194 -11.3655      3.1083     77.9072   1.3166228227e+02   5.9556883350e+01    0.2850178    0.1938311 -58.59 0.0008977799    1.175    0.149
       195 -11.2381      7.6023     74.1374   1.2929421957e+02   6.0070832457e+01    0.3757185    0.2157242 -26.99  0.002249044    1.779    0.438
       196 -10.9237    150.0434     77.5931   8.5977714806e+01   3.6989436051e+01    0.2643943    0.2171475 -41.17 0.0002245423    1.247    0.198
       197 -10.3496     93.3075     76.8124   1.0071565267e+02   4.9237214005e+01    0.2616204    0.1774198  11.39 0.0008768965    1.966    0.491
       198 -11.7966     58.8836     75.6489   1.1152097881e+02   5.4892660172e+01    0.5242532     0.356215  65.50  0.002480153    2.732    0.634
       199 -10.5044     65.2975     73.6905   1.0875811660e+02   5.4391753603e+01    0.2148168    0.1948937 -15.80 0.0004213689    1.042    0.041
       200 -11.3004     62.2098     71.7874   1.0923358334e+02   5.5191004174e+01    0.3797608    0.2082736 -40.22   0.00188058    1.660    0.397
       201  -9.5566     35.2561     77.3804   1.2024491618e+02   5.7253239353e+01    0.1465347    0.1152219  33.17 0.0002545389    1.513    0.339
       202  -9.7952    121.5235     76.4710   9.2605316648e+01   4.3668081436e+01    0.1442104    0.1411468  23.70 0.0004413392    1.015    0.015
       203 -10.4458     87.6724     75.9958   1.0219554154e+02   5.0397027928e+01    0.2365085    0.2017911  77.18  0.001293942    1.593    0.372
       204 -10.6741     37.0680     67.8151   1.1698664459e+02   5.8970646362e+01    0.3460478     0.199178 -32.91  0.001075622    1.611    0.379
       205 -10.4482     44.9479     75.0321   1.1619079231e+02   5.6715567994e+01    0.1869788    0.1606522 -31.12 0.0003234142    1.022    0.022
       206 -10.6828     40.2948     72.8102   1.1722515480e+02   5.7661156800e+01    0.3204773    0.2677903 -82.19 0.0008233706    1.665    0.400
       207 -10.9633    152.4550     72.1568   8.3893966435e+01   3.7364423080e+01     0.283015    0.2653778 -41.34  0.000704136    1.108    0.098
       208 -10.4036    110.0001     73.2651   9.4756392496e+01   4.6665541355e+01    0.1854606    0.1225028  44.94 0.0002721122    1.500    0.333
       209 -11.5953    102.6986     72.9544   9.6738495024e+01   4.8179171444e+01    0.5602465    0.2662798 -33.81  0.002259677    2.284    0.562
       210 -10.9025     27.4383     70.7192   1.2130604273e+02   5.9308898614e+01    0.3778738    0.1986593 -59.78  0.001871697    1.896    0.473
       211 -10.7740     31.2052     66.5560   1.1878973901e+02   5.9784148413e+01    0.3191052    0.1791114 -50.88  0.001290076    1.543    0.352
       212 -10.5464     16.9272     72.5368   1.2558382271e+02   5.9780099799e+01    0.2359474    0.1528017 -64.48 0.0007098623    1.548    0.354
       213 -10.7463     16.4385     67.6184   1.2455123324e+02   6.0793717167e+01    0.2309578    0.2066691 -80.35  0.001151299    1.442    0.306
       214 -10.6507     21.3306     65.9388   1.2229688031e+02   6.0753086063e+01    0.2599301    0.1704549  20.56  0.001283336    1.735    0.424
       215 -10.1596    245.1890     72.6147   6.8691310056e+01   1.5515367506e+01    0.1727971    0.1211146  56.16 0.0004856231    1.613    0.380
       216 -10.0658    175.6491     71.4965   7.9018755966e+01   3.1867868520e+01    0.3737424    0.2063216  55.82    0.0013739    1.743    0.426
       217 -11.0083     77.9332     71.9536   1.0403946729e+02   5.2796734898e+01    0.2627378    0.1928736  43.47 0.0003134923    1.497    0.332
       218 -11.8331     49.5843     70.8338   1.1335031207e+02   5.7003890803e+01    0.3868093    0.2507357  53.02  0.001489881    2.371    0.578
       219 -11.0791    140.6539     70.6382   8.6111034418e+01   4.0402344495e+01    0.3380879    0.2524782 -52.29  0.001670413    1.453    0.312
       220 -11.3031     95.2354     68.0411   9.7395108186e+01   5.0485187724e+01    0.5222631    0.2973089 -36.34  0.001507297    1.750    0.429
       221 -10.8919    159.6700     69.0732   8.1493503003e+01   3.6152806451e+01    0.5012406    0.2621737  70.72  0.001874113    2.561    0.610
       222 -10.8482     68.7073     67.4300   1.0567501612e+02   5.5071354115e+01    0.2878672    0.2193864 -33.42 0.0009720859    1.204    0.169
       223 -10.3317     50.7026     67.6633   1.1200871744e+02   5.7475209401e+01    0.2341119    0.1725651 -21.17 0.0007761588    1.296    0.229
       224 -12.0371      4.3748     65.4070   1.2849156651e+02   6.2000239695e+01    0.4608655    0.3295898  73.80  0.002860182    2.309    0.567
       225 -10.2027    146.7880     66.0344   8.3367960814e+01   3.9734203715e+01    0.2126687    0.1904652 -75.19 0.0003713364    1.200    0.167
       226 -10.5260    130.0195     64.0157   8.6658050407e+01   4.3942248987e+01    0.2537037    0.1990128 -34.73            0    1.327    0.246
       227 -11.9019     83.5805     61.4433   9.8856656685e+01   5.3729033091e+01    0.7627232    0.3981476  28.72  0.003372754    2.233    0.552
       228  -9.0407    189.2846     64.2835   7.4717231835e+01   2.9723678187e+01    0.1350836    0.1125054  29.72 0.0001776093    1.522    0.343
       229 -10.0879    174.0252     63.9511   7.7292511949e+01   3.3496398718e+01    0.2204582    0.2021221  75.59 0.0005261435    1.026    0.026
       230  -9.8017     41.5079     64.4117   1.1436168059e+02   5.9151445486e+01    0.1236039    0.1041536 -25.92 0.0001640816    1.022    0.021
       231 -10.9732     56.0731     62.2938   1.0842604519e+02   5.7785969610e+01    0.2253343    0.1785715 -32.40 0.0002043711    1.124    0.110
       232 -10.5196     51.6652     62.6738   1.1012572568e+02   5.8283878691e+01    0.2731213    0.1756631 -19.05  0.001063283    1.669    0.401
       233 -11.2671      4.7835     52.9358   1.2521684839e+02   6.4352777645e+01    0.3771417    0.2043855 -31.67  0.002335503    1.588    0.370
       234 -11.1509     10.8691     62.6570   1.2538398263e+02   6.2141613750e+01    0.2181032    0.1999452  18.01 0.0004116948    1.381    0.276
       235 -10.6014      5.7752     58.5965   1.2630305844e+02   6.3234302461e+01    0.2382718    0.2044901  76.32  0.001420457    1.726    0.421
       236 -10.0995    202.3692     62.2054   7.2124429820e+01   2.6896001180e+01    0.2139438    0.1800021  62.19 0.0003919587    1.209    0.173
       237  -9.9824     92.9034     61.6192   9.6023530967e+01   5.2025625528e+01    0.2418524    0.1740291 -25.54 0.0006536897    1.412    0.292
       238 -12.2607     38.1783     51.5669   1.1158416563e+02   6.1830603703e+01    0.5502712    0.3585678 -25.49  0.002041189    1.382    0.276
       239 -10.3604     44.8241     51.7023   1.0909000572e+02   6.1053744149e+01    0.2360567    0.1808126 -20.48 0.0003263846    1.120    0.107
       240 -11.4098     26.7375     61.5020   1.1903606427e+02   6.1152081398e+01    0.3481548    0.1932903  12.13  0.001938832    2.097    0.523
       241  -9.7783    160.7015     60.9704   7.9005305960e+01   3.7209866138e+01    0.1999101    0.1866333 -50.49 0.0007180633    1.117    0.104
       242 -10.8406     64.1731     59.7331   1.0474651769e+02   5.7117214433e+01    0.3244405    0.1735009  35.59  0.001011987    1.934    0.483
       243 -10.9113     69.6496     58.4322   1.0243479122e+02   5.6522047849e+01    0.3665815    0.3247964 -63.11   0.00226138    1.510    0.338
       244 -11.0306     33.4897     59.9173   1.1600717153e+02   6.0820123132e+01    0.3232858    0.2061579 -16.54  0.001055495    1.645    0.392
       245 -11.2354    123.2595     56.6905   8.6049258020e+01   4.6612071139e+01    0.3014349    0.2287954 -61.33 0.0008748478    1.661    0.398
       246 -10.8433     45.1077     57.8098   1.1098412478e+02   5.9954882844e+01    0.2832616    0.1920371  32.69 0.0006659525    1.637    0.389
       247 -10.1593    113.5785     57.4794   8.8793749731e+01   4.8582002150e+01    0.3914125    0.1208334  46.16  0.001339374    3.050    0.672
       248  -9.8606    117.6017     54.7508   8.6863761184e+01   4.8143798060e+01    0.2022356    0.1383512 -32.77 0.0003732561    1.528    0.346
       249 -10.9577    101.1671     55.4647   9.1558352096e+01   5.1437818831e+01    0.4393146    0.1759686  42.86  0.001599412    2.414    0.586
       250 -10.0600     75.2481     55.9625   9.9726827844e+01   5.6048944255e+01    0.1828496    0.1694257 -32.50 0.0004544253    1.213    0.176
       251 -12.2132    128.0720     51.2122   8.3154413813e+01   4.6357444105e+01    0.4356461     0.344049  -9.40 0.0006074885    1.463    0.317
       252 -10.2457     87.1309     52.4781   9.4730133531e+01   5.4563314201e+01    0.1888667    0.1854778  40.89  0.000880344    1.233    0.189
       253 -11.2462     13.7418     51.3750   1.2119265034e+02   6.4056106284e+01    0.3343947    0.2542894  14.25  0.002388337    1.474    0.321
       254 -10.5689     71.6905     51.0726   9.9237047787e+01   5.7415134316e+01    0.3426036    0.2141035  34.13 0.0005126767    1.579    0.367
       255 -10.3839     76.7953     50.2530   9.7255049702e+01   5.6709619850e+01    0.2413946    0.1621106  19.50 0.0006148127    1.583    0.368
       256  -9.2871     50.2475     52.0071   1.0716203442e+02   6.0336745480e+01    0.1708127    0.1248526 -14.97 0.0001900313    1.277    0.217
       257 -10.9936     51.7391     48.7168   1.0548013425e+02   6.0691227809e+01    0.2716884    0.2343683 -83.69 0.0009043519    1.996    0.499
       258 -10.8557    114.4123     49.1316   8.5862177464e+01   4.9660539138e+01    0.3444544    0.2774933 -52.16  0.001915428    1.466    0.318
       259 -10.4742    107.5006     48.9740   8.7635182657e+01   5.1135650066e+01    0.2985162    0.1663635  35.80 0.0006889335    1.857    0.462
       260 -10.5185    101.3239     48.8510   8.9297560692e+01   5.2408077688e+01     0.234556    0.1941567  36.76   0.00136693    1.131    0.116
       261  -9.8231    104.3539     46.3000   8.7593143689e+01   5.2164617608e+01    0.2172793    0.1466374  18.64 0.0006866451    1.749    0.428
       262  -9.3464    208.6121     48.5284   6.7938984882e+01   2.7459371974e+01    0.1357559    0.1193706 -78.61 7.925689e-05    1.029    0.028
       263 -10.1424    196.8644     48.1559   6.9475236632e+01   3.0316526829e+01    0.2025711    0.1652868 -78.02 0.0002613647    1.154    0.133
       264 -10.7538    153.0620     46.9094   7.6480613235e+01   4.1126452557e+01    0.5576138    0.2916197 -69.74  0.001800994    4.336    0.769
       265 -10.5378    142.8363     46.1596   7.8316433119e+01   4.3662551688e+01    0.2435579    0.2317138 -34.24 0.0006212457    1.138    0.121
       266  -9.4673     96.3791     46.7690   8.9998371643e+01   5.3684599950e+01    0.1743318    0.1219137 -18.35   0.00046326    1.529    0.346
       267 -10.5736     62.1259     47.1679   1.0116997659e+02   5.9498028523e+01    0.3492876    0.1662332  28.58  0.001365472    2.288    0.563
       268 -11.2323     11.1412     43.8092   1.1998898505e+02   6.5580195809e+01    0.3195013    0.2030339 -24.77  0.001277322    1.344    0.256
       269 -11.8225      6.9891     41.5543   1.2104063201e+02   6.6249904834e+01    0.5371775    0.1144277 -47.01 0.0008083326    3.014    0.668
       270 -11.1384     80.8812     42.1219   9.3058074249e+01   5.7219093834e+01    0.2630734    0.2122496  33.59  0.001166902    1.187    0.157
       271 -10.4359     85.0469     38.9297   9.0610713665e+01   5.6915460912e+01    0.2265697    0.1672133  26.77 0.0004666205    1.264    0.209
       272 -11.5243     81.3149     36.5199   9.0889354811e+01   5.7911632243e+01    0.4601789    0.2287294  31.80  0.002160078    2.119    0.528
       273 -11.6183    122.7309     45.0834   8.2476960582e+01   4.8417393054e+01    0.5709422    0.3343869 -49.74  0.002640337    2.131    0.531
       274  -9.9139     91.7204     44.9964   9.0749918831e+01   5.4832077618e+01    0.1806936    0.1559768 -16.16   0.00028389    1.145    0.127
       275  -9.7186     85.7710     45.2045   9.2625137964e+01   5.5903873273e+01    0.1790943    0.1379192  12.85 0.0003223654    1.291    0.225
       276 -11.5249     96.5940     40.8669   8.7890542579e+01   5.4467738428e+01    0.4413355    0.3285318  79.55   0.00227986    2.162    0.537
       277 -10.3734    163.1094     42.4462   7.3348936583e+01   3.9306564420e+01    0.2033393    0.1933874  -5.39 0.0003118345    1.223    0.182
       278  -9.0590    233.2984     45.3122   6.4209210944e+01   2.2241898188e+01    0.1171345    0.1032561  36.26 0.0004074572    1.603    0.376
       279  -9.9224     64.1526     41.6345   9.8462987305e+01   6.0036789305e+01    0.2503346     0.132546 -36.11  0.001295651    1.828    0.453
       280 -10.0556    111.0212     42.0698   8.4396478214e+01   5.1363710253e+01    0.1970694    0.1819074  38.94 0.0003409215    1.060    0.057
       281 -10.4845     52.0349     41.5163   1.0280606283e+02   6.1790254917e+01    0.1927755    0.1378078 -30.74 0.0005500425    1.281    0.219
       282 -10.1587     23.8418     41.5634   1.1397054142e+02   6.4944260407e+01    0.2420068    0.2227034   6.94  0.001427983    1.368    0.269
       283 -10.4518     20.5172     37.5454   1.1398347872e+02   6.5896342504e+01    0.2238409     0.149724 -13.91  0.001153085    1.339    0.253
       284 -11.7239     24.8359     35.4850   1.1143197595e+02   6.5833361553e+01    0.3226235     0.223011  27.76   0.00118306    1.636    0.389
       285 -10.0829     89.9947     40.3416   8.9623518121e+01   5.5807026248e+01    0.2204729     0.181875 -58.16 0.0008541503    1.663    0.399
       286  -9.7455    235.7792     40.0965   6.2827131240e+01   2.2419489921e+01    0.2680222    0.1447411 -57.81   0.00135046    1.724    0.420
       287 -10.2009    226.4246     40.1455   6.3851315046e+01   2.4505934734e+01    0.2373679    0.1671393  87.79 0.0005020152    1.310    0.237
       288 -10.8494    135.7983     38.2494   7.7376823726e+01   4.6350719215e+01    0.3468517    0.1862252 -28.56  0.001605721    2.083    0.520
       289 -10.6938    130.5890     33.6419   7.7041302477e+01   4.8116978493e+01    0.3859506    0.2364815  84.23  0.001698248    2.501    0.600
       290  -9.9095     44.1233     39.2596   1.0499287354e+02   6.3151565537e+01    0.2199957    0.1200897 -45.04 0.0009898695    1.942    0.485
       291 -10.9265     69.5369     37.1356   9.4947822313e+01   5.9833287077e+01    0.4310614    0.2489942  -8.61  0.002102309    2.255    0.557
       292 -11.0732      2.8941     33.3113   1.2020163873e+02   6.7896890298e+01    0.3524217    0.2521884  -7.16  0.002642808    1.306    0.235
       293 -11.0001      9.2697     34.2339   1.1769607316e+02   6.7321815140e+01    0.3057023    0.1627349 -12.72  0.001822901    1.981    0.495
       294 -10.1104    137.0170    247.7104   1.2492644270e+02   3.7070941412e+00    0.1837278    0.1487856  45.78 0.0004290371    1.062    0.058
       295 -10.5704    181.0057    248.8720   1.1644243772e+02  -3.9190204845e+00     0.323101     0.122564 -37.64  0.001314003    3.427    0.708
       296 -10.8940    101.7742     36.9533   8.5089895007e+01   5.3949381038e+01    0.2138127    0.1717056  42.10  0.000454845    1.145    0.127
       297 -10.4771    169.6835     36.0306   7.0473429973e+01   3.8542635401e+01    0.2382777    0.1779473  61.02 0.0002400914    1.215    0.177
       298 -10.2142    106.0774     34.8056   8.3207333558e+01   5.3336582781e+01    0.3178971    0.1774215 -42.68  0.001541499    2.116    0.527
       299 -10.3105     56.9632     35.6811   9.8817893288e+01   6.1962575015e+01    0.1689155     0.138436   4.18 0.0006880063    1.040    0.039
       300 -10.3160    146.7611     35.6284   7.4383113250e+01   4.4107115620e+01    0.1929316    0.1217266  70.20 0.0008569105    1.606    0.377
       301 -10.3202    110.9975     34.8800   8.1979762954e+01   5.2293747444e+01    0.1980809    0.1838755  -4.85 0.0003047983    1.128    0.114
       302  -9.9292     31.8362     34.0533   1.0798774363e+02   6.5351591977e+01    0.2151509    0.1324574  28.61 0.0008123412    1.709    0.415
       303 -10.4095     96.3009     32.8671   8.5150222124e+01   5.5557334455e+01    0.2610365    0.1402529  29.92 0.0008354273    2.075    0.518
       304  -9.5957     77.7653     32.9961   9.0704384481e+01   5.8998701240e+01    0.1553586   0.09938186 -27.44 0.0003323995    1.570    0.363
       305 -10.4696     19.2115     32.1911   1.1264361836e+02   6.6859589571e+01    0.2117566    0.1758931  18.29  0.001393049    1.432    0.302
       306  -9.7102    178.8204     31.7975   6.7944420892e+01   3.6852947225e+01    0.1897514    0.1429597 -75.87 0.0004085993    1.359    0.264
       307  -9.7606     89.8814     31.8198   8.6592454709e+01   5.6931638232e+01    0.1874005    0.1512024  21.85 0.0003668311    1.120    0.107
       308 -10.0441     73.7954     31.2599   9.1327355099e+01   5.9905482190e+01    0.2065615    0.1417281  26.93 0.0004251407    1.341    0.254
       309  -9.9601     56.2498     31.0541   9.7305805757e+01   6.2704168107e+01    0.1690739     0.135963  -7.47 0.0004319286    1.068    0.064
       310 -10.4077     50.4684     27.4039   9.8020930785e+01   6.4010486328e+01    0.3338673    0.1601678 -19.11  0.001598577    2.527    0.604
       311  -9.4543    140.2264     29.0439   7.3659267173e+01   4.6427555671e+01    0.1645389     0.112985 -26.41 0.0006213953    1.651    0.394
       312  -9.6844    100.9706     28.6701   8.2400817653e+01   5.5120292647e+01    0.1762204     0.146993  41.69 0.0004543895    1.091    0.084
       313 -10.2212    124.8754     27.8562   7.6420442594e+01   5.0082061838e+01    0.1937545    0.1553598  37.10 0.0002715268    1.183    0.155
       314  -9.5066    203.7672     26.9889   6.3475215634e+01   3.1464849523e+01    0.1570188    0.1062608 -38.57 0.0002389599    1.574    0.365
       315 -10.2270    154.7218     27.0600   7.0450995072e+01   4.3223562746e+01     0.176105    0.1652499  58.26  0.001108787    1.092    0.085
       316 -11.2999     70.5334     26.1801   9.0446689755e+01   6.1085136768e+01    0.4116296    0.2126752  37.29  0.001563416    1.767    0.434
       317 -10.3027     24.7544     27.0539   1.0831899356e+02   6.7116285159e+01    0.1828696    0.1555795  -3.44 0.0004836912    1.234    0.189
       318  -9.8792    148.0000    244.9800   1.2237351095e+02   2.3230525512e+00    0.1920625   0.07568183 -51.70 0.0008045495    2.957    0.662
       319 -10.6643     23.8046     21.8309   1.0666742454e+02   6.7951296513e+01    0.3416151     0.125662 -33.87  0.001702005    2.407    0.585
       320 -10.7927     27.3091     19.6639   1.0425528446e+02   6.7880845041e+01    0.2049779    0.1685105  -0.65 0.0007333214    1.186    0.157
       321  -9.4302    146.1835     26.1518   7.1680983856e+01   4.5353652804e+01    0.1760872    0.1460396 -77.93 0.0004342413    1.333    0.250
       322 -11.1875    129.3922     23.9215   7.4213554002e+01   4.9491503600e+01    0.3281563    0.2269832 -52.46  0.001779045    1.779    0.438
       323  -9.4301     90.5211     26.5470   8.4482819220e+01   5.7434134342e+01    0.1261597    0.1095482  25.77 3.462193e-05    1.028    0.027
       324  -9.7985     16.6899     25.8951   1.1141160633e+02   6.8035040392e+01    0.2178144   0.07107674 -38.70  0.001068413    2.496    0.599
       325 -11.4518     61.3578     23.7423   9.2598287970e+01   6.2865166504e+01    0.2947713    0.2498239  45.73  0.001817747    1.493    0.330
       326 -10.8904     65.4969     20.9753   9.0072298239e+01   6.2528134163e+01    0.2454025    0.1578294  48.08 0.0008854936    1.701    0.412
       327  -9.1742    220.7160     24.6506   6.1079011769e+01   2.7819237754e+01    0.1165819   0.09730433  40.52 0.0007018303    1.653    0.395
       328 -10.5276     54.1780     23.1849   9.4947477546e+01   6.4018986330e+01    0.2218676    0.1658843  28.44 0.0007954519    1.257    0.204
       329  -9.9085     94.0722     22.5278   8.2031078118e+01   5.7186786799e+01    0.1864047    0.1584362   4.09 0.0005609536    1.157    0.136
       330  -9.6020    115.5012    244.5030   1.2876582588e+02   7.8932570473e+00    0.1303327    0.1091552  57.87 -0.0001868708    1.013    0.013
       331 -10.7656    124.0395     22.0062   7.4704911845e+01   5.0900632997e+01    0.1951854    0.1680878  48.58 0.0003604483    1.012    0.012
       332  -9.5212     35.5142     22.5247   1.0196311358e+02   6.6575723579e+01    0.1634262    0.1359022  13.60  0.001202323    1.261    0.207
       333  -9.7286     35.5459     19.5395   1.0071830282e+02   6.6959595348e+01    0.1601998    0.1246881 -11.95 0.0008865406    1.099    0.090
       334  -9.7001     45.2878     20.4083   9.7171575625e+01   6.5609015841e+01    0.1442785    0.1010292  36.30 0.0005618977    1.533    0.348
       335 -10.5512    103.8799     19.1748   7.8310192443e+01   5.5546889634e+01    0.2520019    0.1432824  37.15  0.001315723    1.650    0.394
       336 -10.2891     72.0352    243.9414   1.3710629082e+02   1.4758617111e+01    0.1939754    0.1570675  69.97 0.0008787983    1.051    0.048
       337 -11.7650     73.9625    238.0591   1.3615987986e+02   1.5655977455e+01    0.5907056    0.3260097  55.41  0.003211975    1.559    0.358
       338 -11.1720     73.8359    232.8508   1.3565008787e+02   1.6739191361e+01    0.2937804    0.1970014  59.16 0.0009829566    1.268    0.211
       339 -10.0725     88.5429    241.4512   1.3369616030e+02   1.2790042580e+01     0.207724    0.1068945 -52.89  0.001026958    2.354    0.575
       340 -10.5794    217.4955     16.3405   5.9598767060e+01   2.9542475366e+01    0.3734435    0.1291728  59.51  0.001567341    2.682    0.627
       341 -11.5082     34.7265    241.4661   1.4369917723e+02   2.0211287693e+01     0.585229    0.2085823  47.01  0.002967293    2.285    0.562
       342 -10.1842    108.1418     17.0424   7.6550163822e+01   5.4863803262e+01    0.1848557    0.1677188  52.06 0.0005597666    1.126    0.112
       343  -9.6577     34.5617     15.7252   9.9516739315e+01   6.7554369139e+01    0.2823719    0.1375858   5.59   0.00130177    3.209    0.688
       344 -10.5232      9.5854     15.9473   1.1075111772e+02   7.0058883680e+01    0.1951734    0.1290511   3.82 0.0008102703    1.351    0.260
       345 -10.7254     31.6961    237.3612   1.4393364465e+02   2.1399261811e+01    0.2980644    0.1606414  78.16  0.001161627    1.638    0.389
       346 -10.7293     29.2079    233.1579   1.4406824567e+02   2.2546855054e+01    0.2707384    0.1322104  52.02  0.001015979    1.733    0.423
       347  -9.4034     51.3315     11.2537   9.1022605558e+01   6.5798000289e+01     0.116811    0.0710897  16.16 0.0002346761    1.559    0.358
       348 -10.8976    156.2042    240.7388   1.2011953631e+02   1.6574721574e+00    0.2365607    0.1769772 -86.72  0.001288275    1.872    0.466
       349  -9.4442     50.2937    240.3409   1.4081579367e+02   1.8474613974e+01    0.1044992   0.09024198 -55.10 0.0003899853    1.655    0.396
       350 -10.0052    195.8822    238.4147   1.1187854260e+02  -4.7378766601e+00    0.2390385    0.1779635  17.24  0.001224581    1.339    0.253
       351 -11.2535    176.9806    235.5744   1.1515004947e+02  -1.0527478203e+00    0.4653556    0.2885131  -4.68  0.001962099    3.104    0.678
       352  -9.1327    243.3068    237.6440   1.0286168948e+02  -1.2016285351e+01    0.1041693   0.09934622 -84.11 0.0004268643    1.722    0.419
       353  -9.1331    168.6527    250.6733   1.1911992246e+02  -2.1448182150e+00    0.1296862   0.09373445  10.26 0.0007049764    1.752    0.429
       354 -10.0370    139.6494     13.7686   6.9143580833e+01   4.8152615350e+01    0.1587626    0.1149381 -41.02 0.0002197795    1.576    0.366
       355  -9.9941    109.9532    242.9769   1.2967497570e+02   9.0934275245e+00     0.215229    0.1349562  67.75 0.0008947935    1.699    0.411
       356 -10.4761      1.4233    244.9939   1.4951409688e+02   2.3208986299e+01    0.1552082   0.08029357 -83.98 0.0004384042    1.545    0.353
       357 -10.2523    167.0372    233.7721   1.1686531621e+02   9.9647006544e-01    0.2123728    0.1978413 -38.72 0.0008041673    1.210    0.174
       358  -9.9495     79.5544    231.3746   1.3436470328e+02   1.6197032199e+01    0.2272687    0.1414621  42.85 0.0006024578    1.528    0.346
       359  -9.6664    108.1584     10.3873   7.4240958805e+01   5.5475097075e+01    0.1696711    0.1092624  67.87 0.0006245528    1.644    0.392
       360 -10.3059     66.3390    226.6512   1.3648391657e+02   1.9115497782e+01    0.2758763    0.1714421  44.03  0.000717711    1.538    0.350
       361 -10.2353    159.9328    235.8605   1.1863114155e+02   1.8725865687e+00    0.2056668    0.1707786  20.85 0.0006627148    1.278    0.218
       362  -9.2761     58.3545    230.2965   1.3840408067e+02   1.9458336872e+01    0.1076903   0.09840868 -36.00 0.0004512153    1.693    0.409
       363 -10.7690    153.4480    233.6180   1.1960818460e+02   3.4183039314e+00    0.2460086     0.202814 -18.53  0.000797225    1.538    0.350
       364 -10.2858    190.5677    226.6762   1.1094818232e+02  -1.8967489116e+00    0.2859802    0.1313358 -45.78 0.0009275218    2.420    0.587
       365  -9.3083    249.3524    227.2728   9.9949611088e+01  -1.1431183993e+01    0.1263189   0.08173803   4.81 0.0004193944    1.636    0.389
       366  -9.4821    140.1403    227.3645   1.2140920676e+02   6.9559585214e+00    0.2043905    0.1106914  49.91 0.0009418821    1.723    0.420
       367 -10.2221    129.8605    226.8466   1.2347886123e+02   8.8724362174e+00    0.3905254    0.1754124  55.32  0.001551127    2.545    0.607
