#   1 NUMBER                 Running object number                                     
#   2 MAG_AUTO               Kron-like elliptical aperture magnitude                    [mag]
#   3 X_IMAGE                Object position along x                                    [pixel]
#   4 Y_IMAGE                Object position along y                                    [pixel]
#   5 X_WORLD                Barycenter position along world x axis                     [deg]
#   6 Y_WORLD                Barycenter position along world y axis                     [deg]
#   7 A_WORLD                Profile RMS along major axis (world units)                 [deg]
#   8 B_WORLD                Profile RMS along minor axis (world units)                 [deg]
#   9 THETA_WORLD            Position angle (CCW/world-x)                               [deg]
#  10 FWHM_WORLD             FWHM assuming a gaussian core                              [deg]
#  11 ELONGATION             A_IMAGE/B_IMAGE                                           
#  12 ELLIPTICITY            1 - B_IMAGE/A_IMAGE                                       
         1 -14.6780    207.3446     17.3979   5.0010105575e+01   3.0738423521e+01     1.816428      1.16837  21.70   0.00817756    2.179    0.541
         2 -14.4111    195.9061     31.2165   5.5564395410e+01   3.2089486535e+01     1.945919     1.249813  31.07  0.007891643    1.954    0.488
         3 -11.8720     31.2194      2.5850   8.8272406139e+01   7.0618465201e+01    0.2929338    0.1407638  36.69  0.001636764    2.441    0.590
         4 -10.8991     71.4346    229.4486   1.2349260036e+02   2.0027631229e+01    0.1943516     0.140546  65.07  0.000551977    1.022    0.021
         5 -15.8826    118.5558    247.2155   1.1722508615e+02   1.0539360631e+01      9.12316     1.768511  43.69   0.03498087    3.862    0.741
         6 -15.2550     57.6118    200.7124   1.2353686187e+02   2.6958391733e+01     2.341354     1.289922  75.74   0.01382683    1.720    0.419
         7 -10.7889    207.6100    183.7704   9.2174942421e+01   4.6765311668e+00    0.2469967    0.1896614 -43.60  0.001070742    1.541    0.351
         8 -10.9214    210.7332    181.0213   9.1078639480e+01   4.4914426561e+00    0.3372555    0.2018228   9.45  0.001472075    2.567    0.610
         9 -12.0542     71.7149    182.0762   1.1901660226e+02   2.8774501953e+01    0.3608566    0.2517681 -45.47  0.002128726    2.035    0.509
        10 -11.9157     76.0399    176.5846   1.1750917864e+02   2.9297793988e+01      0.27334    0.2167223 -54.92  0.001020949    1.512    0.338
        11 -10.4831    197.7917    176.5672   9.2646263352e+01   7.6647487478e+00    0.3241854    0.2408046 -45.08  0.001353356    1.552    0.356
        12 -11.0751    196.9720    172.0010   9.1916544767e+01   8.5541551215e+00    0.3275008    0.2792483 -12.16  0.001396504    1.245    0.197
        13 -13.6235     57.9329    129.5307   1.1525977964e+02   4.1914281086e+01     2.492404    0.7157484 -73.02  0.005964052    8.019    0.875
        14 -12.4555     84.4921    166.0992   1.1439030388e+02   3.0268960754e+01    0.5792029    0.3858463  88.04  0.003206114    1.561    0.359
        15 -13.4769     72.4224    162.5355   1.1653359188e+02   3.2742457369e+01     0.592709    0.4417776 -33.93  0.001769594    2.097    0.523
        16 -10.1036    193.5040    164.9849   9.1189695663e+01   1.0399509851e+01    0.2039386    0.1389214 -38.25  0.001026804    1.574    0.365
        17 -14.8296     10.8582    206.4224   1.3201320673e+02   3.0997771053e+01    0.6079975    0.5164444  57.62  0.002238853    1.472    0.321
        18 -15.1006     68.0744    143.9045   1.1495787750e+02   3.7396738181e+01     5.251314     1.786812  59.43  0.004275069    8.355    0.880
        19 -11.6692     43.7314    148.9552   1.2120286943e+02   3.9219768475e+01    0.2654564     0.207973  74.14 0.0007014191    1.146    0.128
        20 -11.0691     36.6915    150.4373   1.2292458514e+02   3.9644191670e+01    0.2060178   0.09921912  42.54  0.001127824    2.104    0.525
        21  -9.6597    174.6639    149.2976   9.1724953617e+01   1.7075419944e+01    0.1455142    0.1156637  83.65 0.0004218295    1.653    0.395
        22 -10.9848    134.0000    144.0077   9.9517662857e+01   2.6464856619e+01    0.8340287    0.2312075 -56.67  0.002035813    6.296    0.841
        23 -12.8387     90.5568    159.0479   1.1205234648e+02   3.0855190790e+01     1.474229    0.7607513 -76.65  0.004293525    2.397    0.583
        24 -10.6086    102.8086    144.3877   1.0684192790e+02   3.2064042500e+01    0.2921145    0.2625444 -36.59 0.0009422617    1.345    0.257
        25 -10.1274    105.3519    140.9508   1.0561418562e+02   3.2385701427e+01    0.2645749    0.2077274 -25.88   0.00137702    1.774    0.436
        26 -12.2755     91.4622    143.2192   1.0931965283e+02   3.4163916271e+01    0.2541571    0.2401597 -55.08 0.0004650104    1.222    0.182
        27 -11.5707     69.2697    134.3584   1.1321318545e+02   3.9376618524e+01    0.3772776     0.128348  44.37  0.001516495    2.983    0.665
        28 -10.1440    112.4443    132.2077   1.0220262726e+02   3.3059443440e+01    0.2565167    0.2228633  -3.11 0.0008776351    1.525    0.344
        29 -10.2183    105.9118    130.6554   1.0348836443e+02   3.4561534874e+01    0.2809291    0.2010598 -65.95  0.001432805    1.394    0.283
        30 -12.6115     43.8954    127.5691   1.1846270030e+02   4.3951886314e+01    0.4356881    0.2481452 -86.49  0.001595467    1.785    0.440
        31  -9.8964    160.4977    126.4742   8.9630647227e+01   2.4546600833e+01    0.1496352    0.1467502  55.43 1.416691e-05    1.007    0.007
        32 -10.5526    117.8184    126.0218   9.9581086542e+01   3.3427076069e+01    0.2372395    0.1673309 -25.76 0.0009412209    1.992    0.498
        33  -9.7522    108.7058    120.3248   1.0061340053e+02   3.6361672446e+01    0.1786316    0.1642454 -18.06 0.0006416253    1.287    0.223
        34 -10.9785    100.0082    128.6311   1.0454742717e+02   3.6024276045e+01    0.2712147    0.2312037 -15.99 0.0007011727    1.568    0.362
        35 -11.8429    136.6214    171.0453   1.0396586480e+02   2.0505470207e+01    0.4351264    0.1825586  35.83  0.001641448    2.854    0.650
        36 -13.2897     24.1920    194.6366   1.2907328419e+02   3.1891195534e+01    0.6344799    0.3799081  60.95  0.002690969    1.350    0.259
        37  -9.8852    167.6798    112.6211   8.4605329475e+01   2.5668244444e+01    0.3132508    0.2254826 -80.48  0.001313743    2.075    0.518
        38 -10.9824    183.2352    215.4200   1.0202078846e+02   4.5374010768e+00    0.1816764    0.1006672  50.18 0.0009535147    1.659    0.397
        39  -9.3707    205.5336    110.4383   7.6304578296e+01   1.7208966165e+01    0.1506125    0.1446669   2.12 0.0002846684    1.008    0.008
        40 -17.5847      7.7507    240.5806   1.3401152068e+02   2.5439738351e+01     10.60686     2.012318 -77.65   0.01908727    4.517    0.779
        41 -11.1956     13.2256     59.9045   1.1589979230e+02   6.1547928680e+01    0.1742427    0.1351101 -74.55 0.0006021388    1.249    0.199
        42  -9.7848    160.3620     54.0842   6.9072049463e+01   3.8133446996e+01    0.2145933    0.1907172 -38.93 0.0006462157    1.137    0.121
        43 -14.0269     48.0781    211.2434   1.2606509736e+02   2.6158811070e+01    0.8447867    0.5028236 -63.51  0.001570752    1.884    0.469
        44 -13.0375    187.1007     37.8536   5.8933708857e+01   3.3546922760e+01    0.6386401    0.5148229  37.98  0.001216865    1.314    0.239
        45 -11.5376     97.3579    238.8688   1.1996317706e+02   1.4914673730e+01    0.2489541    0.1578263  85.92  0.001438214    1.702    0.413
        46 -12.8254    195.9448    195.8420   9.6514468714e+01   5.0738399879e+00    0.7633289    0.5767065  68.00  0.004211544    1.799    0.444
        47 -10.8714    189.6995     15.0147   5.1524954118e+01   3.5629743629e+01    0.1990637    0.1897305 -38.55  0.000683743    1.098    0.089
