#   1 NUMBER                 Running object number                                     
#   2 MAG_AUTO               Kron-like elliptical aperture magnitude                    [mag]
#   3 X_IMAGE                Object position along x                                    [pixel]
#   4 Y_IMAGE                Object position along y                                    [pixel]
#   5 X_WORLD                Barycenter position along world x axis                     [deg]
#   6 Y_WORLD                Barycenter position along world y axis                     [deg]
#   7 A_WORLD                Profile RMS along major axis (world units)                 [deg]
#   8 B_WORLD                Profile RMS along minor axis (world units)                 [deg]
#   9 THETA_WORLD            Position angle (CCW/world-x)                               [deg]
#  10 FWHM_WORLD             FWHM assuming a gaussian core                              [deg]
#  11 ELONGATION             A_IMAGE/B_IMAGE                                           
#  12 ELLIPTICITY            1 - B_IMAGE/A_IMAGE                                       
         1 -16.5660     31.3266    132.1575   1.2426763097e+02   4.4194092795e+01     4.415972     3.146087  45.33   0.02962047    1.528    0.345
         2 -11.2041    180.0949     35.8200   6.2583665659e+01   3.5774951946e+01    0.7759236    0.6523155  85.95  0.003313476    1.313    0.239
         3 -11.7424      6.2614      6.4167   1.0585811071e+02   7.3669047491e+01     1.444567    0.6098791 -51.94  0.007962279    1.746    0.427
         4 -12.5227     18.0846      6.3357   9.9214809082e+01   7.2736107773e+01     1.239442    0.8982351  19.22  0.008544374    1.646    0.392
         5  -7.9868    212.0001      7.7544   4.9471677907e+01   3.0552523636e+01    0.1831795    0.1196565  74.55  0.000438885    1.564    0.361
         6 -10.5030    202.6509      5.2261   4.9614256055e+01   3.3239934881e+01    0.6817115    0.3539362  47.79  0.002908354    2.060    0.515
         7 -10.2073    198.5269      3.6322   4.9528179891e+01   3.4478144041e+01    0.4999559     0.351243  48.87  0.002498751    1.481    0.325
         8 -10.9103     40.1690      3.8976   8.6666184979e+01   7.0634079441e+01    0.3621073     0.301242  35.42  0.002454355    1.514    0.339
         9 -13.5692     62.2057    203.8993   1.2452006805e+02   2.6431583603e+01    0.4635527    0.2705727 -77.80  0.003110341    1.660    0.398
        10 -14.0242    247.1554    243.7350   9.8731387500e+01  -5.7540915017e+00      3.90807     1.245805 -32.37   0.02115667    3.811    0.738
        11 -15.0204     93.2674    224.4327   1.2090865909e+02   1.9028456261e+01      3.85954       2.5583 -29.40   0.02044952    4.283    0.766
        12 -15.6511    102.9635    232.3210   1.1999857780e+02   1.6525046557e+01     4.004554     2.565944  19.78  0.002977365    3.343    0.701
        13  99.0000     27.5131    210.6278   1.3082821047e+02   2.9154264326e+01    0.9978528    0.8351766 -53.30  0.008268386    1.988    0.497
        14 -13.6230     90.5697    247.4695   1.2315488000e+02   1.6014797270e+01      4.47906    0.3602965  41.42   0.01178477    8.927    0.888
        15  99.0000     49.9406    215.6890   1.2743914387e+02   2.5868363258e+01     1.204074    0.4197655  65.92  0.005848683    3.211    0.689
        16 -14.8176     42.8729    228.8313   1.2934340614e+02   2.4522987415e+01     2.112177     1.129773  84.07   0.01526309    1.660    0.398
        17 -16.0310     73.2459    245.2717   1.2564603476e+02   1.8496977255e+01     1.419558     0.564904 -76.85  0.008499159    3.064    0.674
        18 -16.6775     63.3161    240.4456   1.2685742689e+02   2.0397841874e+01     1.506904    0.5490629 -72.97  0.009009175    3.019    0.669
        19  99.0000     77.7082    235.8567   1.2432037975e+02   1.9322883434e+01     6.165346      1.53608  35.70   0.01633046    8.345    0.880
        20 -11.0315     57.5113    199.5050   1.2500629176e+02   2.7776028106e+01    0.1794481    0.1321275  49.79  0.001321763    1.319    0.242
        21 -12.5007     63.4417    210.3401   1.2479951513e+02   2.5170720178e+01     0.341745    0.1480132 -63.89  0.002015061    2.465    0.594
        22 -12.5636     59.7952    210.1857   1.2541064065e+02   2.5639811301e+01    0.2431525    0.1574019 -47.32  0.001554502    2.654    0.623
        23 -10.8101     76.9431    211.1988   1.2254864742e+02   2.3322459918e+01     0.153239    0.1132175  74.51 0.0002404638    1.125    0.112
        24 -12.2131     69.6483    208.5032   1.2358842123e+02   2.4711659269e+01     0.175449    0.1292682  69.37 0.0006273558    1.042    0.041
        25 -10.8789     53.9793    208.2825   1.2626660021e+02   2.6656856335e+01   0.09035978   0.06344715  82.58 0.0002174485    1.189    0.159
        26  -8.8495     87.9913    206.8199   1.2023219107e+02   2.2586209752e+01    0.1370229    0.1033952  64.65 0.0002419915    1.038    0.037
        27  -9.3213     91.2757    205.1132   1.1948711165e+02   2.2421989486e+01     0.145188    0.1191866  67.51 0.0002683934    1.071    0.066
        28 -12.1737    234.0153    249.6745   1.0144509404e+02  -4.4408140592e+00    0.2823786    0.1925443  39.08 0.0003964581    1.296    0.228
        29 -13.3634     78.0630    203.7417   1.2170916489e+02   2.4443818378e+01    0.4543212    0.3186401  32.92  0.003040484    1.802    0.445
        30 -11.5238     17.0780    206.3877   1.3232211593e+02   3.0916743120e+01   0.08814809   0.08080921 -78.63 0.0007760245    1.658    0.397
        31 -11.9108     48.8519    204.6578   1.2689435822e+02   2.7880034874e+01    0.1423115    0.1049628  56.58 0.0005968197    1.209    0.173
        32  -7.5641    163.5648    201.4879   1.0611754934e+02   1.1785591575e+01    0.1190756   0.09988236  44.98 3.114766e-05    1.019    0.019
        33 -11.1482     70.2648    199.0027   1.2268638364e+02   2.6285687531e+01    0.1549084    0.1193324  64.95 0.0003297651    1.056    0.053
        34  99.0000     27.0234    194.3632   1.3002212476e+02   3.2071660491e+01    0.1764424    0.1509508 -78.63  0.001471082    1.483    0.326
        35  -8.8140     20.3843    198.8332   1.3140479042e+02   3.1924444301e+01    0.1776765   0.07619892 -76.17  0.001115064    2.055    0.513
        36  99.0000     23.4793    197.5633   1.3081215411e+02   3.1847958867e+01    0.3370852    0.1035834 -77.04  0.001783065    2.849    0.649
        37 -10.3624     82.9737    197.9670   1.2029043563e+02   2.4794929391e+01    0.1569055    0.1237181  69.06            0    1.014    0.014
        38  -9.8989     90.1019    196.7200   1.1886255078e+02   2.4031899718e+01    0.1750216    0.1447645  72.19 0.0005590511    1.064    0.060
        39 -12.4590     62.4849    194.5306   1.2371194785e+02   2.8065937271e+01    0.1958374    0.1407891  69.52  0.001404129    1.084    0.077
        40 -11.2218     57.6773    193.7394   1.2452059963e+02   2.8796045561e+01    0.1570273    0.1063443  71.09 0.0006325332    1.176    0.150
        41 -10.8309     20.2309    193.8901   1.3117258108e+02   3.2828477893e+01   0.09404618   0.05899801  72.81 0.0003351248    1.154    0.134
        42 -10.3917     76.8941    192.3915   1.2087121499e+02   2.6608091278e+01    0.1531773    0.1179582  71.45 0.0002978994    1.037    0.035
        43  99.0000     50.9978    192.2929   1.2561904957e+02   2.9850958754e+01     0.157638   0.09999224  73.59 0.0002771718    1.286    0.222
        44 -10.5584     40.2059    191.6506   1.2751974181e+02   3.1184609005e+01    0.1081929   0.08330024  71.32 0.0002889348    1.093    0.085
        45 -11.5181     45.4863    191.4422   1.2655359583e+02   3.0637791959e+01    0.2984079    0.2150842  30.51  0.002089091    1.915    0.478
        46 -11.5711     49.2534    189.3616   1.2571136313e+02   3.0594463676e+01    0.1429758   0.09494258  66.26  0.000394082    1.184    0.155
        47 -10.3316     43.3223    189.3033   1.2679021319e+02   3.1275951756e+01    0.1645308    0.1337526  38.15 0.0003479827    1.599    0.375
        48  99.0000     35.4307    189.8832   1.2825739728e+02   3.2024711566e+01    0.2078712    0.1246657  67.28  0.001441767    1.301    0.231
        49  -8.0820     92.7789    187.3753   1.1736139041e+02   2.5323390897e+01    0.1172005   0.07616924  79.85 0.0005044552    1.595    0.373
        50  -9.1427     83.0159    185.6377   1.1903590895e+02   2.7018307494e+01    0.1700223    0.1195105  67.88 0.0004474069    1.224    0.183
        51 -11.9402     63.2112    184.4895   1.2269724250e+02   2.9835272722e+01    0.1812352    0.1424268  80.25 0.0003338289    1.059    0.056
        52  99.0000     34.1992    183.6536   1.2806048802e+02   3.3321883670e+01    0.5219421    0.1206061  41.74  0.002460066    3.259    0.693
        53 -11.0603     43.1286    183.1867   1.2637062595e+02   3.2447913115e+01     0.147787     0.114648  76.98 0.0004121971    1.065    0.061
        54 -11.4119     16.4926    182.4903   1.3121201364e+02   3.5291748229e+01    0.1061064   0.07766436  75.71 0.0004003274    1.060    0.057
        55  -8.8901     19.1483    179.8045   1.3057729633e+02   3.5551864958e+01    0.1260131    0.1169317  76.57 0.0002822588    1.481    0.325
        56  -9.2035     63.2561    179.8501   1.2225648087e+02   3.0713430502e+01    0.1210974    0.1014236  74.14 0.0002300297    1.123    0.109
        57 -10.8774     50.3289    180.1638   1.2476913494e+02   3.2210219849e+01    0.1463379     0.115009  81.96 0.0003319079    1.077    0.071
        58  -8.9885     87.7533    176.5576   1.1709827471e+02   2.8063463842e+01    0.3473386    0.1975021 -41.62   0.00171596    2.958    0.662
        59  -8.6080     91.0289    171.0287   1.1576810566e+02   2.8656123690e+01     0.220656    0.1619928 -45.66 0.0008303418    1.795    0.443
        60 -10.3267      5.8015    176.9495   1.3284888523e+02   3.7292878136e+01   0.07945856   0.05838799  76.60 0.0006174202    1.088    0.081
        61 -11.3213     39.5718    172.1275   1.2618413121e+02   3.4981539757e+01    0.1823898    0.1346975  70.27 0.0001586876    1.087    0.080
        62 -10.1266    240.5158    172.6224   8.8064448906e+01   2.2735499103e+00    0.2876537    0.1843647  33.65  0.001016482    1.379    0.275
        63  -9.5054    175.2922    172.2878   9.9325347300e+01   1.4115909384e+01    0.2708585    0.2257789  39.47 0.0007140583    1.071    0.067
        64  -7.8850    196.5067    170.9427   9.5198876090e+01   1.0392006837e+01    0.1753914    0.1265699 -34.44 0.0005777624    1.509    0.337
        65  -9.6780     24.6982    168.8831   1.2883500917e+02   3.7144228199e+01    0.1558246    0.1143121  63.30 0.0002419353    1.191    0.160
        66  -9.2193    240.8005    167.9988   8.7121916816e+01   2.7726453636e+00    0.2102474    0.1585777  31.26  0.000435831    1.195    0.163
        67  99.0000     86.2748    213.9315   1.2117681005e+02   2.1638239541e+01     6.504741     1.137172  52.62   0.01440006    8.207    0.878
        68 -10.0470     97.1868    162.8085   1.1340820215e+02   2.9351673777e+01    0.4374804    0.3379289  67.81  0.002725832    1.175    0.149
        69  99.0000     24.7509    221.6582   1.3180505023e+02   2.7590861762e+01    0.1945337    0.1245984  27.48  0.001380039    2.503    0.600
        70  -7.2003    228.6254    143.2693   8.3993888720e+01   8.1894271024e+00    0.1232057    0.1089139 -85.07 0.0006994541    1.678    0.404
        71  -8.8950    182.6354    138.2048   9.1172858222e+01   1.8255889411e+01     0.195221    0.1313255 -26.26 0.0003366761    1.648    0.393
        72 -15.3139     99.3641    242.6641   1.2143056383e+02   1.5534291279e+01     3.172936    0.4497415  44.95   0.00583419    4.374    0.771
        73  -8.7374    160.8585    127.4796   9.3177222642e+01   2.4707476616e+01    0.2914379    0.1873003 -59.31  0.000829138    1.926    0.481
        74  -8.5787    104.6955    154.3333   1.1055945539e+02   2.9872897142e+01     0.280097    0.2035402  67.48 0.0008755643    1.360    0.265
        75  -7.8915    136.5364    154.4954   1.0380927578e+02   2.4357550201e+01    0.2194113    0.1261873 -63.38 0.0007307518    2.139    0.532
        76  -7.8714    161.9791    112.0267   8.9233209046e+01   2.7380064655e+01    0.1762404    0.1730032 -28.70 0.0003728177    1.010    0.010
        77  -7.8030     71.3208    163.4734   1.1891316358e+02   3.2912282937e+01    0.1547072   0.09806566  56.93 0.0003647958    1.426    0.299
        78  -9.0261    196.6558    107.1717   8.1052467958e+01   2.0450425606e+01    0.2720366    0.2238567  29.50 0.0006021019    1.244    0.196
        79  -8.3111    170.0279    158.2889   9.7754355827e+01   1.7376829928e+01    0.1893055     0.161175  45.50 0.0004080711    1.094    0.086
        80  -8.1980    181.0205    104.7611   8.3426931263e+01   2.4432547533e+01    0.2029847    0.1902165  37.06 0.0003437694    1.077    0.072
        81  -7.4941    135.2838    105.6913   9.3641549585e+01   3.4351257068e+01    0.1472406     0.115383 -81.56 0.0005392923    1.567    0.362
        82  -8.5396    170.1339     95.9320   8.3257516271e+01   2.8533013637e+01    0.2437699    0.2148959  53.16 0.0006103243    1.175    0.149
        83  -8.0946    122.3987     95.7645   9.4202622281e+01   3.9052159134e+01    0.2001115    0.1361194 -38.13 0.0003386204    1.499    0.333
        84  -9.0187    226.2857     88.2102   7.0987598842e+01   1.6634813509e+01     0.242773    0.2241881 -26.13 0.0002679322    1.069    0.065
        85  -8.0125    112.7410     88.4271   9.4698277501e+01   4.2518722413e+01    0.1882052    0.1437659  32.08  0.000361347    1.528    0.346
        86  -8.1187    109.9752     84.0627   9.4207075636e+01   4.3984479825e+01    0.2160335    0.2005459 -43.26 0.0002965579    1.050    0.047
        87  -7.8587    150.1332     82.7922   8.3828227106e+01   3.5640387647e+01    0.2082132    0.1799703   3.53 0.0002469176    1.310    0.237
        88  -8.1272    104.2497     82.3381   9.5278158432e+01   4.5441238091e+01    0.2109477    0.1858325  15.15 0.0006586227    1.350    0.259
        89  -7.3585    226.0459     77.0262   6.7997910737e+01   1.8315627631e+01     0.173872    0.1604382 -15.82 0.0003398922    1.014    0.014
        90  -9.0252    160.0204     77.0226   7.9892222683e+01   3.4374834700e+01    0.2285434    0.2181626 -24.02  0.001206383    1.014    0.014
        91  -7.9323    133.7145    145.2324   1.0270527565e+02   2.6657347910e+01    0.2623529    0.1183847 -57.52 0.0009869663    2.603    0.616
        92  -8.0650     81.5040     77.0015   1.0035109724e+02   5.0544316446e+01    0.2244811    0.1248416 -51.88  0.001030675    1.583    0.368
        93  -7.9966    169.3028     72.6250   7.6596229116e+01   3.2889026859e+01    0.1661771    0.1180961 -62.49    0.0007029    1.761    0.432
        94  -8.7701    170.1517     68.9636   7.5283172255e+01   3.3304470978e+01    0.2369376    0.2030589 -55.20 0.0004527803    1.239    0.193
        95  -9.1113    100.7955    156.8996   1.1179020196e+02   2.9975369133e+01    0.2429852    0.2012517  20.47  0.000879904    1.664    0.399
        96  -7.9593    126.1566     66.6229   8.4520506151e+01   4.4179364675e+01    0.2085641    0.1412964  38.07 0.0004223231    1.641    0.391
        97  -8.0887    154.8729     65.1459   7.7243917769e+01   3.7737653969e+01    0.2207897    0.1856642  11.26 0.0007312198    1.335    0.251
        98  -9.2657    164.8018     63.2075   7.4524534471e+01   3.5610447445e+01    0.2280651     0.187051  17.08  0.001089885    1.373    0.272
        99  -8.9508    164.0000     58.9536   7.3293057182e+01   3.6517380272e+01    0.2686826   0.08652121 -31.71 0.0008080693    2.982    0.665
       100  -8.6387    148.9903     57.6968   7.6043103530e+01   4.0464705609e+01    0.2692328    0.2161109 -34.08   0.00130978    1.189    0.159
       101  -9.1681    126.3775     55.0272   8.0469622767e+01   4.6286700450e+01    0.2531341    0.2224576  45.84 0.0002115424    1.202    0.168
       102 -11.4947    166.9335     50.2489   6.9799378122e+01   3.7153372977e+01    0.9546517    0.4273799  45.85  0.003220313    2.375    0.579
       103  -9.7214    172.1691     48.1755   6.8118902294e+01   3.6114042068e+01    0.3336363    0.2623233  25.81 0.0005010472    1.413    0.292
       104 -11.2948    177.0764     42.4607   6.5325205335e+01   3.5662314766e+01     0.910813    0.6054977 -51.54  0.004006872    1.650    0.394
       105  -9.6486     10.8088    215.9422   1.3372850910e+02   2.9888093241e+01    0.2075791   0.03562848  35.65 0.0008828978    5.402    0.815
       106  -8.3582    163.6532     44.6428   6.8501284871e+01   3.8847385895e+01    0.1699312    0.1155901  21.79 0.0007033217    1.838    0.456
       107 -10.6257    185.2587     28.7137   5.9398694906e+01   3.5311411727e+01     0.639886    0.5048947  27.03  0.001609596    1.394    0.283
       108  -8.0055    222.0000     38.9399   5.7689622184e+01   2.4481689397e+01    0.2517492   0.07907847 -25.33 0.0008046291    2.958    0.662
       109 -11.1801     68.2015    213.5472   1.2423216346e+02   2.4042370092e+01    0.1411777    0.1063535  84.32 0.0002287175    1.195    0.163
       110 -12.0794     50.1258    197.4964   1.2616538576e+02   2.9005164247e+01    0.2883008    0.1858473  86.76  0.002041423    1.322    0.243
       111 -10.9834     53.5761    197.5472   1.2555599970e+02   2.8594032698e+01    0.1804631    0.1454777  45.99 0.0003146734    1.433    0.302
       112  99.0000     40.4375    198.6847   1.2795182060e+02   2.9880440999e+01    0.3537129    0.2057637  81.55  0.002438833    1.434    0.303
       113 -11.9164     44.5005    197.5102   1.2716074484e+02   2.9642074597e+01    0.2231863    0.1078052  49.16 0.0009097175    1.688    0.408
