#   1 NUMBER                 Running object number                                     
#   2 MAG_AUTO               Kron-like elliptical aperture magnitude                    [mag]
#   3 X_IMAGE                Object position along x                                    [pixel]
#   4 Y_IMAGE                Object position along y                                    [pixel]
#   5 X_WORLD                Barycenter position along world x axis                     [deg]
#   6 Y_WORLD                Barycenter position along world y axis                     [deg]
#   7 A_WORLD                Profile RMS along major axis (world units)                 [deg]
#   8 B_WORLD                Profile RMS along minor axis (world units)                 [deg]
#   9 THETA_WORLD            Position angle (CCW/world-x)                               [deg]
#  10 FWHM_WORLD             FWHM assuming a gaussian core                              [deg]
#  11 ELONGATION             A_IMAGE/B_IMAGE                                           
#  12 ELLIPTICITY            1 - B_IMAGE/A_IMAGE                                       
         1 -12.3220    187.7287     31.9929   6.2224301994e+01   3.4210835324e+01    0.9511008    0.9309467 -60.54  0.003370271    1.051    0.049
         2 -12.2218    195.5206     21.1019   5.7603430010e+01   3.3419076328e+01    0.8090203      0.68924  -5.02  0.001470589    1.228    0.186
         3  -9.7248     49.4912      9.5193   8.9284886383e+01   6.7805465926e+01    0.1254563    0.1020682 -21.40 4.673874e-05    1.002    0.002
         4  -9.4822     58.2545      2.7296   8.2172752921e+01   6.7517554626e+01    0.2070176   0.09223571 -22.99 0.0009006436    2.411    0.585
         5 -11.3309    126.2592    231.4483   1.1658782913e+02   1.4631180178e+01    0.3325085    0.2282639  65.50  0.002426283    1.405    0.289
         6 -19.3819     13.0625    131.4924   1.2903504278e+02   4.6044034694e+01     15.74535      1.87158 -76.22   0.04408376    7.937    0.874
         7  -9.2777     94.4721    234.0189   1.2194272982e+02   1.8668388066e+01    0.1302341   0.09376746 -79.33 0.0006732295    1.577    0.366
         8 -10.8309    144.9528    228.3654   1.1321281612e+02   1.2278213354e+01     0.236483    0.1974408 -52.63  0.001872839    1.587    0.370
         9  -8.8510    105.1996    202.3735   1.1726025351e+02   2.1953427759e+01     0.165272   0.08108725  51.31  0.000576361    1.665    0.399
        10 -10.8305    196.3583    196.1759   1.0027597745e+02   8.0545545061e+00    0.5603319    0.3892045  60.46  0.003359272    1.790    0.441
        11 -12.2080    115.8780    230.3081   1.1817183083e+02   1.6267556427e+01    0.6172227    0.3636537  54.26  0.003650054    1.319    0.242
        12 -10.7133     57.9616    192.5029   1.2486586391e+02   2.9844658226e+01    0.2946789    0.1486164  67.44  0.001733203    1.850    0.460
        13  -9.8307     58.2834    187.5987   1.2441468227e+02   3.0669893246e+01    0.2403383     0.181654 -32.99  0.001574022    2.552    0.608
        14  -8.9959    208.4975    184.5348   9.6305945955e+01   7.3850561373e+00    0.1247136    0.1008699  29.53 0.0002514983    1.012    0.012
        15 -10.4162     79.5391    181.0547   1.1981235574e+02   2.9166739932e+01    0.2750648    0.2361482 -35.75  0.001945653    1.802    0.445
        16 -10.6631     83.1332    175.3600   1.1850911755e+02   2.9715629213e+01    0.3581792    0.2326007 -54.74  0.001382968    1.819    0.450
        17 -11.1117    108.2137    228.6073   1.1926975202e+02   1.7576965895e+01    0.3575079    0.2902301  21.13   0.00270672    1.830    0.454
        18  -9.2577    100.8415    232.1210   1.2076857931e+02   1.8088358364e+01    0.1624677    0.1268029  78.05 0.0004612033    1.264    0.209
        19  -8.9626    198.1474    175.7236   9.6581135852e+01   1.0376923014e+01    0.1964843     0.175142 -43.80 0.0008933159    1.392    0.282
        20 -10.5675     90.0780    165.8458   1.1600225886e+02   3.0509966632e+01    0.3217812    0.2220758  55.16 0.0006610339    1.272    0.214
        21 -12.0378     79.0095    161.2449   1.1772751662e+02   3.2934837119e+01    0.4566645    0.3663636  58.20  0.001221124    1.134    0.118
        22 -10.3907     95.4911    158.6501   1.1394240519e+02   3.1084099103e+01    0.4138121    0.3044383 -36.05   0.00149678    2.004    0.501
        23 -10.0002    107.7175    141.8925   1.0876224699e+02   3.2436662512e+01    0.4935668    0.2964879 -36.93  0.002363176    2.420    0.587
        24 -10.5341     95.6151    142.6916   1.1159836545e+02   3.4196954549e+01    0.2359603    0.2248376  65.90  0.001592322    1.170    0.145
        25 -12.1266     98.1903    226.7200   1.2074744408e+02   1.9218450173e+01     0.779648    0.2595801  50.66  0.004101677    2.336    0.572
        26 -11.3155     71.2990    135.0929   1.1603308866e+02   3.9223021184e+01     0.354591    0.2682304  48.33  0.002249032    1.329    0.248
        27  -9.9721    114.6252    131.8278   1.0542825260e+02   3.3273026316e+01    0.2767656    0.2163466 -27.77 0.0008341837    1.718    0.418
        28  -9.0594    105.5023    130.4989   1.0729388486e+02   3.5087034435e+01     0.261663    0.2045352  79.88   0.00149905    1.349    0.259
        29  -9.2511    102.4584    128.1967   1.0759127963e+02   3.6058023308e+01    0.2260289    0.2171157 -48.71 0.0008596447    1.203    0.169
        30 -10.2065     76.9021    232.8213   1.2464404393e+02   2.1086230076e+01    0.3512823    0.1169805  37.39  0.001772772    3.135    0.681
        31  -8.7576    110.0455    120.1189   1.0424323680e+02   3.6439107038e+01    0.2020131       0.1867  85.01  0.000402196    1.020    0.019
        32 -10.4047    149.8455    228.8741   1.1246600885e+02   1.1473959445e+01    0.2498385    0.1313185  63.20  0.001354373    2.552    0.608
        33 -11.7673    135.5886    228.9467   1.1481206288e+02   1.3600677593e+01    0.4453894    0.2551667  59.27  0.002855053    1.678    0.404
        34 -10.0594    169.2476     69.0527   7.7304553018e+01   3.3596524968e+01    0.4279425    0.3031227 -83.31  0.001245656    2.122    0.529
        35 -11.2804    177.3747     40.8884   6.6833814683e+01   3.5779558194e+01    0.4826351    0.3531892  44.56  0.001051613    1.367    0.269
        36  -9.4193    149.3900    246.8229   1.1441499472e+02   9.3633447527e+00    0.1145168   0.09823839 -24.18 0.0007575343    1.727    0.421
        37 -10.6812    157.9196    240.2692   1.1240391733e+02   8.8774414288e+00    0.3485456   0.09418218  44.04  0.001634265    2.685    0.628
        38 -10.0673    163.9864    238.0110   1.1119688661e+02   8.2342328500e+00    0.1634064    0.1119097  23.86 0.0006916235    1.698    0.411
