#   1 NUMBER                 Running object number                                     
#   2 MAG_AUTO               Kron-like elliptical aperture magnitude                    [mag]
#   3 X_IMAGE                Object position along x                                    [pixel]
#   4 Y_IMAGE                Object position along y                                    [pixel]
#   5 X_WORLD                Barycenter position along world x axis                     [deg]
#   6 Y_WORLD                Barycenter position along world y axis                     [deg]
#   7 A_WORLD                Profile RMS along major axis (world units)                 [deg]
#   8 B_WORLD                Profile RMS along minor axis (world units)                 [deg]
#   9 THETA_WORLD            Position angle (CCW/world-x)                               [deg]
#  10 FWHM_WORLD             FWHM assuming a gaussian core                              [deg]
#  11 ELONGATION             A_IMAGE/B_IMAGE                                           
#  12 ELLIPTICITY            1 - B_IMAGE/A_IMAGE                                       
         1 -16.3358     30.9862    132.0262   1.2217043661e+02   4.4244099594e+01     4.326193     3.246922  44.11   0.02929164    1.510    0.338
         2 -12.6945    185.3688     33.7148   5.7928213456e+01   3.4550821039e+01     1.840258     1.169708  12.01  0.007619599    2.273    0.560
         3 -12.4163     10.7298      5.9829   1.0006544434e+02   7.2013600057e+01     1.330864    0.7747746  19.53  0.008907151    1.969    0.492
         4 -10.2608    209.1031      4.1502   4.6082756496e+01   3.1682541077e+01    0.6543676    0.3161941  45.90  0.002758176    2.360    0.576
         5  -9.9712    204.6193      2.6503   4.6127899381e+01   3.2987244839e+01    0.5179698    0.3130772  72.88  0.002535548    1.542    0.352
         6  -7.7462     75.6893      5.3299   7.1946334322e+01   6.3691762813e+01    0.1174259   0.09857412 -49.97 0.0007042031    1.668    0.400
         7 -10.2786     38.8067      3.2480   8.5138074490e+01   6.9625928721e+01    0.2607208    0.2359291 -27.43  0.001919341    1.461    0.315
         8  -8.6546    211.7678      7.4471   4.6720542804e+01   3.0664060254e+01    0.2780012    0.1644337  77.51 0.0006617876    1.643    0.391
         9 -12.1954     59.7244    210.0951   1.2394560128e+02   2.4944673361e+01    0.2769769    0.1782217 -50.13  0.001695088    2.356    0.576
        10 -13.8637    244.9188    235.6839   9.4639733590e+01  -8.0018476926e+00     3.465909     1.304471 -30.59   0.01803463    3.040    0.671
        11 -15.2905    120.7708    231.6982   1.1527863167e+02   1.2537748633e+01     4.449419      3.57984  56.23   0.03223109    1.059    0.056
        12 -14.7086     81.3624    235.8283   1.2235607577e+02   1.7639963773e+01      0.93099    0.3440876  53.58  0.004939662    2.165    0.538
        13  99.0000     20.4127    219.1101   1.3113412987e+02   2.7792889077e+01     1.579789     1.274857 -84.96   0.01350443    1.418    0.295
        14  99.0000     51.7005    216.3006   1.2581585000e+02   2.4811843427e+01     1.087615    0.3169597  58.66  0.004684546    3.558    0.719
        15 -16.6381     53.2514    247.4574   1.2763748067e+02   1.9384811955e+01     2.678915    0.3021772  43.90   0.01084011    4.559    0.781
        16 -15.4278     72.4649    245.3911   1.2452344393e+02   1.7298674113e+01    0.9078151     0.358081  56.17  0.005227963    1.995    0.499
        17 -16.9859     57.3292    233.4824   1.2610090731e+02   2.1152657984e+01     2.876221    0.8912143  44.45   0.01516753    2.499    0.600
        18 -11.5992     62.4606    203.8431   1.2292666229e+02   2.5755078394e+01    0.4586022    0.1899966 -82.19  0.002201742    2.844    0.648
        19 -11.1753     17.4117    209.6731   1.3111502778e+02   2.9775045219e+01    0.1035945   0.06663384  69.69 0.0007750384    1.120    0.107
        20  -9.5340      6.5541    209.3903   1.3285294591e+02   3.0863937630e+01   0.09944071    0.0814582  67.23 0.0008533245    1.353    0.261
        21 -10.5917     54.1983    208.1277   1.2476109918e+02   2.5993125743e+01    0.1303708   0.09169479  76.61  0.000296103    1.112    0.100
        22 -11.0036      1.9157    208.1783   1.3353455975e+02   3.1502665279e+01    0.1759283   0.04084216 -87.91 0.0006794669    4.988    0.800
        23 -11.8191     40.5339    203.2261   1.2679225207e+02   2.8514886158e+01    0.6950272    0.2124351 -82.04  0.002886093    4.039    0.752
        24 -11.3980     49.7938    197.2551   1.2467250182e+02   2.8571597732e+01    0.3108965    0.2530986  65.33  0.002013051    1.191    0.160
        25 -11.8727     44.7861    197.6033   1.2561066114e+02   2.9092872454e+01    0.1965109     0.139897  53.35  0.001397953    1.309    0.236
        26 -11.7927     76.8362    205.3564   1.2044059071e+02   2.3561770132e+01    0.1850994    0.1445898  80.09 0.0003069486    1.089    0.081
        27 -11.3515     48.8323    204.6049   1.2543280022e+02   2.7294669843e+01    0.1398099    0.1025561  59.21 0.0006207948    1.192    0.161
        28 -10.7166      6.6613    203.5475   1.3255328081e+02   3.1911399434e+01    0.2221327    0.1103403 -65.36  0.001473487    2.144    0.534
        29  -8.4597     81.9373    202.5874   1.1921994064e+02   2.3365106469e+01    0.1332342    0.1051609  66.56  0.000359925    1.038    0.036
        30 -10.5271     17.7841    202.0820   1.3063113204e+02   3.1128300080e+01    0.1538885   0.05166805  81.89 0.0004843981    3.543    0.718
        31 -11.0474     20.3612    197.2213   1.2990405315e+02   3.1783705781e+01    0.1281454   0.07795801 -74.49 0.0008949524    1.511    0.338
        32 -11.4941     20.5389    193.7464   1.2965770134e+02   3.2425466484e+01    0.1315056   0.08332464 -86.03 0.0006174061    1.266    0.210
        33  -9.3947     90.0473    196.7564   1.1705599057e+02   2.3290886844e+01    0.1764604    0.1444053  80.26 0.0004718887    1.077    0.071
        34 -11.3150     26.9581    194.4582   1.2857325534e+02   3.1643170493e+01    0.1962889    0.1232215 -70.37  0.001365574    1.564    0.361
        35 -11.1513     57.8239    193.6812   1.2287629726e+02   2.8281952536e+01    0.1646838    0.1200612  77.96 0.0004331079    1.097    0.088
        36 -10.4774      2.0881    192.9581   1.3278436211e+02   3.4278482574e+01    0.1800678   0.05632422  52.77  0.000602629    2.484    0.597
        37  99.0000     40.3139    191.5799   1.2595260159e+02   3.0764697069e+01    0.4362003   0.07514156  44.12  0.001788902    3.917    0.745
        38 -11.9057     46.6115    190.8423   1.2472621125e+02   3.0189359506e+01    0.2517107     0.233397  14.74  0.001903532    1.745    0.427
        39 -11.6133     49.4835    189.4587   1.2406936572e+02   3.0123440012e+01    0.1864687    0.1278234  79.48  0.001254123    1.186    0.157
        40  -9.9628     34.9985    189.4991   1.2676866596e+02   3.1755040965e+01    0.2115297   0.09900142  39.70 0.0007217736    2.153    0.535
        41 -11.8086     13.6799    185.3253   1.3034647797e+02   3.4701126380e+01    0.1500314    0.1141742  75.21  0.001178683    1.118    0.106
        42  -8.5545     16.1696    182.4231   1.2971340956e+02   3.5036926568e+01    0.1391196    0.1094298 -66.31  0.001065468    1.535    0.348
        43 -11.3875     33.1328    183.8083   1.2667781045e+02   3.3075653607e+01    0.3392737    0.1448112  43.30  0.001929187    2.161    0.537
        44 -11.4053     28.1092    183.4888   1.2759128044e+02   3.3660916646e+01    0.1671729    0.1176618  74.27 0.0003345568    1.097    0.088
        45 -11.7022     43.4003    183.1586   1.2467845081e+02   3.2080286960e+01    0.1612749    0.1273145  71.36 0.0004185506    1.105    0.095
        46  -9.6521    234.1097    179.5299   8.6604174698e+01   3.5072298153e-01    0.2332782    0.2067242  -4.60 0.0005285349    1.135    0.119
        47 -10.0302     50.5981    180.2667   1.2302136367e+02   3.1827502777e+01    0.1366831    0.1049295 -83.94 0.0002539538    1.154    0.134
        48 -10.6592     19.3718    179.8742   1.2895456963e+02   3.5238444340e+01    0.1337749   0.09547219  88.82 0.0003589258    1.084    0.078
        49  -8.7537     85.0843    177.6231   1.1577185740e+02   2.7791105473e+01    0.2802649    0.1720244  81.60  0.001487722    1.802    0.445
        50 -10.0252    248.0503    202.6742   8.8583832405e+01  -4.9549821041e+00    0.3664978    0.2828133  -3.70  0.001098393    1.200    0.167
        51  -9.5687    235.0185    169.9997   8.4542633818e+01   1.4952957985e+00    0.2534811    0.1831468 -14.87 0.0005929153    1.383    0.277
        52  -9.2463     42.9887    174.2620   1.2396408956e+02   3.3931825404e+01    0.1010174   0.07339437 -89.71 0.0002094005    1.109    0.099
        53  -9.4962    175.3524    172.1761   9.6189521898e+01   1.2816406953e+01    0.2801423    0.2597358  43.81 0.0007292089    1.037    0.035
        54  -9.5148     88.2489    171.4867   1.1431455207e+02   2.8583042958e+01    0.2291294    0.2248435  23.62  0.000772034    1.374    0.272
        55  -9.1642     39.8446    172.1566   1.2439754476e+02   3.4713285499e+01    0.1266282    0.1041123  87.86  0.000910605    1.126    0.112
        56  -9.8611    143.1772    170.2402   1.0244649673e+02   1.9433168864e+01    0.5542098    0.2083563  49.78  0.001883918    2.603    0.616
        57  -8.1151    230.3637    170.2908   8.5417814373e+01   2.3276113071e+00    0.1425084   0.09292501  16.24 0.0002992596    1.702    0.412
        58  -7.9649    196.5050    170.5036   9.1711456950e+01   8.8888062921e+00    0.1386563    0.1252149  29.82 -7.304734e-05    1.015    0.015
        59  -9.3119    202.9654    167.2834   8.9831850618e+01   8.1193151122e+00    0.2417245    0.2131903  27.21 0.0002288317    1.023    0.023
        60 -13.5933     89.7678    247.3178   1.2191715238e+02   1.4674878123e+01    0.7334583    0.2010958  54.00  0.003252029    3.238    0.691
        61  -9.2311     97.4305    164.5358   1.1135520666e+02   2.8615855064e+01    0.2309815    0.1774151  60.14 0.0005585313    1.202    0.168
        62  -9.9118     94.0164    162.6563   1.1182388107e+02   2.9550386556e+01    0.3334672    0.2487291 -88.48  0.001122922    1.324    0.245
        63 -10.4446     81.8026    223.2884   1.2121635428e+02   1.9674006341e+01    0.1433364    0.1081735  62.75 0.0002384659    1.045    0.043
        64  -7.9208    195.6376    136.6713   8.4628397029e+01   1.4836723926e+01     0.158848    0.1129641  13.40 0.0007039924    1.799    0.444
        65  -8.1066    105.1531    154.4290   1.0803735571e+02   2.9497802270e+01    0.2026597    0.1261294  45.15  0.001015348    1.571    0.363
        66  -8.0726    104.2860    133.0614   1.0436589519e+02   3.4309271902e+01    0.1835579    0.1646866 -81.80 0.0003897886    1.042    0.041
        67  -8.0309    160.3449    126.6905   8.9716183934e+01   2.4536987546e+01    0.3756977    0.2102586 -64.48 0.0006895098    2.970    0.663
        68  -8.4253    222.8835    150.0632   8.2484071859e+01   6.8155955921e+00      0.20284    0.1901207  13.62 0.0004624686    1.077    0.072
        69  -7.4897    167.6426    113.3209   8.4793104050e+01   2.5540043528e+01    0.1605543    0.1236104 -84.63 0.0007044993    1.763    0.433
        70  -7.4493    150.6156    147.2392   9.6450162471e+01   2.2483319052e+01    0.1479908    0.1086948  71.36  0.000455123    1.641    0.391
        71  -8.7180    196.8251    107.1600   7.7129174186e+01   1.9836356856e+01    0.3052672    0.2306101  37.46 0.0005611957    1.367    0.268
        72  -9.5056     98.6326    157.3374   1.0998256380e+02   2.9948987727e+01    0.4467269     0.294414 -46.63  0.001540152    1.757    0.431
        73  -8.7617    100.0513    140.0447   1.0671270792e+02   3.3479109108e+01    0.2016596     0.180379  81.71 0.0004003651    1.043    0.041
        74  -8.2568    122.8881     96.1145   9.0984355220e+01   3.8917581950e+01    0.2264237     0.202281  87.62 0.0006351465    1.242    0.195
        75  -8.1085    221.4969     95.4988   6.9585448944e+01   1.5974268564e+01    0.2374874    0.1512889  69.29 0.0007505143    2.000    0.500
        76  -8.0130    112.8929     88.3772   9.1513768180e+01   4.2552852990e+01    0.2000119    0.1895187  28.42 0.0006174228    1.119    0.106
        77  -7.2974    126.5458     82.5023   8.6151461563e+01   4.0968369869e+01    0.1511656    0.1446319 -54.41 0.0001451278    1.058    0.055
        78  -8.7984    182.9290    138.3285   8.7582052380e+01   1.7327551244e+01    0.2161244    0.1807355  41.08  0.000566991    1.153    0.133
        79  -8.7003    160.2101     76.9387   7.6292958974e+01   3.4257942609e+01    0.2683266    0.2291383  31.57 0.0003507919    1.229    0.186
        80  -8.4713    166.7083     76.2690   7.4667245845e+01   3.2775240604e+01    0.2512287    0.1916784 -53.12 0.0004535622    1.419    0.295
        81  -8.8513    169.0244     71.9724   7.2876327466e+01   3.2954822406e+01    0.2485473    0.1898281  11.75 0.0004418942    1.634    0.388
        82  -7.7064    125.8244     67.0994   8.1548342312e+01   4.4124352588e+01    0.2076285     0.175045   0.48 0.0005272329    1.317    0.241
        83  -8.5078    119.3497     66.1337   8.2967335300e+01   4.5704910236e+01     0.225322    0.1985992  22.40 0.0002961754    1.185    0.156
        84  -9.4144    123.0105     62.6628   8.0835097291e+01   4.5562732456e+01    0.2658965    0.2088579 -36.32  0.000254138    1.231    0.188
        85 -11.6944    171.2493     49.3057   6.5340553598e+01   3.6075468344e+01    0.7236282     0.586803  39.17  0.001475548    1.264    0.209
        86 -12.3605     75.1328    219.7870   1.2206529394e+02   2.1193482922e+01    0.2848994    0.2440605 -39.85  0.001454905    1.961    0.490
        87  -8.0254    218.4616     46.5807   5.6804758574e+01   2.4201811878e+01     0.307922      0.14187 -28.71  0.001200876    2.144    0.534
        88  -8.1233    162.0344     37.4649   6.3232574094e+01   4.0173317227e+01    0.2303529    0.1436238  57.90 0.0004666492    1.549    0.355
        89  -7.5348    149.2979     31.3077   6.3640295267e+01   4.4265991825e+01    0.1539544    0.1085649  26.11 0.0002642367    1.592    0.372
        90 -10.8823     68.2949    213.6217   1.2273055723e+02   2.3200191534e+01    0.1549698    0.1152239 -86.97 0.0002232296    1.249    0.199
        91 -11.8346     69.9050    208.5604   1.2199998791e+02   2.3908140064e+01    0.1792827    0.1371248 -89.14 0.0003504902    1.197    0.165
        92 -10.0537     62.8953    212.8403   1.2361371608e+02   2.4041906157e+01    0.1023015   0.07333051 -82.13 -0.0006383859    1.321    0.243
        93  -9.2259     84.9296    211.5170   1.1956449487e+02   2.1303661109e+01    0.1457134    0.1116357  62.04  0.001002952    1.062    0.058
        94 -11.9097     58.6141    199.2845   1.2322939268e+02   2.7104432493e+01    0.2379228    0.1630572  31.11  0.001136685    1.984    0.496
