#   1 NUMBER                 Running object number                                     
#   2 MAG_AUTO               Kron-like elliptical aperture magnitude                    [mag]
#   3 X_IMAGE                Object position along x                                    [pixel]
#   4 Y_IMAGE                Object position along y                                    [pixel]
#   5 X_WORLD                Barycenter position along world x axis                     [deg]
#   6 Y_WORLD                Barycenter position along world y axis                     [deg]
#   7 A_WORLD                Profile RMS along major axis (world units)                 [deg]
#   8 B_WORLD                Profile RMS along minor axis (world units)                 [deg]
#   9 THETA_WORLD            Position angle (CCW/world-x)                               [deg]
#  10 FWHM_WORLD             FWHM assuming a gaussian core                              [deg]
#  11 ELONGATION             A_IMAGE/B_IMAGE                                           
#  12 ELLIPTICITY            1 - B_IMAGE/A_IMAGE                                       
         1 -14.6052     44.8521     82.5540   1.0923247930e+02   5.4514567255e+01     2.868304     1.824213  71.97    0.0145927    2.137    0.532
         2 -13.5171     33.6165    101.3487   1.1619852563e+02   5.1336825171e+01     1.690101     0.851279  86.53  0.007654096    2.599    0.615
         3 -15.0072    248.1131     64.2716   5.6468288957e+01   1.4754254103e+01     5.013028     1.070512 -27.05    0.0139875    4.782    0.791
         4 -13.0532     31.4256     43.9271   1.0440121328e+02   6.4325297131e+01     1.571872     1.161761  57.96   0.00950015    1.882    0.469
         5 -14.7649     55.5624     31.3705   8.9612525407e+01   6.3932420767e+01      1.17522     0.917253 -37.40  0.006244641    1.144    0.126
         6 -13.6591     65.9753     21.7958   8.1237162524e+01   6.3932321867e+01    0.8917825    0.4775859 -48.59  0.004119997    2.285    0.562
         7 -13.1295    178.2639     19.2835   5.2824949812e+01   3.7846294245e+01     0.885121    0.5006608 -32.99  0.003587838    1.749    0.428
         8 -12.3969     69.9070     10.1148   7.4090009239e+01   6.4930243979e+01    0.6259244     0.398706  77.98  0.002485411    4.173    0.760
         9 -12.2960     83.9565      4.9269   6.6745011414e+01   6.2810685100e+01    0.4803033    0.2988437  -3.69  0.002418641    1.741    0.426
        10 -10.6637     32.5054      3.5111   8.6937796480e+01   7.1614730043e+01    0.2526976   0.09984736 -39.46  0.001217871    2.189    0.543
        11  -8.5859      5.2633    169.4367   1.2957358833e+02   3.9022460409e+01    0.3187025    0.1572058  44.53  0.001647259    1.812    0.448
        12 -14.5420    237.6766    240.0375   9.3946144432e+01  -5.0736984811e+00     2.053933     1.159418   5.51   0.01288119    2.014    0.503
        13 -14.1188    248.5559    205.6249   8.6849862024e+01  -3.3035876491e+00     1.919226    0.5311565 -30.56  0.008259078    3.831    0.739
        14 -14.7955    128.4469    246.4872   1.1280411283e+02   1.0451990869e+01     1.827956     1.321367  87.27   0.01315224    1.801    0.445
        15  99.0000     28.0096    239.4320   1.2892736008e+02   2.4315415480e+01     1.055134    0.6093429  67.40  0.007957391    1.257    0.204
        16 -13.6521    105.6888    188.1438   1.1058904102e+02   2.3208513425e+01     1.775945    0.7517153  45.17    0.0084483    2.000    0.500
        17 -14.1134    109.6540    165.1879   1.0655893040e+02   2.6970568594e+01     2.402752     1.781208  31.96   0.01353877    1.507    0.336
        18 -14.2008    101.6348    204.5665   1.1332546686e+02   2.0887334609e+01     1.881643    0.5744919  49.67  0.007842264    2.897    0.655
        19 -13.9065     82.0305    242.8693   1.2031916638e+02   1.7416240327e+01     2.697602    0.7456574  38.32   0.01232052    3.225    0.690
        20  99.0000     74.5351    229.8533   1.2062597571e+02   2.0417641638e+01     2.468517    0.8916726  34.77   0.01176602    3.101    0.678
        21 -11.8071     40.1481    207.9597   1.2520398649e+02   2.8310359422e+01     3.479153    0.5931288  53.31   0.01271467    4.952    0.798
        22 -13.2185     43.8814    194.4521   1.2358767569e+02   3.0373457127e+01      1.33112      0.30974  44.61  0.006016991    3.037    0.671
        23 -11.9398      4.1470    249.0762   1.3290507555e+02   2.5174902881e+01    0.3901722      0.14743  60.72  0.002737836    1.756    0.431
        24  99.0000      6.8781    242.7259   1.3230702295e+02   2.5893612879e+01    0.4443779    0.1819085  51.27  0.002106264    1.618    0.382
        25 -10.6080      2.3253    147.9827   1.2896646432e+02   4.3614493442e+01    0.2973091    0.1538738  73.69  0.001358838    1.636    0.389
        26 -12.1207     47.2993    151.6829   1.1905996490e+02   3.8634043449e+01     1.142636    0.5002814  70.73  0.004836344    3.116    0.679
        27 -10.2243      9.9075    154.2648   1.2771088167e+02   4.1719943079e+01    0.6585695    0.2871816  73.70   0.00355525    2.157    0.536
        28 -13.4586     28.7660    150.4927   1.2322179326e+02   4.0836604819e+01     1.665464    0.7762697 -85.12  0.008815953    1.980    0.495
        29 -11.6878     39.1500    156.4651   1.2141187249e+02   3.8511204991e+01     1.043607    0.6824479 -82.56  0.006606475    1.324    0.245
        30 -12.4574     17.1314    151.0725   1.2589790063e+02   4.1779275979e+01     1.104304    0.3282188  58.00  0.004625583    3.641    0.725
        31 -12.5362     64.4765    156.3838   1.1561368258e+02   3.5534651265e+01     1.121608    0.4749933  43.02  0.005126134    2.169    0.539
        32  -9.9093     52.9328    167.1742   1.1939679191e+02   3.4709831738e+01    0.1928376    0.1328616  65.90 0.0009557268    1.259    0.205
        33  99.0000     15.9393    217.8277   1.2994380461e+02   2.9092723920e+01     1.412692    0.3115419  52.36   0.00719238    2.905    0.656
        34 -11.0055     84.1712    158.9433   1.1140758709e+02   3.2260045307e+01    0.4801508    0.2914079 -84.36   0.00245935    1.888    0.470
        35 -11.4533     88.6045    147.2779   1.0865554392e+02   3.4065008206e+01    0.5259511    0.2862889 -55.83  0.002585338    1.855    0.461
        36  -8.8901     26.4305    180.0519   1.2599092505e+02   3.5004806334e+01      1.66391    0.6506062  57.17  0.008940961    2.207    0.547
        37 -11.6501    107.1598    144.1716   1.0368412534e+02   3.1703034016e+01     0.391154    0.3483123 -70.81  0.002340876    1.131    0.116
        38 -11.2594    103.5060    139.4883   1.0373162347e+02   3.3323089446e+01    0.3642611    0.2611177  69.32  0.001893241    1.524    0.344
        39 -13.2613     86.5968    210.6637   1.1681639264e+02   2.2001335999e+01      1.54897    0.5568578  42.71  0.007639046    2.224    0.550
        40 -11.6762     61.7231    162.7575   1.1698401805e+02   3.4543915914e+01    0.7050819    0.3247285  62.35  0.003278287    2.442    0.590
        41 -11.0577     13.9348    122.6038   1.2426344959e+02   4.8197535771e+01    0.7440833    0.3876286  36.79  0.004407029    2.051    0.513
        42 -11.2571     43.3067    236.9916   1.2635270586e+02   2.3045016382e+01    0.3705904     0.207166  78.44  0.002240717    1.580    0.367
        43 -12.6149     52.2702    132.4632   1.1552253509e+02   4.2283986782e+01     1.144448    0.5551924  57.56  0.004959855    2.282    0.562
        44 -11.7194     20.3989     94.7217   1.1921777279e+02   5.3973604876e+01    0.8888186    0.6386296  89.56  0.005369258    1.277    0.217
        45 -13.7025     51.3914    120.1479   1.1399683588e+02   4.5170062730e+01     1.481595      0.88385  59.93  0.007308611    1.815    0.449
        46 -13.6354     47.3086    101.1935   1.1206986078e+02   4.9976969952e+01     1.077212     0.717779  67.57  0.005918184    1.719    0.418
        47 -11.2092    116.3061    136.5196   1.0005967761e+02   3.1694830180e+01    0.4071291    0.3013033  48.30  0.002145797    1.296    0.228
        48 -13.3621     63.8221     78.5266   1.0196696606e+02   5.3112260495e+01     1.462002    0.8231966 -78.97  0.005910974    2.925    0.658
        49 -10.8038      3.3795    161.4970   1.2952609567e+02   4.0762754541e+01    0.9557024    0.2465364  65.11  0.003604333    4.812    0.792
        50 -12.9127     30.2896    124.0205   1.2016294228e+02   4.6495977599e+01     2.018779    0.7333051  61.83  0.007472569    4.265    0.766
        51  -9.9275      6.7959    220.8555   1.3157173036e+02   2.9441843818e+01    0.1906089   0.06897569  56.86 0.0009569131    1.926    0.481
        52 -12.0858    111.5670    132.4263   1.0041596184e+02   3.3422741485e+01    0.5437114    0.4684275  20.75  0.003035702    1.396    0.283
        53 -13.0539     65.1685     58.1785   9.5675388765e+01   5.7321484679e+01    0.9947144    0.6902657  73.92  0.004738475    2.422    0.587
        54 -14.1160     57.1716     55.0055   9.7598168338e+01   5.9094776259e+01     1.099948     0.778753  16.07  0.006044891    1.727    0.421
        55 -13.3083     33.5959     53.0354   1.0617341278e+02   6.2197704473e+01    0.5872029    0.4737746  86.37   0.00370087    1.540    0.351
        56  99.0000     32.4194    218.8913   1.2720366942e+02   2.7234342999e+01      2.69683    0.6445429  58.73   0.01149325    3.989    0.749
        57 -11.1593     72.4873    201.1996   1.1862583488e+02   2.5601836206e+01    0.7685332    0.3654854 -73.99  0.004212948    2.269    0.559
        58 -12.0588    179.1762     47.0956   6.1587747088e+01   3.4074781605e+01    0.3545367      0.22725  68.19  0.001560319    1.641    0.391
        59 -12.7840     38.3094    175.1440   1.2322162354e+02   3.4748118437e+01    0.6511553    0.4188284  57.73  0.003173084    1.310    0.237
        60 -12.9431     70.6629    186.7406   1.1761030823e+02   2.8554432885e+01    0.9400907    0.3911923  48.55  0.004560702    2.027    0.507
        61 -12.2018     71.7421     44.5043   8.8542380684e+01   5.9030990539e+01     0.811784     0.601463 -89.16  0.003916752    2.411    0.585
        62 -13.7991     49.6952    180.9285   1.2135857280e+02   3.2313807502e+01     1.667465    0.4836108  48.31  0.007502433    2.827    0.646
        63 -11.8862    159.3387     32.5373   6.0331320128e+01   4.1291849811e+01    0.3520288    0.2948596  82.97  0.001803413    1.278    0.218
        64 -12.1661     82.8913    179.6280   1.1430382423e+02   2.8252007753e+01    0.8619776    0.4832209  68.94  0.004304797    1.977    0.494
