#   1 NUMBER                 Running object number                                     
#   2 MAG_AUTO               Kron-like elliptical aperture magnitude                    [mag]
#   3 X_IMAGE                Object position along x                                    [pixel]
#   4 Y_IMAGE                Object position along y                                    [pixel]
#   5 X_WORLD                Barycenter position along world x axis                     [deg]
#   6 Y_WORLD                Barycenter position along world y axis                     [deg]
#   7 A_WORLD                Profile RMS along major axis (world units)                 [deg]
#   8 B_WORLD                Profile RMS along minor axis (world units)                 [deg]
#   9 THETA_WORLD            Position angle (CCW/world-x)                               [deg]
#  10 FWHM_WORLD             FWHM assuming a gaussian core                              [deg]
#  11 ELONGATION             A_IMAGE/B_IMAGE                                           
#  12 ELLIPTICITY            1 - B_IMAGE/A_IMAGE                                       
         1 -14.2209     67.3259    143.1815   4.8779502859e+01   3.7615580844e+01     3.817058     1.940021  77.02  0.003025515    4.170    0.760
         2 -13.9449    242.6745     57.4055   3.5383769196e+02   2.1939316592e+01     1.330156     1.105346  23.71  0.009552964    1.972    0.493
         3 -11.6253     12.8780     13.9254   3.7058808613e+01   7.6260519923e+01    0.3693287    0.2239567  39.33  0.001397198    1.732    0.423
         4 -13.3484      4.2913     23.1749   4.9624081019e+01   7.5364771032e+01     1.077464    0.7375314  -9.24  0.006201306    1.444    0.308
         5 -12.8582      3.6185      8.0358   4.2085771674e+01   7.8368018571e+01     1.015754    0.6731903 -42.05  0.006123699    1.460    0.315
         6  -8.9373     75.5183      7.4600   1.1338389605e+00   6.4660627817e+01    0.1315559     0.116585  72.69 0.0008087771    1.036    0.035
         7  -9.0967     60.2078     21.1525   1.3082579989e+01   6.6616143453e+01    0.1989056    0.1695997  32.30 0.0004957573    1.175    0.149
         8 -10.7308     33.1715    249.0057   6.8643230270e+01   1.6404085779e+01    0.2195909     0.181422  67.10  0.001538581    1.228    0.185
         9 -14.0103     16.4765    138.0521   6.5917720034e+01   4.4749656985e+01     1.920962     1.067734 -89.19 0.0006542863    1.784    0.439
        10 -12.8275     34.6915    157.7338   6.1615846202e+01   3.7679889181e+01     1.063604    0.6529546  -0.13  0.001057651    2.143    0.533
        11 -11.6728     42.7125    153.5581   5.8491838604e+01   3.7953406466e+01    0.3861047     0.317744   2.28 0.0006951569    1.398    0.284
        12 -14.3324      7.2459    244.6428   7.4294672731e+01   1.9522163220e+01     1.807544     1.521223 -42.49   0.01278375    1.597    0.374
        13 -15.9398      8.8046    201.8188   7.2386673140e+01   2.8727231223e+01     10.91395     4.631559 -83.03   0.04933413    2.356    0.576
        14 -11.1792     61.6388    222.9896   6.0149263955e+01   1.8826101387e+01    0.3368097     0.241185 -67.16  0.001228147    1.573    0.364
        15 -10.2031    125.9456    228.2065   4.5490161996e+01   1.0299321176e+01    0.2126172    0.1297535  -1.24  0.001087788    1.962    0.490
        16 -10.4872     72.6922    227.0180   5.7791351272e+01   1.6760046699e+01    0.1707682    0.1623906  33.31 0.0005430507    1.104    0.094
        17 -10.8248     37.9083    240.6192   6.7114505191e+01   1.7609140743e+01    0.2333607    0.1777337 -70.72 0.0006309659    1.532    0.347
        18  -9.5501     50.5163    239.4569   6.4090529717e+01   1.6602330202e+01    0.1244763    0.1026352  36.53 1.961913e-05    1.016    0.015
        19  -9.1054    138.8800    200.2897   3.8710747041e+01   1.3892278837e+01    0.2242181    0.1687651 -55.07  0.001276796    1.509    0.337
        20 -10.5795     56.0584    235.7724   6.2520809272e+01   1.6774036716e+01    0.1999043    0.1349248  -9.27  0.001083703    1.961    0.490
        21 -11.3968     98.6976    180.9319   4.5567912899e+01   2.3610649521e+01    0.3943036    0.3113261  29.97  0.001143611    1.205    0.170
        22 -10.4764     79.4953    177.1149   5.0298681654e+01   2.7200655727e+01    0.2317201     0.188818  59.00 0.0006007401    1.271    0.213
        23 -10.0775     69.8328    176.7927   5.3029759663e+01   2.8564424000e+01    0.2057082    0.1591711  59.86 0.0004636862    1.332    0.249
        24 -11.4755    103.2175    170.7939   4.2746844017e+01   2.5312204995e+01    0.5084687    0.2697038  50.69  0.002061992    2.243    0.554
        25  -9.0372    126.4759    169.9109   3.6597388930e+01   2.1946754166e+01    0.2109684    0.1388639 -54.38   0.00101669    1.570    0.363
        26 -11.6251     56.7571    146.9560   5.2899942576e+01   3.8044750110e+01    0.4548202      0.37239  13.70 0.0004474017    1.342    0.255
        27 -11.6539     69.4697    161.3889   5.0992269793e+01   3.2528922512e+01     0.783058    0.4232346  26.25  0.003186281    1.871    0.466
        28 -11.4852    210.6412    246.4085   3.1613927303e+01  -1.4023185502e+00    0.4107189     0.204461 -34.67  0.002660573    1.785    0.440
        29  -9.7693    230.6572    167.3270   1.6145691951e+01   7.6732654094e+00    0.1058033   0.08470379 -57.72            0    1.740    0.425
        30  -8.4715    155.6675    167.3690   2.9412165550e+01   1.7959025560e+01    0.1343086    0.1096328  86.35  0.000703103    1.830    0.453
        31 -10.6917    235.5079    160.0392   1.4189109289e+01   8.1816395611e+00    0.1835071   0.08919531 -38.48  0.001036909    1.604    0.377
        32 -10.7997    249.1035    154.3755   1.1415428904e+01   7.4081454405e+00    0.2033888    0.1170763 -31.01 0.0007333615    1.347    0.257
        33  -8.8705    153.3302    158.2952   2.8189651123e+01   2.0143071025e+01    0.1889112    0.1227515 -52.39 0.0007382154    1.578    0.366
        34 -13.0508     40.7774    141.6161   5.7620855030e+01   4.1439677514e+01    0.5668374    0.4017812  -8.66  0.001321539    1.800    0.444
        35  -9.5834    249.3195    136.3153   8.2011178675e+00   9.9680915130e+00    0.1106781    0.0738034 -16.40 0.0007039561    1.655    0.396
        36  -8.2350    206.5832    135.4830   1.3794585962e+01   1.5968422452e+01    0.1269138    0.1033494 -36.87  0.000117301    1.024    0.023
        37 -10.6739     85.3130    133.2738   4.1075527374e+01   3.7434044680e+01    0.3700876    0.3049459 -29.73 0.0009198544    1.370    0.270
        38 -10.2795     89.1737    130.4979   3.9278102695e+01   3.7493782442e+01    0.3162654    0.2792578  45.14  0.001047672    1.134    0.118
        39  -9.3219    105.3693    130.4833   3.4400690626e+01   3.4650535825e+01    0.2844867    0.2433977 -65.01 0.0009208387    1.188    0.158
        40 -14.2578      6.9228    170.7845   7.1433202522e+01   3.6611502339e+01     1.807373    0.8805372  88.72  0.002967114    1.988    0.497
        41 -12.2772     72.4363    129.7943   4.4601578982e+01   4.0410965481e+01    0.5554969    0.3481086  31.13 0.0004860592    1.624    0.384
        42 -11.3262    244.9270    123.6663   6.4068582132e+00   1.2363107830e+01    0.2124801    0.1282761 -32.31  0.001339908    1.350    0.259
        43  -9.6381    101.3295    125.4905   3.4463652204e+01   3.6595061604e+01    0.3486968    0.2660175  10.28  0.001262332    1.684    0.406
        44 -10.3161     87.3104    120.1342   3.7588478620e+01   4.0442397100e+01    0.3025755    0.2437944  30.80  0.000649083    1.299    0.230
        45  -9.8613     41.1103    115.6167   5.3475092019e+01   4.8610518104e+01    0.2685421    0.2003989 -86.47 0.0006868497    1.399    0.285
        46  -9.5249    100.9697    115.0783   3.2119320623e+01   3.9185151039e+01    0.2215102    0.2159988  76.70 0.0003081428    1.025    0.024
        47 -10.9832    244.4939    111.6614   4.2097977541e+00   1.4165802287e+01    0.2552396   0.09036352 -35.17  0.001195951    2.336    0.572
        48  -9.5656    204.2974    110.6654   9.0402523068e+00   2.0474028963e+01    0.2577061    0.1924531  32.86  0.001532341    1.737    0.424
        49 -10.5305     23.7744    105.4654   5.9013477386e+01   5.3248758930e+01    0.2860591    0.2656218 -70.88  0.001004712    1.020    0.019
        50 -15.2015     16.0066    165.3924   6.8296671699e+01   3.7332683631e+01     5.839933     1.700788  82.94   0.01537645    5.608    0.822
        51 -11.1841     52.4577     90.7826   4.3379288299e+01   5.3763269702e+01    0.5416305    0.1642495 -51.99  0.001712571    3.035    0.671
        52 -10.9272    243.1328     93.8443   9.4526134767e-01   1.6916405623e+01    0.1853531    0.1272529 -51.24  0.001074608    1.239    0.193
        53  -8.6456     95.4217     91.2008   2.7498145456e+01   4.5886413062e+01    0.2234556    0.1450141 -61.52 0.0009510916    1.696    0.410
        54  -8.9591     70.2029     78.3865   3.2499701145e+01   5.3802537770e+01    0.2157612    0.1380734  49.69 0.0004686913    1.627    0.385
        55 -13.3179    225.4266     65.7185   3.5699051349e+02   2.3704246266e+01    0.9083006    0.6638595 -49.48  0.006125313    1.048    0.046
        56  -9.4986     57.2868    248.7205   6.3152342092e+01   1.4119031848e+01    0.2197766    0.1081749 -86.42  0.001085001    2.801    0.643
        57  -9.5072     21.0908     70.8492   5.3542334846e+01   6.2789369165e+01    0.2199502     0.183156  60.05 0.0006652088    1.344    0.256
        58  -9.1966     45.1976     69.7732   4.0681893402e+01   6.0087824319e+01    0.1981832    0.1670505 -18.35 0.0004302123    1.296    0.228
        59 -10.3554     63.3386     64.5073   3.0651355523e+01   5.8211097435e+01    0.2942491    0.2444436 -84.88 0.0005977271    1.442    0.306
        60  -9.3188     19.4954     65.4912   5.3093849335e+01   6.4298187158e+01    0.1391438    0.1312475 -40.26 -5.191316e-07    1.006    0.006
        61 -11.4695     13.6126     50.1377   5.2412007423e+01   6.8579937842e+01    0.5817582    0.2879141  67.00  0.001910143    4.678    0.786
        62 -10.0360     71.0867    241.0832   5.9400656495e+01   1.4140664093e+01    0.2042503    0.1225198  51.32  0.001126491    1.674    0.403
        63  -9.9003    136.1889    248.1824   4.5726755520e+01   5.7515688529e+00    0.1533023    0.1223241  33.50 0.0003449657    1.319    0.242
        64 -10.9516     73.7633    245.5997   5.9155573524e+01   1.2997631904e+01    0.3301726    0.1951423   6.61  0.001738595    1.970    0.492
        65  -8.7870    189.4804     15.4518   3.4858340160e+02   3.6937637447e+01    0.1216352   0.09583337 -63.86  0.000115658    1.016    0.016
        66 -11.6261     61.6741    229.2230   6.0661883977e+01   1.7517043962e+01    0.3376948    0.2734345 -53.99  0.002123545    1.437    0.304
