#   1 NUMBER                 Running object number                                     
#   2 MAG_AUTO               Kron-like elliptical aperture magnitude                    [mag]
#   3 X_IMAGE                Object position along x                                    [pixel]
#   4 Y_IMAGE                Object position along y                                    [pixel]
#   5 X_WORLD                Barycenter position along world x axis                     [deg]
#   6 Y_WORLD                Barycenter position along world y axis                     [deg]
#   7 A_WORLD                Profile RMS along major axis (world units)                 [deg]
#   8 B_WORLD                Profile RMS along minor axis (world units)                 [deg]
#   9 THETA_WORLD            Position angle (CCW/world-x)                               [deg]
#  10 FWHM_WORLD             FWHM assuming a gaussian core                              [deg]
#  11 ELONGATION             A_IMAGE/B_IMAGE                                           
#  12 ELLIPTICITY            1 - B_IMAGE/A_IMAGE                                       
         1 -14.7462      6.4057    129.3742   1.4498667576e+02   4.7811834814e+01     5.933402    0.9575452 -77.26    0.0168881    6.502    0.846
         2 -13.8067    196.8436     25.8188   6.9495410126e+01   3.2727927687e+01     1.702167     1.454166  33.51  0.007562823    1.354    0.261
         3 -13.4811    211.8648      7.0015   6.2622165831e+01   3.0937599188e+01    0.9959996     0.812997  71.21  0.003711002    1.180    0.152
         4 -10.9952      2.4589      4.6973   1.2018506271e+02   7.3915446131e+01     0.382971   0.07554492 -50.60  0.001578213    3.735    0.732
         5  -9.3667      2.6333    248.8800   1.5249482540e+02   2.4611339347e+01    0.1368869   0.09655336 -85.39  0.001099378    1.468    0.319
         6 -12.4353    173.2930    248.7655   1.2394422824e+02   1.2803581370e+00    0.5675018    0.2580068  42.33  0.003076839    1.675    0.403
         7  -9.8393     29.5033    250.0664   1.4847913816e+02   2.1623644460e+01     0.140766   0.08031508 -87.34  0.001028043    1.575    0.365
         8 -10.9665    237.7949    246.8912   1.1270650241e+02  -8.4877313738e+00    0.1742949    0.1618505 -27.63  0.001378922    1.629    0.386
         9 -13.7952    140.0407    248.3688   1.2974088691e+02   6.6560393973e+00     1.561786    0.3799108  45.32   0.00626054    3.095    0.677
        10 -12.1572    185.7523    239.1532   1.2047137621e+02   5.0690025857e-01    0.3963619    0.3018474  70.11  0.002503595    1.879    0.468
        11 -13.9069     38.3597    229.0797   1.4590023198e+02   2.4226619050e+01    0.8102146    0.4842148  58.71  0.002472212    1.248    0.198
        12 -12.9622    109.2971    231.1365   1.3341335409e+02   1.4191494289e+01     1.371704    0.1191888  43.44  0.003720115    6.616    0.849
        13 -13.0300     48.5080    217.2012   1.4332388718e+02   2.5199906278e+01     1.297957    0.7002819  61.08   0.00657493    1.488    0.328
        14 -11.9646     90.4743    227.5140   1.3651560631e+02   1.7657691810e+01     0.897778    0.1387635  48.86  0.002809715    5.228    0.809
        15 -12.9571     33.7550    235.6593   1.4705375408e+02   2.3590107761e+01    0.2738903    0.2134262 -89.25 0.0007474779    1.334    0.251
        16 -12.0023     10.5294    206.9038   1.4945794207e+02   3.1278365254e+01    0.4879884    0.3126864  31.66  0.002966529    2.037    0.509
        17  -9.4072     20.9721    211.8343   1.4789307019e+02   2.9307856483e+01    0.2252484    0.1240492  28.40  0.001358756    2.596    0.615
        18 -11.7189     60.3998    200.9995   1.3975139533e+02   2.6834307414e+01    0.2352255    0.1969155  84.76 0.0005696606    1.158    0.137
        19  -9.5890    194.2193    197.0478   1.1229915858e+02   5.0177813789e+00    0.3455952    0.1672394 -60.76 0.0009689177    7.396    0.865
        20 -11.9800     66.8913    192.3230   1.3760645532e+02   2.7724468648e+01    0.2410478    0.2066891 -86.40 0.0003942785    1.197    0.165
        21 -13.2413     63.8944    177.2842   1.3662194840e+02   3.1280520975e+01    0.4652827    0.2661739 -49.63  0.001992259    2.242    0.554
        22 -10.8052     77.3280    179.0477   1.3390152297e+02   2.9038610019e+01    0.2270803    0.1977204  86.50 0.0003769881    1.101    0.091
        23  -9.6626    100.0852    176.7501   1.2857558934e+02   2.6012984876e+01    0.3472457    0.1826284  63.92  0.001515826    2.283    0.562
        24  -9.9978    250.0126    249.5200   1.1112768100e+02  -1.0481754750e+01    0.1672827   0.08350796  36.00  0.001028315    1.578    0.366
        25 -11.9917     86.0439    152.6420   1.2817762999e+02   3.3542571333e+01    0.2823896     0.245871 -50.08 0.0005061067    1.324    0.245
        26  -9.1490    135.1681    149.8833   1.1586012222e+02   2.5363244215e+01    0.3082614    0.1760279 -71.44  0.001164425    2.728    0.633
        27 -12.1016     67.4433    143.5967   1.3137215699e+02   3.8323104845e+01    0.6574717    0.3922374  64.53  0.002984893    1.857    0.462
        28  -9.9601    109.2276    138.0971   1.1979127497e+02   3.2925940227e+01    0.3872863    0.2797772 -15.92  0.001719067    2.342    0.573
        29 -10.5197     31.8061    131.9552   1.3885231102e+02   4.5132879540e+01     0.252269    0.1571304  52.28 0.0009058499    1.662    0.398
        30 -10.4234     96.4397    135.4210   1.2252882466e+02   3.5784610365e+01    0.2429724    0.2284897 -37.08 0.0004342399    1.241    0.194
        31 -11.3927     21.7317    126.4003   1.4079015933e+02   4.7304070610e+01    0.3671145    0.1835239  53.85  0.001501028    2.158    0.537
        32  -9.1123    106.5050    124.4322   1.1762490929e+02   3.6522445501e+01    0.1450327    0.1376578 -86.81 9.626256e-05    1.016    0.015
        33 -11.8689     84.8829    169.9658   1.3103103730e+02   2.9873767633e+01    0.6089371    0.4965807  23.80  0.003561254    1.632    0.387
        34  -9.9782    157.7209     76.0156   9.1626901131e+01   3.5415823795e+01    0.2215364    0.2102709 -34.15 0.0006065248    1.067    0.063
        35 -11.4798     11.5951     54.0144   1.3205281644e+02   6.4115145554e+01    0.2666901    0.1656672  26.46 0.0009211955    1.981    0.495
        36 -12.6834    100.5152    248.3165   1.3664777182e+02   1.2716653591e+01      0.84043    0.2081141  39.88  0.003334097    3.613    0.723
        37 -10.1959     97.3028    153.4525   1.2557824817e+02   3.1547458640e+01    0.2989891    0.2647507 -60.67 0.0008718167    1.196    0.164
        38 -10.4331     20.2957    247.0137   1.4976148980e+02   2.3128584658e+01    0.2970216    0.2398248  33.36  0.002440741    1.919    0.479
        39  -9.3385    100.2204    149.1749   1.2412637341e+02   3.2015938947e+01     0.194909    0.1902144 -50.45  0.000417824    1.210    0.173
