#   1 NUMBER                 Running object number                                     
#   2 MAG_AUTO               Kron-like elliptical aperture magnitude                    [mag]
#   3 X_IMAGE                Object position along x                                    [pixel]
#   4 Y_IMAGE                Object position along y                                    [pixel]
#   5 X_WORLD                Barycenter position along world x axis                     [deg]
#   6 Y_WORLD                Barycenter position along world y axis                     [deg]
#   7 A_WORLD                Profile RMS along major axis (world units)                 [deg]
#   8 B_WORLD                Profile RMS along minor axis (world units)                 [deg]
#   9 THETA_WORLD            Position angle (CCW/world-x)                               [deg]
#  10 FWHM_WORLD             FWHM assuming a gaussian core                              [deg]
#  11 ELONGATION             A_IMAGE/B_IMAGE                                           
#  12 ELLIPTICITY            1 - B_IMAGE/A_IMAGE                                       
         1 -12.1041     76.7730     24.4465   9.6762375619e+01   6.1865362946e+01    0.4531356    0.3798193 -34.47  0.001484634    1.270    0.212
         2 -10.7615     88.7220     24.6182   9.2861393871e+01   5.9604010765e+01     0.456345    0.2239509 -15.68  0.001253616    2.771    0.639
         3 -11.1114     13.7950     20.8751   1.2236860514e+02   7.0376290640e+01    0.3069661    0.2624441  77.90  0.001150309    1.905    0.475
         4 -10.4515     26.8524     15.9827   1.1384074608e+02   7.0101109738e+01    0.2522678    0.1920124 -33.78 0.0009751579    1.126    0.112
         5 -11.4438     42.0538     18.5158   1.0786245564e+02   6.8008686391e+01    0.5532373    0.3474492  17.27   0.00327389    1.729    0.422
         6 -11.3507    190.3829     15.5733   6.8528787188e+01   3.5755295231e+01    0.4519993    0.1631018 -26.92   0.00122964    2.829    0.647
         7 -10.5180     39.0363      1.9534   1.0095768954e+02   7.0749110814e+01    0.3605261    0.1944257  30.29  0.002100128    1.870    0.465
         8 -11.0634     41.6960      6.5981   1.0219863615e+02   6.9787915289e+01    0.5655962    0.2583418  31.21  0.002946358    2.307    0.567
         9 -10.6652     39.1330     10.3534   1.0528752300e+02   6.9594972948e+01    0.2381663    0.2251227 -31.27  0.001759974    1.470    0.320
        10 -11.7617     35.0119     13.5509   1.0877793589e+02   6.9614920986e+01    0.4506655    0.2420973 -45.53  0.001647814    1.899    0.473
        11 -12.2000     30.0474      7.2001   1.0805884168e+02   7.1123654642e+01    0.5044334    0.3572803 -36.74  0.003409083    1.346    0.257
        12 -11.3094     55.3650      8.1803   9.7131040581e+01   6.7617610292e+01    0.7161265    0.3514315 -30.82  0.002828908    1.872    0.466
        13 -11.2236     57.7072      4.3559   9.4231358963e+01   6.7714071736e+01    0.4063972    0.2430733  36.76  0.002354976    1.610    0.379
        14 -10.4606     53.0000      3.5003   9.5674182400e+01   6.8558062677e+01    0.3686772    0.1516317 -26.76  0.001460486    2.299    0.565
        15 -11.1267    212.5555     11.9212   6.4985567620e+01   3.0371173487e+01    0.3003973    0.2183966  65.60 0.0009358384    1.325    0.245
        16  -9.9486     68.2804     12.3968   9.4249268703e+01   6.4973840629e+01    0.2602471    0.1787281 -57.29  0.001327505    2.550    0.608
        17 -10.0770    247.8308     12.2103   6.1875887488e+01   2.1686756510e+01    0.2522044    0.1576885  57.56  0.001338008    1.758    0.431
        18 -10.1469    118.9905     11.9877   7.9354159194e+01   5.4502605224e+01    0.2067448    0.1860957  38.41 0.0003483413    1.012    0.012
        19  -9.8826    109.5138     11.4435   8.1362669808e+01   5.6762510563e+01    0.2497419    0.1315082 -22.11 0.0005925485    1.971    0.493
        20 -10.8620     87.3460     10.9300   8.7200262123e+01   6.1581212626e+01    0.5354387    0.2433602 -10.60  0.002114026    3.081    0.675
        21 -10.7176     92.6310      9.1632   8.4839701753e+01   6.0690651351e+01    0.3122457    0.2052621  -2.80  0.001330129    1.616    0.381
        22  -9.8285     91.5521      3.0478   8.2343173907e+01   6.1531163847e+01      0.37182    0.2297166  48.08   0.00200884    1.464    0.317
        23 -11.1625     22.3947      9.4238   1.1303909575e+02   7.1577805446e+01    0.2991518    0.1998209  -8.07  0.001526654    1.446    0.309
        24 -11.1300     13.4553      8.1549   1.1717176566e+02   7.2561071861e+01    0.3242413    0.2659464   0.63  0.001424385    1.285    0.222
        25 -10.9442      4.4298      9.5018   1.2271763976e+02   7.2979143273e+01    0.2125112    0.1348064 -33.89 0.0006516216    1.193    0.162
        26 -10.7495      2.5281      6.5391   1.2251546377e+02   7.3594149477e+01     0.241998    0.1482856 -30.64  0.001091312    1.280    0.219
        27 -12.2625    151.9085      6.4397   7.1017448970e+01   4.6813544070e+01     0.500259    0.3939957 -16.87  0.001471726    1.402    0.287
        28 -11.8320    130.3430      3.3882   7.3618116876e+01   5.2564347467e+01    0.5117365    0.3195308  87.01  0.002397214    2.023    0.506
        29 -10.9837     71.1781      7.3979   9.0780548201e+01   6.5062554501e+01    0.4231316    0.2117562  39.74 0.0009662826    1.888    0.470
        30 -11.5908     69.0153      4.2846   8.9988374796e+01   6.5797997837e+01    0.6501014    0.3242248  26.63 0.0003572076    2.271    0.560
        31  -9.8906    210.4474      7.9960   6.4139560566e+01   3.1323747485e+01    0.1990881    0.1341826 -27.09  0.001025261    1.588    0.370
        32  -9.9162      7.7278      4.9306   1.1883933742e+02   7.3513225596e+01    0.1852644     0.126324 -33.21  0.001004443    1.086    0.079
        33 -10.2156     10.5768      1.6405   1.1562070379e+02   7.3814488740e+01     0.182242    0.1415077   8.44   0.00113138    1.371    0.271
        34  -9.8400    235.6611      4.6859   6.1046517580e+01   2.5385264056e+01    0.1292121   0.09589407  42.83  0.000429356    1.698    0.411
        35  -9.8964    160.2110      4.3925   6.9065870168e+01   4.4835958791e+01    0.2039682    0.1257362  83.16 0.0009496341    1.690    0.408
        36 -10.1077    120.9725      4.0958   7.5744002785e+01   5.4787788268e+01    0.2062062    0.1811625  38.19 0.0004893955    1.028    0.027
        37  -9.6985    199.5246      2.9964   6.3864857238e+01   3.4640975753e+01    0.1930189    0.1335242 -29.74 0.0003772067    1.532    0.347
        38 -10.7991     19.1231      2.5204   1.1131845514e+02   7.2935242073e+01    0.3522474    0.1811002  16.75  0.001847792    2.188    0.543
        39  -9.9894     76.9272      6.9483   8.8613736449e+01   6.4052722314e+01    0.2011606    0.1483325  14.04  0.000658903    1.268    0.211
        40 -11.2846     80.2542      1.6274   8.4966253153e+01   6.3962810180e+01    0.3536039    0.1415455  49.13 0.0008849149    2.230    0.552
        41  -9.7036      2.0467      2.5591   1.2100594971e+02   7.4277799993e+01    0.1354793   0.09411161   6.59  0.001006782    1.536    0.349
        42  -9.4552    245.3645      1.2986   5.9508422886e+01   2.3433382927e+01    0.1254248   0.09254422  45.60 0.0007033292    1.723    0.420
        43 -10.1361     29.0367    128.6313   1.4014866957e+02   4.6186630262e+01    0.2642966    0.1426545  89.83  0.001025831    1.829    0.453
        44  -9.7147    195.3177    250.3007   1.2145884770e+02  -2.0155987597e+00    0.1144965   0.07354991  21.70 0.0006068141    1.619    0.382
        45 -10.9622      1.8368    248.7695   1.5332016604e+02   2.5009598758e+01    0.3457479    0.1336998 -84.59  0.002297921    2.217    0.549
        46 -12.7824      8.5557    246.1907   1.5224209517e+02   2.4773858475e+01     0.492819    0.3266454  39.91  0.003963292    1.794    0.443
        47 -12.0553      5.5062    240.6312   1.5249252807e+02   2.5993195576e+01    0.4208492    0.1820558  53.26   0.00262775    1.614    0.381
        48  -9.8964     42.9611    126.0166   1.3616931135e+02   4.5410217843e+01    0.1856716    0.1554096 -86.20 0.0003154814    1.034    0.033
        49  -9.5945     21.1757    126.1660   1.4187706694e+02   4.7429446398e+01    0.1598261    0.1142391  78.08 0.0004076367    1.286    0.222
        50 -11.4157     23.6497    121.4657   1.4068283618e+02   4.8284843594e+01    0.4656045    0.2192724  85.58  0.001245645    2.492    0.599
        51  -9.5392     15.7606    122.8042   1.4289680646e+02   4.8616953325e+01    0.1598143    0.1132832  74.78 0.0007552761    1.327    0.246
        52  -9.8672     65.0000    114.9920   1.2829085477e+02   4.5349494224e+01    0.2297693   0.06877155 -60.71 0.0008076268    2.979    0.664
        53  -9.7287     96.6421    114.0303   1.1922690642e+02   4.0744250939e+01    0.2062554    0.1755192 -66.51 0.0005760496    1.117    0.105
        54 -10.9366      3.8757    113.7298   1.4504342483e+02   5.1465793921e+01    0.2730632    0.1696332  -7.24  0.001645428    2.640    0.621
        55  -9.6241    249.2975    111.3550   8.5667337287e+01   7.6868249342e+00    0.1438101    0.1040623   6.29    0.0007035    1.697    0.411
        56 -11.5929      4.5858    108.6140   1.4431729031e+02   5.2555947211e+01    0.3444256    0.2132231  14.81  0.002192537    2.253    0.556
        57  -9.2323     79.6486    107.3080   1.2251782615e+02   4.5047668751e+01    0.1441456    0.1039925  78.25 0.0007043333    1.713    0.416
        58 -10.3410     58.5567    107.1540   1.2864313210e+02   4.7989522465e+01    0.2430545    0.1826019  -4.41   0.00131593    1.961    0.490
        59 -11.5437     18.1511     95.1809   1.3868624875e+02   5.4661682137e+01    0.4085098    0.2356687  72.62  0.001801037    2.123    0.529
        60 -10.1298     20.5025     91.4794   1.3738595088e+02   5.5322262637e+01    0.1914142    0.1319565 -30.02  0.001051649    1.783    0.439
        61  -9.7305      3.5107     95.4690   1.4310507500e+02   5.5533040704e+01    0.1155638    0.0881685 -77.77 0.0001535419    1.037    0.036
        62 -10.9292     84.3741     93.6664   1.1787626045e+02   4.7403715314e+01     0.314182    0.2522811  12.62  0.001673896    1.572    0.364
        63 -11.1974     27.4753     90.8170   1.3508503206e+02   5.4927263137e+01    0.5556942    0.2641592  53.43  0.002642048    2.846    0.649
        64 -10.5714     25.2028     84.8373   1.3474177560e+02   5.6453034387e+01    0.2567216    0.1642427 -68.92 0.0005393844    1.297    0.229
        65 -10.2324     16.0332     89.3399   1.3844379722e+02   5.6119143716e+01    0.1911319    0.1738649 -44.28 0.0006635889    1.255    0.203
        66  -9.8015     18.7846     86.9723   1.3719012491e+02   5.6456243548e+01    0.2220872    0.1335392 -75.44  0.001076253    1.440    0.305
        67 -10.5285     76.4002     89.2591   1.1919525805e+02   4.9630762089e+01    0.2476647    0.2310167 -50.75 0.0005204381    1.039    0.038
        68 -10.6161     43.3571     89.3424   1.2973277442e+02   5.3792554064e+01    0.3583481    0.1786928  45.96  0.001739102    2.405    0.584
        69 -10.2347      1.6980     89.5695   1.4290577149e+02   5.6933110302e+01    0.2145732    0.1153518 -73.14 0.0005872693    1.411    0.291
        70 -10.8026    104.0668     87.8153   1.1045572571e+02   4.5219417512e+01    0.2215953    0.1959827 -86.10 0.0004942466    1.262    0.208
        71  -8.9565    250.6994     87.6927   7.9834121682e+01   1.0959314260e+01    0.1373483    0.1064935  11.58 0.0002345252    1.597    0.374
        72  -9.8477    124.0279     86.9469   1.0462670459e+02   4.1339217290e+01    0.2276703    0.2239531 -37.83 0.0005070075    1.016    0.016
        73 -11.2409     54.6237     84.2253   1.2492607807e+02   5.3693500507e+01    0.2957092     0.228316 -74.40 0.0007616572    1.327    0.246
        74  -9.3342     92.5427     85.4171   1.1319473001e+02   4.7843821369e+01    0.1411952    0.1337937 -48.51 0.0001295083    1.010    0.010
        75  -9.3673     78.1917     83.3644   1.1707581253e+02   5.0658475895e+01     0.179046    0.1283101  50.09 0.0002708318    1.581    0.367
        76 -11.6801     63.9660     81.6101   1.2120424839e+02   5.3093887252e+01    0.3590389    0.3249235 -61.33  0.001509033    1.064    0.060
        77 -10.4960     65.3924     75.4520   1.1908133742e+02   5.4244613388e+01    0.3636841    0.2403234 -20.22 0.0004183282    2.061    0.515
        78 -10.0117    250.3781     80.8002   7.8211206406e+01   1.2052074320e+01     0.197234    0.1267816 -22.35 0.0005699292    1.628    0.386
        79 -10.0674     89.4083     80.4645   1.1274241158e+02   4.9450875324e+01     0.273844    0.1637082 -52.35 0.0006730385    1.612    0.380
        80  -8.6699    124.4737     79.4870   1.0227520483e+02   4.2749923009e+01    0.1509308    0.1461905 -68.00 8.134253e-05    1.058    0.055
        81 -11.6204     11.3178     87.9795   1.3971449636e+02   5.6730679102e+01    0.5571193    0.2135638 -68.49  0.002040172    1.978    0.494
        82  -9.5942    177.0040     77.4558   8.9345999333e+01   3.0451334549e+01      0.24827    0.1526755  56.83   0.00103929    1.622    0.383
        83 -10.4214     56.0002     75.6867   1.2232876469e+02   5.5412163561e+01    0.2792318    0.2451242 -21.57  0.001341621    1.225    0.184
        84 -10.2793     37.4797     75.5117   1.2867602819e+02   5.7461491067e+01    0.2460004    0.1607984 -49.72  0.001230553    1.297    0.229
        85 -10.6753     34.9902     72.6861   1.2889391150e+02   5.8312957268e+01     0.438831    0.2751482 -24.20   0.00239705    2.021    0.505
        86 -10.5750     15.9565     76.0120   1.3621047551e+02   5.9077262657e+01    0.1828017    0.1489283 -64.88 0.0008959257    1.039    0.038
        87 -10.6698      3.9495     81.6095   1.4111311565e+02   5.8561802139e+01    0.3689224     0.148496 -75.62  0.001854668    2.096    0.523
        88  -9.6295    224.1069     74.2924   8.0264865674e+01   1.9125532861e+01     0.193941    0.1831115 -86.86 0.0003802885    1.080    0.074
        89 -10.0421    136.8798     74.0377   9.7356176544e+01   4.0986601151e+01    0.2278538    0.2173641  -0.25 0.0004353565    1.086    0.079
        90  -9.5210     95.9670     73.7208   1.0869544749e+02   4.9690315442e+01    0.1878738    0.1793078  54.25 0.0003036733    1.130    0.115
        91  -9.4184     92.4651     72.4418   1.0938177764e+02   5.0589192695e+01     0.225743    0.1880434  50.14 0.0008054501    1.312    0.238
        92 -11.0672      3.5598     73.8113   1.4005145496e+02   6.0281818589e+01    0.2877157    0.1953089  13.53   0.00127103    1.932    0.482
        93  -9.4418    216.8254     72.2178   8.0823396202e+01   2.1230910902e+01    0.1982958    0.1748014  16.53 0.0005019986    1.303    0.233
        94  -9.7451    152.7852     71.9899   9.2897666787e+01   3.7523137951e+01    0.2087206    0.1993915 -42.29  0.001095904    1.054    0.052
        95 -10.2681    105.9043     71.5684   1.0502803304e+02   4.8217260500e+01    0.2384473    0.1982635 -38.87 0.0004198323    1.158    0.137
        96 -10.1761     80.8521     72.0493   1.1296574402e+02   5.2655121322e+01    0.2298195     0.161742 -76.62  0.001079569    2.063    0.515
        97 -10.1950     45.8433     69.6870   1.2429844456e+02   5.7882228634e+01    0.2709107    0.1993099  14.49   0.00145739    1.653    0.395
        98 -10.3817     10.8119     69.1667   1.3673197197e+02   6.0889779259e+01    0.2802299    0.1604834 -74.70  0.001651971    1.560    0.359
        99 -11.0508     16.9583     64.4909   1.3357009012e+02   6.1511083488e+01    0.3218965    0.2605162 -54.69  0.001029211    1.044    0.042
       100 -10.6776     34.8475     64.9413   1.2706108023e+02   5.9999292937e+01    0.2676097    0.2040223 -37.07 0.0007431162    1.241    0.194
       101 -11.3691     39.4617     62.9334   1.2482414420e+02   5.9984418374e+01    0.6924535    0.2358915 -48.95   0.00299323    2.345    0.574
       102  -9.9671    127.0410     61.8000   9.5914649672e+01   4.5514372192e+01    0.2130562    0.1982785  88.39 0.0003486179    1.192    0.161
       103 -10.1215    133.2155     63.9168   9.5027726521e+01   4.3702515982e+01    0.3631425    0.2371642 -30.19  0.001377608    1.606    0.377
       104 -10.8925      8.3370     62.3799   1.3632156778e+02   6.2487121514e+01     0.488722    0.1043923 -51.40  0.002052192    3.012    0.668
       105  -9.9862     72.5843     62.7340   1.1282575336e+02   5.5864856259e+01    0.2031941    0.1686793  88.81  0.001084139    1.641    0.391
       106  -9.8007     68.0201     60.4681   1.1368441704e+02   5.7000982726e+01     0.242293    0.1309144  40.77 0.0009344532    2.066    0.516
       107 -10.5799     53.7352     62.0897   1.1931822497e+02   5.8582265106e+01    0.3063671    0.2272129  14.69 0.0008254708    1.592    0.372
       108 -10.5015     54.6495     58.3340   1.1783414696e+02   5.9240301626e+01    0.2768265    0.2077897  68.67  0.001062536    2.013    0.503
       109 -10.2634    101.1299     61.9133   1.0328194190e+02   5.1033870578e+01     0.217136     0.194779 -71.32 0.0006748681    1.302    0.232
       110 -10.5296     62.8479     61.9168   1.1597816141e+02   5.7438352493e+01    0.2087304    0.1606352 -28.65 0.0006498449    1.284    0.221
       111 -10.4688      2.6614     60.3429   1.3803445609e+02   6.3212416773e+01    0.2270529    0.1405189  57.61  0.001390254    2.204    0.546
       112  -9.6017    119.1464     59.8005   9.7353874716e+01   4.7651440150e+01     0.297838    0.1847138  73.41  0.001148345    2.661    0.624
       113 -11.5052      5.3321     51.7130   1.3524732584e+02   6.4887311758e+01     0.970599    0.2965006 -35.88  0.004014295    3.932    0.746
       114 -11.6443     17.7323     45.3206   1.2856842567e+02   6.5450221774e+01    0.4753338    0.3382821 -41.90  0.002012304    1.153    0.133
       115 -12.5837     20.4711     57.3695   1.3061012974e+02   6.2779176709e+01    0.4189244    0.2605004  28.34 0.0009753138    1.951    0.488
       116 -11.0282     19.4582     52.0729   1.2967636696e+02   6.3953394645e+01    0.2911045    0.1856185 -49.86 0.0008241185    1.223    0.183
       117  -9.1147    178.4485     59.4495   8.3703203768e+01   3.3076191520e+01    0.1550028    0.1449029 -76.28 0.0001893025    1.082    0.076
       118 -10.4815     60.2975     57.7585   1.1557681667e+02   5.8625695328e+01    0.2307217    0.2163005 -48.41 0.0007640166    1.138    0.121
       119  -9.4364     71.7677     57.2396   1.1130095377e+02   5.7081113793e+01    0.1792256     0.142883 -18.46 0.0008882544    1.296    0.229
       120 -11.7781    114.2654     54.3410   9.6811157371e+01   4.9684034642e+01    0.3295241    0.2944734   8.37 0.0006004146    1.148    0.129
       121 -10.4681    104.2470     55.9984   1.0029753537e+02   5.1501791383e+01    0.2526561    0.2058579 -23.17 0.0002902055    1.230    0.187
       122 -10.2869    106.8220     54.0082   9.8830085282e+01   5.1326234446e+01    0.3968072     0.262743 -68.76    0.0016503    2.547    0.607
       123 -11.5947     86.9516     53.6258   1.0487861839e+02   5.5245728899e+01     0.430542     0.331523  44.93  0.001457977    1.406    0.289
       124 -10.7374     34.3108     53.6834   1.2420478060e+02   6.2404587840e+01    0.2787649    0.1549203 -41.88  0.001017879    1.552    0.356
       125 -11.5913     67.0049     52.4682   1.1136432908e+02   5.8720793371e+01    0.5432484    0.2337912  33.67  0.002323697    2.648    0.622
       126  -9.5742    212.0143     48.7772   7.5152629276e+01   2.5931980617e+01     0.199604    0.1784904  81.18 0.0003327342    1.099    0.090
       127 -10.2079     38.4062     48.5918   1.2102556265e+02   6.3033164506e+01    0.2132184    0.1613986 -30.45  0.001353926    1.212    0.175
       128  -9.1106    146.4839     48.4210   8.6664318878e+01   4.3040227542e+01    0.1492538    0.1442986  77.11  2.60518e-05    1.061    0.057
       129 -10.3218      7.6471     56.0298   1.3527546852e+02   6.3866258280e+01    0.1910031    0.1557511 -28.28 0.0009358573    1.317    0.241
       130  -9.6804     81.5282     52.5147   1.0629107967e+02   5.6400036147e+01    0.2010204    0.1298513  27.23 0.0006623116    1.770    0.435
       131  -9.9577     31.0033     45.4907   1.2306989733e+02   6.4357204068e+01    0.2069853    0.1468323 -59.05 0.0007279742    1.358    0.264
       132 -10.8326     68.5887     46.8095   1.0876604827e+02   5.9545735923e+01    0.2439528    0.2010517   3.38 0.0002204187    1.263    0.208
       133 -10.5886     70.7031     42.9857   1.0656526279e+02   5.9907148553e+01    0.2938543    0.2192299 -46.22  0.001008019    1.364    0.267
       134  -9.1855    136.4368     46.4864   8.8298794872e+01   4.5830264074e+01    0.1467718    0.1436431  27.30 0.0003478271    1.015    0.014
       135 -10.2885     77.6907     45.9445   1.0520144806e+02   5.8243557074e+01    0.2943102    0.1975391  37.95  0.001472574    1.573    0.364
       136  -9.1827     55.1492     45.6225   1.1338906776e+02   6.1668960277e+01     0.159345    0.1161005  11.44 0.0003674689    1.560    0.359
       137  -9.0116     91.2893     44.6970   1.0017515780e+02   5.6026194287e+01    0.1301069    0.1105788 -70.81 0.0003180322    1.566    0.362
       138 -10.8483     26.3213     43.5928   1.2443793885e+02   6.5138883831e+01    0.2158878    0.1877962 -58.15 0.0007691163    1.220    0.181
       139  -9.7555    183.0414     41.9718   7.7566449762e+01   3.4455412269e+01    0.2376905    0.1710094 -70.58   0.00050602    1.602    0.376
       140 -10.3711      4.8428     40.4089   1.3275498594e+02   6.7212486620e+01    0.4029202    0.1208432 -37.99  0.001777272    3.268    0.694
       141 -11.2539    139.9094     40.6675   8.5450619677e+01   4.5841908781e+01    0.2549606    0.2470428 -89.88 0.0003875342    1.093    0.085
       142 -10.4005     35.5566     40.6460   1.1957171344e+02   6.4867279652e+01    0.3568828    0.2400044 -20.24   0.00192791    1.562    0.360
       143  -9.8969    134.5573     39.8879   8.6399868344e+01   4.7275500436e+01    0.2144785    0.1872431  51.11  0.000280964    1.110    0.099
       144 -10.1399     22.2861     38.6764   1.2462649108e+02   6.6427293177e+01    0.2149376    0.1769837 -87.97 0.0009585586    1.687    0.407
       145 -10.1085     12.8829     37.7626   1.2849226065e+02   6.7273999304e+01    0.2945609    0.1303179 -64.72  0.001206658    2.234    0.552
       146 -11.4914    121.3692     36.3990   8.8331966578e+01   5.0929185544e+01     0.482504    0.4039981 -79.76  0.002542865    1.519    0.342
       147  -9.9836      7.3116     28.2405   1.2812647198e+02   6.9444402366e+01    0.2053851    0.1401736  23.71  0.001068912    1.810    0.448
       148 -11.0144      2.0933     34.8351   1.3249923103e+02   6.8451495904e+01    0.4225205    0.1151734 -55.19  0.001390894    2.318    0.569
       149 -10.5941      2.2906     28.4662   1.3059036729e+02   6.9672605634e+01    0.2501983    0.1429137 -48.70 0.0008112526    1.272    0.214
       150  -9.7522     99.0530     35.7801   9.4281575943e+01   5.5921803535e+01    0.1910121    0.1645359  21.30            0    1.120    0.107
       151 -10.0450     91.6993     35.2520   9.6344063818e+01   5.7474934510e+01    0.3018637     0.151361 -36.26  0.001349667    1.933    0.483
       152  -9.9625     88.5646     32.5012   9.6228078622e+01   5.8500364124e+01    0.3020233    0.1572951 -40.75  0.001379017    1.971    0.493
       153 -10.4566     70.1661     34.9694   1.0359906977e+02   6.1364573189e+01    0.3012195    0.1566958 -31.44  0.001250234    1.864    0.463
       154 -11.0334     26.5872     35.1195   1.2154356535e+02   6.6752004785e+01    0.2933016    0.1712803 -39.62  0.001081199    1.395    0.283
       155  -9.7048    111.1517     34.6812   9.0372017128e+01   5.3499090930e+01    0.2151142     0.184509  81.09  0.001053564    1.454    0.312
       156 -11.8180     50.6339     33.8893   1.1075909417e+02   6.4384612514e+01    0.3146783     0.215471  35.49 0.0006348311    1.650    0.394
       157 -11.1074    145.0235     33.1376   8.1685915627e+01   4.5596251121e+01    0.2583407    0.2379506 -31.82 0.0003612125    1.134    0.118
       158  -9.9947    141.0610     30.9293   8.1731376888e+01   4.6888248201e+01    0.2994299    0.2287749  44.29  0.001026286    1.259    0.206
       159 -11.1326    134.5157     34.0194   8.4285298030e+01   4.8109056499e+01    0.2508931    0.1927889  46.55 0.0003288621    1.239    0.193
       160 -10.1378    166.7424     31.4737   7.6997977399e+01   4.0166005241e+01    0.4267373    0.1300124 -26.94  0.001347323    3.487    0.713
       161 -11.2025     19.8970     31.9468   1.2346688738e+02   6.7897273380e+01    0.4558219    0.2417803  -8.70  0.002184057    2.584    0.613
       162 -10.6899     43.4830     29.5366   1.1200707067e+02   6.6025276568e+01    0.4258117    0.1832719 -41.81   0.00178999    1.978    0.495
       163 -10.3012     46.6980     26.9688   1.0956166869e+02   6.6066222496e+01     0.194773     0.165901  10.75 0.0003822232    1.211    0.174
       164  -9.4071    187.1550     29.8177   7.3231742255e+01   3.4957641222e+01    0.2123067    0.1683762  40.49  0.001082917    1.372    0.271
       165 -10.5413    151.3643     29.5962   7.9177432872e+01   4.4427139126e+01    0.2764096     0.238458  39.52 0.0007128972    1.150    0.130
       166 -10.3033    103.6952     29.6724   9.0467247435e+01   5.5833631574e+01    0.3844397    0.2140348  27.56  0.001639966    2.244    0.554
       167  -9.8716    102.1575     26.3662   8.9555104737e+01   5.6613139777e+01    0.2286348    0.1785455 -63.02  0.001196894    1.769    0.435
       168  -9.3969     38.1993     30.6614   1.1475309579e+02   6.6431118312e+01    0.1570717    0.1043805   9.73 0.0003917781    1.706    0.414
       169 -10.0007     69.8600     28.7909   1.0112953643e+02   6.2402819371e+01    0.1987315    0.1586994  -4.46 0.0005034466    1.184    0.156
       170 -10.0656    132.3715     26.5835   8.2022527592e+01   4.9605103690e+01    0.2618755    0.2123783 -65.25 0.0003039041    1.487    0.328
       171 -11.7181     17.1889    249.1527   1.5106855082e+02   2.3412726382e+01    0.3026436     0.191919  19.07  0.001771262    4.218    0.763
       172 -10.2031    113.9469     25.2899   8.5922646894e+01   5.4146005639e+01    0.2359764    0.1957831 -20.22 0.0006444874    1.219    0.180
       173  -9.3443    229.5145    248.0514   1.1543283305e+02  -7.0255331437e+00    0.1405841    0.1044142 -19.38  0.001016901    1.544    0.352
       174  -9.2711     18.3569     26.3018   1.2218012564e+02   6.9059710214e+01     0.121974   0.06817465 -27.89 0.0007038115    1.712    0.416
       175 -10.2132    230.4666     22.7687   6.6018276589e+01   2.4641420781e+01    0.5431533    0.1601005 -21.28  0.001541921    5.337    0.813
       176  -9.6130    153.5034     25.6342   7.7404172792e+01   4.4359973682e+01    0.2494024    0.1331807  63.93 0.0007014619    1.782    0.439
       177 -10.1619     58.8403     24.4241   1.0344567305e+02   6.4804293037e+01    0.2781171    0.1891093 -27.15  0.001306699    1.312    0.238
       178 -10.4210     52.1840     23.1787   1.0560060873e+02   6.5953326873e+01    0.3732837    0.1536296 -32.84  0.001205911    2.326    0.570
       179 -11.1141     33.3736    247.5616   1.4852313759e+02   2.1922107069e+01    0.2337002    0.1369285  32.74  0.001554842    2.350    0.574
       180 -10.3648     13.1564     16.1803   1.2083231211e+02   7.1245150380e+01    0.3000652    0.1553412  26.56  0.001833266    2.255    0.557
       181  -9.7005     22.6895     21.3323   1.1816629293e+02   6.9587452139e+01    0.1842502   0.09729364 -34.58            0    1.588    0.370
       182  -9.3150     84.4808     21.4228   9.2831889873e+01   6.0857463506e+01     0.133402    0.1153193   9.30 0.0001059803    1.035    0.034
       183 -10.4467     31.0324     19.9566   1.1358418979e+02   6.9026864789e+01    0.2233861    0.1549078 -38.47 0.0006478031    1.223    0.182
       184  -9.7552    217.5405    245.0000   1.1697502086e+02  -4.8851374432e+00    0.2588169   0.05122241  42.35 0.0009360685    3.945    0.747
       185  -9.5619    146.3323    244.3186   1.2920251885e+02   6.6217170989e+00    0.1120217   0.08288322  22.65 0.0004666117    1.693    0.409
       186  -9.2727      2.7488     20.3789   1.2776138212e+02   7.1158952175e+01    0.1386133   0.08864908 -13.14  0.000754395    1.641    0.390
       187 -10.4280    236.7023     18.4343   6.4331594649e+01   2.3624854602e+01    0.2324742    0.1163376 -28.91 0.0005939776    1.996    0.499
       188 -11.5670     14.8844    239.0693   1.5099983658e+02   2.5322317572e+01    0.2575391   0.09552903  69.75  0.001512885    2.224    0.550
       189  -9.4832    115.4285     17.4689   8.2404542879e+01   5.4746057788e+01    0.1370177    0.1267527  27.66 3.408325e-05    1.021    0.021
       190 -11.0417    107.7385     16.5752   8.3962696943e+01   5.6603255099e+01    0.3240678    0.2225717  61.01  0.001090987    1.531    0.347
       191 -11.2638     20.1292     16.8005   1.1753968014e+02   7.0584020099e+01    0.1859183    0.1581452  -8.67 0.0004577449    1.204    0.169
       192 -10.7530     90.1663     16.1184   8.8691176364e+01   6.0409732074e+01    0.2058524    0.1596403  13.92 0.0004483893    1.242    0.195
       193  -9.6616    202.4979    240.0307   1.1881708571e+02  -1.9440750971e+00    0.1450307    0.1148949 -26.17 0.0007956273    1.538    0.350
       194 -12.0503     26.3598    236.0613   1.4905679709e+02   2.4628747731e+01    0.3015473    0.1905805 -85.09  0.001761557    1.443    0.307
       195 -11.8935     20.8820    236.1386   1.4993187132e+02   2.5199690479e+01    0.2487349    0.1513912  70.30   0.00190044    1.142    0.124
       196 -12.6730      9.4617    232.3318   1.5156169990e+02   2.7015241396e+01    0.4506303    0.2879847 -74.82  0.003335625    1.676    0.403
       197 -12.0535      4.3457    232.6216   1.5236872313e+02   2.7460876218e+01     0.313548    0.1843609  84.41  0.001086745    1.293    0.227
       198  -9.9248    162.9842     15.4863   7.2347545234e+01   4.3019637818e+01    0.2046174    0.1166871 -80.59 0.0003770153    2.433    0.589
       199  -9.1743      1.2747     15.3079   1.2671920392e+02   7.2152471815e+01    0.1126896   0.05781772 -35.91 0.0002427675    1.549    0.354
       200  -9.6292    144.1873     14.1897   7.5078706200e+01   4.8045345130e+01    0.1907432     0.164276 -68.55 0.0008105077    1.296    0.229
       201  -9.0707     62.9479     14.3010   9.7160308803e+01   6.5620664319e+01    0.1776903    0.1051444  65.69   0.00070382    4.260    0.765
       202 -12.0627      8.7021    227.9737   1.5150027460e+02   2.7846448735e+01    0.3194801    0.2305141  52.54  0.001772246    1.383    0.277
       203  -9.1725    210.6597    235.6917   1.1678140944e+02  -2.7394216347e+00    0.1221101   0.07614453  19.13 0.0003595526    1.687    0.407
       204  -8.9409    155.7275    235.6605   1.2648693846e+02   6.3334923272e+00    0.1109966   0.08659787  17.17 0.0002769651    1.608    0.378
       205  -9.7934    249.1734    234.1441   1.1011142991e+02  -8.5096289153e+00    0.1732914    0.1173774  18.75 0.0005440293    1.185    0.156
       206  -9.6354    174.2099     13.5718   7.0061420387e+01   4.0251598387e+01     0.205034    0.1198983  57.87 0.0005577932    1.559    0.358
       207  -9.2438     79.8396    231.5917   1.3972211171e+02   1.8783689242e+01    0.1671198    0.0773738  52.60 0.0009343297    1.679    0.404
       208  -9.0517    124.3086    230.3345   1.3156469997e+02   1.2297765991e+01    0.1089565   0.09111376  17.65 0.0003239373    1.674    0.403
       209  -9.3185     60.4871    241.0000   1.4376422077e+02   1.9762263406e+01    0.2299222   0.04898295  40.03 0.0009333153    3.923    0.745
       210  -9.5328    140.6793    227.3514   1.2819542993e+02   1.0094785278e+01     0.126313   0.08253116  67.85 0.0007047901    1.746    0.427
       211  -9.4449    109.7110    226.6593   1.3384629741e+02   1.5216631353e+01    0.1036803   0.09340172  12.53 0.0004476873    1.644    0.392
       212 -10.1399    184.5005     11.5709   6.8072384962e+01   3.7732279359e+01    0.1420127    0.1281225  81.49 0.0001149201    1.010    0.010
       213 -10.1075     32.4162    225.3009   1.4748807009e+02   2.5850808057e+01     0.212192    0.1011441  46.79  0.001352326    1.708    0.414
       214 -10.1575     25.7103    224.9793   1.4859303522e+02   2.6639862361e+01    0.1509342     0.102364  77.66  0.000667951    1.100    0.091
       215 -11.1851      2.3448    220.2257   1.5219731062e+02   2.9819134242e+01    0.2764067   0.09038614  89.31  0.001484337    2.705    0.630
       216  -9.7086      9.3071     10.3555   1.2041155573e+02   7.2511492322e+01    0.1459335    0.0891564 -14.17 0.0004193438    1.629    0.386
       217 -10.7876      7.4989    217.5271   1.5124433528e+02   2.9821396161e+01    0.2432249    0.1569281 -85.31  0.001602467    1.354    0.262
       218 -10.6125      4.1052    212.5185   1.5158543291e+02   3.1051094588e+01    0.2339524    0.1497893  63.11  0.001491845    1.171    0.146
       219  -9.7788    209.3055    212.0230   1.1330343568e+02   4.7377554047e-01    0.1701801    0.1480159   7.05  0.001082611    1.150    0.130
       220 -10.0974     16.3243    212.3207   1.4951301518e+02   2.9916950709e+01   0.09025793   0.07451789 -66.56  0.000704631    1.678    0.404
       221  -9.4564    249.4861    211.5109   1.0629602911e+02  -6.1094531318e+00    0.1208738   0.09412233  15.49 9.721253e-05    1.012    0.012
       222  -9.6794    246.7497    206.8728   1.0593549018e+02  -5.1383294188e+00    0.1880578    0.1284465  -2.52  0.001151501    1.450    0.310
       223  -9.4599    197.1895    204.1417   1.1419514634e+02   3.7183392233e+00     0.168522    0.1443195  54.38 0.0005922898    1.294    0.227
       224 -10.7940      9.5539    203.3794   1.5022692216e+02   3.2249075008e+01    0.1929277    0.1336814  74.51 0.0007597506    1.011    0.011
       225  -9.2066    181.5428    199.4919   1.1636904646e+02   7.2864939788e+00    0.1323086    0.1139977  41.62  5.78396e-05    1.043    0.042
       226  -9.4359     23.2437    197.4098   1.4743142682e+02   3.2061483906e+01    0.1470682   0.07776256  53.33 0.0004716085    1.559    0.359
       227 -10.3020     15.4556    185.4517   1.4814189422e+02   3.5196324126e+01    0.2504648   0.08708806 -81.76  0.001253379    2.477    0.596
       228  -8.9305    250.3321    183.3111   1.0098354068e+02  -2.8167967815e+00    0.1329612   0.08494911  11.56 0.0007043353    1.674    0.403
       229  -9.1570     21.6691    179.6575   1.4654845428e+02   3.5779507848e+01    0.1041927   0.07728495 -55.83  0.000705109    1.750    0.429
       230 -10.5586      4.6235    167.4046   1.4913679938e+02   3.9829243578e+01    0.2434862    0.1349887  66.28  0.001257067    1.509    0.337
       231  -8.7213     41.6649    158.3030   1.4044714398e+02   3.8259572688e+01    0.1293426   0.07522041  69.64 0.0007037301    1.663    0.399
       232  -9.0256    247.4462    155.5378   9.5845684680e+01   1.4781350957e+00    0.1333562    0.1163926   0.87 0.0001124774    1.005    0.005
       233 -10.2126     22.0647    143.3768   1.4345783617e+02   4.3506661290e+01    0.2325227    0.1401811 -84.88 0.0007217013    1.356    0.262
       234 -10.9071     12.6787    130.5720   1.4447169871e+02   4.7119018568e+01    0.3584325    0.1650771  59.53  0.001521671    2.318    0.569
