#   1 NUMBER                 Running object number                                     
#   2 MAG_AUTO               Kron-like elliptical aperture magnitude                    [mag]
#   3 X_IMAGE                Object position along x                                    [pixel]
#   4 Y_IMAGE                Object position along y                                    [pixel]
#   5 X_WORLD                Barycenter position along world x axis                     [deg]
#   6 Y_WORLD                Barycenter position along world y axis                     [deg]
#   7 A_WORLD                Profile RMS along major axis (world units)                 [deg]
#   8 B_WORLD                Profile RMS along minor axis (world units)                 [deg]
#   9 THETA_WORLD            Position angle (CCW/world-x)                               [deg]
#  10 FWHM_WORLD             FWHM assuming a gaussian core                              [deg]
#  11 ELONGATION             A_IMAGE/B_IMAGE                                           
#  12 ELLIPTICITY            1 - B_IMAGE/A_IMAGE                                       
         1 -11.2027    221.1887     15.5917   1.8396715669e+01   2.8328028025e+01    0.2312721    0.1752684 -49.14 0.0002444646    1.073    0.068
         2 -11.9923    240.6046      3.2153   1.4559670433e+01   2.5692724023e+01     1.150149    0.5075791  88.33  0.006241217    2.485    0.598
         3 -11.8016    228.1817     16.9522   1.8289492147e+01   2.6782708792e+01    0.5361472    0.3850822  56.29  0.002366689    1.714    0.417
         4 -11.1626    234.1051     12.1342   1.6851039365e+01   2.6096102029e+01    0.2867106     0.185331 -24.23 0.0008553991    1.512    0.339
         5 -12.7749    239.5599     18.7038   1.8024745741e+01   2.4410252566e+01    0.7453004    0.4917822 -28.81  0.004807631    1.362    0.266
         6 -11.7319    246.9095     14.0114   1.6610730126e+01   2.3511058400e+01    0.4679642    0.4201194  -9.82  0.002654759    1.389    0.280
         7 -10.6465     34.6402     26.1024   6.7350180316e+01   7.1047487164e+01    0.5901198    0.4909704 -82.52  0.002383618    1.650    0.394
         8 -10.9955     31.0064     11.6188   6.1465253380e+01   7.4372993920e+01    0.4489087     0.258103 -37.37  0.001086663    1.747    0.428
         9 -12.1260    111.3027     18.8085   3.2264860195e+01   5.4928281284e+01    0.6876361    0.4090014  -8.69  0.002939896    2.259    0.557
        10 -12.2117     55.3071     19.5701   5.1400809263e+01   6.8534515690e+01    0.4325119     0.292509  23.99  0.000327466    1.693    0.409
        11 -11.7010     56.0848     12.5793   4.6824125256e+01   6.9430783274e+01     1.790408     0.511779  51.03  0.006032239    3.196    0.687
        12 -10.2624     63.0396     10.0097   4.2120689726e+01   6.8211162827e+01     0.236232    0.2269488 -87.16 0.0007642934    1.182    0.154
        13 -10.3059     39.5276      9.0546   5.3755436103e+01   7.3321760980e+01    0.2460905    0.2286299  11.71 0.0002891417    1.061    0.058
        14 -10.7728     47.9756      4.1936   4.5363781128e+01   7.2317359148e+01     1.418051    0.7431741   8.30   0.00475861    4.348    0.770
        15 -11.4711     43.5105     12.4309   5.3539381691e+01   7.2035556554e+01    0.3985285    0.2829862 -10.59 7.612759e-05    1.644    0.392
        16 -11.1341     45.9711      9.2712   4.9988807321e+01   7.2033874749e+01    0.2529797    0.2085699  21.83 0.0002951071    1.162    0.140
        17 -10.4711      7.2585     21.3990   8.6885715758e+01   7.4970658749e+01     0.420023    0.2583703 -33.57  0.001908726    1.516    0.341
        18 -10.7367      9.1323     14.6199   8.2305806944e+01   7.6368600388e+01      0.40038    0.3006352  86.94   0.00225772    1.818    0.450
        19  -9.9048      8.9548      9.0182   7.9615440037e+01   7.7585532673e+01    0.2637561    0.1676605 -44.10  0.001468452    1.405    0.288
        20  -9.2626     74.7700     16.9935   4.1570313445e+01   6.4517258082e+01    0.3124883    0.1327805 -26.28  0.001080336    2.709    0.631
        21 -11.1626     77.1204      8.2346   3.5963838897e+01   6.5015559175e+01    0.7382296    0.4566369  -7.19  0.003400672    2.034    0.508
        22 -11.3968    151.4260     18.8717   2.5618910760e+01   4.4309945597e+01    0.4200963    0.3022202 -89.03  0.002184918    1.369    0.270
        23 -11.2064    100.9534     16.0621   3.3384225898e+01   5.7985647251e+01    0.5872557    0.4205175  35.74  0.001991424    1.525    0.344
        24 -10.7550    103.3753      8.0763   2.9178555500e+01   5.8203753202e+01    0.3590162     0.235939  75.82  0.001135492    1.460    0.315
        25 -10.0448     81.4177     18.2659   3.9944763378e+01   6.2721494712e+01    0.4584174    0.2298949 -31.71  0.001938383    2.097    0.523
        26 -11.1111     84.0162     13.6263   3.6733018870e+01   6.2654695042e+01    0.4624771    0.3452683 -85.87  0.001752525    1.623    0.384
        27  -9.7993    136.5699     16.7245   2.6927850215e+01   4.8435246296e+01     0.390703    0.3146933  31.12  0.002090002    1.463    0.317
        28 -12.5470    128.5749      4.3838   2.3410467969e+01   5.1786375784e+01    0.8149793     0.384254  65.13  0.003536103    1.873    0.466
        29 -11.2577    123.1930     11.2068   2.6900318828e+01   5.2580046477e+01    0.5374745    0.2799207  63.32  0.001694136    1.721    0.419
        30 -12.4671    187.0013     13.7235   2.0359412620e+01   3.6035874461e+01    0.4077006    0.2746924 -20.87 0.0004041264    1.597    0.374
        31 -11.9943    182.4840     11.4821   2.0099206070e+01   3.7327922623e+01    0.3765404    0.2505176 -33.04  0.001194974    1.422    0.297
        32  -9.3346    155.2010     14.8451   2.3815553349e+01   4.3763786225e+01    0.2892256    0.1935505   5.69  0.001225308    2.099    0.524
        33  -9.3400    150.3417      6.2789   2.1493560451e+01   4.5859486271e+01    0.2499376    0.1199966  69.97 0.0004535141    1.902    0.474
        34 -10.0185    153.7023      3.2968   2.0151389932e+01   4.5259300365e+01    0.4292696    0.2409053  52.59  0.001403422    1.897    0.473
        35 -10.0881    157.5230     11.0010   2.2297200098e+01   4.3556089770e+01     0.294453    0.1991357 -52.25 0.0008862675    1.398    0.285
        36 -10.0969    149.6394     11.9490   2.3499432361e+01   4.5496836019e+01     0.241549    0.2027366  63.75 0.0004880702    1.199    0.166
        37 -10.7881    153.4101      9.5017   2.2246585552e+01   4.4759852807e+01    0.2789015    0.2229746  85.12 0.0002176848    1.159    0.137
        38  -9.0175    143.7436     12.4340   2.4393837376e+01   4.6989894948e+01    0.4748376    0.2550144 -40.93  0.002181325    1.793    0.442
        39 -10.9588     24.0286     13.4516   6.8179207626e+01   7.5052992580e+01    0.3908937    0.2763573   6.94  0.001070832    1.497    0.332
        40  -9.9913    131.3256     13.6435   2.6569804312e+01   5.0155401656e+01    0.2890598     0.218669 -85.54  0.000737553    1.303    0.232
        41  -9.7172    176.2718     12.3081   2.0872556566e+01   3.8742378715e+01    0.1931588    0.1850624  81.68 0.0003046358    1.158    0.136
        42 -11.0687    217.6151      4.2775   1.5885826207e+01   3.0154554121e+01    0.5836638    0.3768855  13.03  0.002970876    2.526    0.604
        43 -11.2253    208.6042     10.4596   1.7929586834e+01   3.1483548392e+01    0.3335354    0.2477894  60.37  0.002075434    1.556    0.357
        44 -10.9789    211.5346      5.0635   1.6406744776e+01   3.1365613944e+01    0.4646974    0.2781144 -86.02  0.002671442    1.663    0.399
        45 -11.0079    199.6422      3.3437   1.6659777540e+01   3.4128782358e+01     0.643522    0.2598695 -87.66  0.002807842    2.726    0.633
        46 -10.5300     91.5391     10.5222   3.3066745667e+01   6.1074311128e+01     0.530464    0.2314766  70.64  0.002014616    2.396    0.583
        47 -11.3269     89.3253      3.0404   2.9818297266e+01   6.2407093491e+01    0.5271181    0.3248689  81.29  0.001499286    1.715    0.417
        48  -9.1912    135.6227      9.3353   2.4339934237e+01   4.9443678334e+01    0.3986371    0.1879272  49.93  0.001006945    2.218    0.549
        49  -9.6081     17.9872      8.9448   7.0645578492e+01   7.6689314358e+01    0.2705523    0.1823708 -56.59  0.001259046    1.668    0.401
        50 -10.0723    116.0486      8.1855   2.6852111270e+01   5.4797122796e+01    0.2485764    0.1931332 -73.85 0.0005371916    1.319    0.242
        51  -9.9182     92.7154      7.3625   3.1202738589e+01   6.1098053631e+01    0.2454831    0.1925365 -56.90  0.001296518    1.406    0.289
        52 -10.6750    168.0359      5.8354   1.9651295073e+01   4.1392737715e+01    0.4656168    0.3273739   0.83  0.001211763    1.876    0.467
        53 -10.0899     23.8955      7.4918   6.4354129533e+01   7.6185373138e+01     0.433594    0.2098704  19.86 0.0008667923    2.722    0.633
        54 -10.3978    204.0420      3.9441   1.6553860187e+01   3.3095821073e+01    0.3144277    0.2737108  58.95   0.00167544    1.376    0.273
        55 -10.2840     28.7043      1.5142   5.5844042847e+01   7.6425809840e+01    0.5280004    0.2362116  53.03  0.001646151    3.263    0.694
        56 -10.8467     35.3599      3.8568   5.2763847710e+01   7.4887326665e+01      0.36291    0.2868938 -17.11  0.001036438    1.274    0.215
        57 -10.8722     40.4666      2.5410   4.8436610961e+01   7.4088824360e+01    0.4153729    0.2396261  61.17  0.001662803    2.242    0.554
        58  -9.2291    178.7160      5.7098   1.8739999158e+01   3.8784514635e+01    0.1899802    0.1241459 -53.14 0.0004409458    1.365    0.268
        59 -10.0555    175.9340      3.0808   1.8185024212e+01   3.9698923388e+01    0.2354473    0.1815895 -30.57 0.0005386403    1.315    0.239
        60 -11.7564      4.3968      3.6091   8.1539956045e+01   7.9066087230e+01    0.5130555    0.3005503  -0.60  0.001947086    1.757    0.431
        61 -10.5913    105.8889      2.4888   2.6137011131e+01   5.8052808797e+01    0.5403423     0.285423  87.54  0.002274192    2.103    0.525
        62  -9.3470     18.2202      3.6033   6.6701931201e+01   7.7663966220e+01    0.2732213    0.1951885   3.80  0.001228632    1.437    0.304
        63  -9.6423     15.3271      1.6606   6.8118292167e+01   7.8383513798e+01    0.1962634    0.1575035  40.71  0.001193707    1.464    0.317
        64 -10.2406    125.7819     14.0644   2.7608716901e+01   5.1591636962e+01    0.3302024    0.1849464 -35.74 0.0008854338    1.792    0.442
        65  -9.6574    115.9287      1.0000   2.3834858593e+01   5.5479002306e+01    0.4832418   0.07347364  72.65  0.001155907    5.930    0.831
        66  -8.4759     69.7132      2.3045   3.4916436094e+01   6.7489877911e+01     0.134447    0.1051088 -66.93 0.0002458992    1.564    0.361
        67  -8.6793     64.3555      2.6882   3.7042708615e+01   6.8757533978e+01    0.1397415    0.1056784 -72.02 0.0007044093    1.734    0.423
        68  -8.8718     38.8400    110.8420   8.9023682344e+01   4.9510695570e+01    0.2301702    0.1960549  22.26 0.0004171963    1.224    0.183
        69  -9.3926     35.6023    111.2099   9.0345906205e+01   4.9748911637e+01    0.2256287    0.1709424  79.97 0.0003639355    1.349    0.258
        70 -10.8490     21.4469    110.0103   9.5784141157e+01   5.1328933978e+01    0.3753582    0.2624211 -83.68  0.001954084    1.365    0.268
        71 -10.5359     21.1910    104.7441   9.5303113449e+01   5.2745328309e+01     0.299504    0.2206163  79.77 0.0006847299    1.339    0.253
        72 -11.5551    121.0639    107.8553   6.0054749490e+01   3.6683577495e+01    0.4861132     0.243354  40.68 0.0008426874    1.966    0.491
        73  -8.4909    111.2771    107.6859   6.2815741312e+01   3.8710873313e+01    0.1507131    0.1218434  83.54 0.0002271008    1.565    0.361
        74  -9.3838     71.8542    107.0216   7.5712030779e+01   4.6085744995e+01    0.2242725    0.1954006 -26.44 0.0004045986    1.284    0.221
        75  -9.1540     34.9974    107.2184   9.0013794739e+01   5.0866398202e+01    0.1973711     0.183479  53.05            0    1.059    0.055
        76  -9.8171    131.1398    104.7465   5.6548571518e+01   3.5230808816e+01     0.382276    0.2766524 -12.41  0.001699605    1.865    0.464
        77 -11.7212     81.1737    103.2178   7.1479631774e+01   4.5466091554e+01    0.3374534    0.2880041  81.63 0.0002487304    1.311    0.237
        78  -9.4497    114.2116    104.1621   6.1052711322e+01   3.8891182674e+01    0.2228678    0.2070196  -5.42 0.0004630216    1.149    0.129
        79 -10.3646    106.9067    103.2683   6.2997912164e+01   4.0576243149e+01    0.3644078    0.2417645  33.35  0.001603905    1.561    0.360
        80  -8.7918     95.3133    104.7047   6.7029397187e+01   4.2520472697e+01    0.1559505    0.1201358  72.30 0.0002172145    1.599    0.374
        81  -8.8618     91.4959    104.5633   6.8255525307e+01   4.3273030774e+01    0.1532816    0.1474521  45.73 0.0001005244    1.009    0.009
        82  -9.9236     28.5699    109.5805   9.2905900100e+01   5.0849082459e+01    0.2433539     0.228754  67.80 0.0005862062    1.026    0.026
        83  -9.4910      3.8338    101.7661   1.0216077903e+02   5.4605302520e+01    0.1970121    0.1652375 -58.82 0.0005974263    1.196    0.164
        84  -9.7945    127.1492    101.9618   5.6868080088e+01   3.6649560154e+01    0.2166425    0.2122512  25.21 0.0003363712    1.003    0.003
        85  -8.8144    143.4860    100.4836   5.2367645888e+01   3.3436244138e+01    0.1479959    0.1438715   4.93 2.507915e-05    1.018    0.018
        86 -10.0570     67.2595    100.1519   7.5885831244e+01   4.8547574583e+01    0.3721011     0.203008  37.11  0.001435501    1.766    0.434
        87  -8.9790     63.5067     98.4731   7.6955333443e+01   4.9554815530e+01    0.1508923    0.1440234  65.24 9.736322e-05    1.038    0.036
        88  -9.9626    116.9022     97.1665   5.8409415108e+01   3.9840270261e+01    0.4465271    0.2423509 -56.62   0.00147967    2.232    0.552
        89 -10.5975    101.4579     97.8736   6.3271967895e+01   4.2892474251e+01    0.3651487    0.2353671  53.12  0.001564454    1.661    0.398
        90  -9.3584     86.7986     97.3852   6.8036733616e+01   4.5857867507e+01    0.2950406    0.2121282 -55.04  0.001158759    1.431    0.301
        91 -10.8080    107.8942     96.0486   6.0768035313e+01   4.1981337911e+01    0.3933566    0.2386693  47.44 0.0003597657    1.636    0.389
        92  -9.9715     26.8702     96.6825   9.1869027193e+01   5.4429346061e+01    0.2993777    0.1919149 -79.97 0.0009258316    1.532    0.347
        93 -12.5476     34.9027     89.4451   8.7132877761e+01   5.5592590409e+01     0.530361    0.3473591  83.42 0.0006484211    1.766    0.434
        94 -10.0852     33.7509     83.9466   8.6615886090e+01   5.7164014837e+01    0.3798115    0.3148902 -85.33  0.001097879    1.221    0.181
        95 -10.7898    101.4620     88.9823   6.0792223979e+01   4.4889214163e+01    0.8610993     0.364778 -46.08  0.003056146    2.415    0.586
        96 -12.1376    105.2099     81.0798   5.7244181417e+01   4.5806928176e+01    0.6361511    0.4981754 -21.12  0.001206026    1.536    0.349
        97  -8.8724    137.4973     92.4234   5.1629280674e+01   3.6305780442e+01    0.1483186    0.1461323  51.71 4.891141e-05    1.022    0.021
        98  -9.4123    112.9625     91.8275   5.8066286551e+01   4.1825377009e+01    0.2404103    0.2057466   9.59 0.0007206757    1.352    0.260
        99 -10.3626    126.9802     89.3648   5.3442556594e+01   3.9255610214e+01    0.3967439    0.2241436 -44.52 0.0008530808    1.796    0.443
       100  -9.4260     94.6998     91.0270   6.3600208398e+01   4.5814303933e+01    0.2243532    0.2042244 -52.03 0.0006987614    1.125    0.111
       101  -9.5228     64.7042     89.0412   7.4202883500e+01   5.1753739008e+01    0.2205848    0.1999135  78.63 0.0002741585    1.165    0.142
       102 -10.0012     54.7523     88.8349   7.8288323479e+01   5.3311589674e+01    0.3374451    0.2482142  25.10 0.0008464135    1.409    0.290
       103 -11.7832     12.9013     88.0587   9.6974190725e+01   5.7752423791e+01    0.2401149     0.230432  74.50            0    1.057    0.054
       104  -9.2103    139.2450     87.9645   4.9955173809e+01   3.6768473653e+01    0.2197072    0.1874429 -42.18 0.0007240879    1.173    0.148
       105  -9.9047    119.8346     87.4027   5.4817181379e+01   4.1248116351e+01    0.3825713    0.2688541  74.31   0.00127022    1.961    0.490
       106  -9.5937    156.7195     86.7044   4.5708534918e+01   3.3056244605e+01    0.2412081    0.2157906   3.14 0.0006146317    1.223    0.182
       107 -10.5085     84.1500     86.6692   6.6055790895e+01   4.8898615588e+01    0.2681197    0.2571103 -40.75  0.000318174    1.070    0.066
       108 -10.3791     79.9707     80.9906   6.5948725932e+01   5.1030496219e+01    0.2882466    0.2396686 -29.82 0.0003084814    1.325    0.245
       109  -9.4218     76.8519     86.6157   6.8763622615e+01   5.0273740032e+01    0.2209836    0.2130834  -5.50  0.000162135    1.084    0.078
       110 -10.0849     74.9371     83.2879   6.8560466591e+01   5.1420889632e+01    0.3666714    0.2759033  45.69  0.000762296    1.325    0.245
       111 -10.0404     58.6839     85.2624   7.5736082730e+01   5.3643994143e+01    0.3413187    0.2366836  25.69  0.001239623    1.509    0.337
       112  -8.7464     94.8975     84.1859   6.1548774580e+01   4.7325450254e+01    0.2081541    0.1808275 -15.08 0.0002985479    1.318    0.241
       113 -10.0247    187.8754     82.9155   3.9035014103e+01   2.6882085986e+01    0.2214656    0.1799335 -43.88            0    1.169    0.144
       114  -9.8811    120.9114     82.3825   5.3029228093e+01   4.2025447642e+01    0.2649359    0.2218748 -29.50 0.0003415538    1.275    0.216
       115 -11.1355     53.8881     81.0420   7.6730875246e+01   5.5424036983e+01    0.3571312    0.2553531 -61.20 0.0003420825    1.394    0.283
       116  -9.6314     55.5309     76.0853   7.4659334896e+01   5.6426446938e+01    0.3024029    0.2462417 -60.75  0.000834043    1.232    0.188
       117 -10.2565     62.1607     71.0599   7.0210759421e+01   5.6596513726e+01    0.5147699    0.2540183  43.44  0.002020646    2.064    0.516
       118  -8.8511     57.0168     72.2093   7.2867565199e+01   5.7155206679e+01    0.2091209    0.1752351 -20.08 0.0004951468    1.330    0.248
       119  -8.4915     12.6004     83.6979   9.6594592408e+01   5.8928975972e+01    0.1518732   0.08870497 -38.70 0.0006999096    1.828    0.453
       120  -9.2213      1.6319     83.1321   1.0172151124e+02   5.9605213653e+01    0.1892813    0.1541756 -75.02 0.0006684991    1.110    0.099
       121  -9.9451     86.9630     80.1553   6.3105222926e+01   4.9854701035e+01    0.2430933    0.2164517 -48.79  0.001242051    1.145    0.127
       122  -9.4163     22.8803     79.6724   9.1039216838e+01   5.9286220589e+01    0.2564135    0.1664391 -58.63 0.0007312546    1.428    0.300
       123  -9.3435    150.7352     78.9990   4.4795377740e+01   3.5769935056e+01    0.2544331    0.1808929 -32.98 0.0002909981    1.423    0.297
       124 -10.4533    151.9062     73.4935   4.2949807640e+01   3.6445792178e+01    0.3297063    0.2335373 -37.35 0.0009898546    1.388    0.280
       125  -9.1779    187.2195     76.1910   3.7407732570e+01   2.8037827710e+01    0.1831525    0.1484895 -59.16 0.0003595443    1.300    0.231
       126  -9.0855    123.8862     76.2808   5.0355662817e+01   4.2542158199e+01    0.3327571    0.1366661  55.90  0.001106473    2.728    0.633
       127  -9.4406     61.0957     76.0660   7.2184909954e+01   5.5557305583e+01    0.2172785    0.2075597  58.51  0.001182738    1.068    0.063
       128 -11.5298     45.8964     73.2256   7.8361001500e+01   5.8517923769e+01     0.498207    0.3929407  70.59  0.002509198    1.477    0.323
       129 -11.9494     51.3249     70.1221   7.4896575244e+01   5.8535359393e+01    0.3370363    0.2874144 -73.93 0.0004133557    1.246    0.198
       130 -11.9146      7.9218     74.0425   9.7712857009e+01   6.1733792234e+01    0.3511063    0.2664745  -7.18 0.0007322826    1.457    0.314
       131 -11.0950    137.0054     71.4348   4.5584973804e+01   4.0339915130e+01    0.5221895    0.4252113  41.84  0.002636088    1.269    0.212
       132  -9.3236    142.8510     71.1281   4.4167542537e+01   3.8997985376e+01    0.2865404    0.2143563  77.41 0.0004660222    1.577    0.366
       133  -9.4157     83.6149     73.2182   6.2147412497e+01   5.2098331738e+01    0.2191925    0.1954855 -44.48 0.0003778742    1.145    0.126
       134  -9.4707     81.5905     70.4031   6.1986351151e+01   5.3137172437e+01     0.231972    0.2178214  61.75 9.051558e-05    1.089    0.082
       135  -9.5155     23.8764     72.9026   8.9310013482e+01   6.0989664165e+01    0.2012804    0.1723331 -44.90            0    1.143    0.125
       136  -8.9833    182.9083     72.1736   3.7020162790e+01   2.9575377417e+01    0.1767415    0.1549939  24.93            0    1.292    0.226
       137  -8.9238     88.9812     73.0000   6.0110293059e+01   5.1041493281e+01    0.2641574   0.08681633  43.14 0.0008074029    2.977    0.664
       138 -11.0852     30.6119     71.1019   8.5458566367e+01   6.0844141267e+01    0.2380597    0.2320462  18.62 0.0002405183    1.067    0.063
       139 -10.6955     17.3313     70.6802   9.2319099742e+01   6.2071314434e+01    0.2805739    0.2519084 -74.36 0.0006619604    1.056    0.053
       140 -11.0615    111.9998     82.8921   5.5729650500e+01   4.3925849205e+01    0.3048451    0.2586731  33.86   0.00151874    1.212    0.175
       141 -10.2131     34.9541     67.8581   8.2432592777e+01   6.1223157405e+01    0.3530648    0.2499855  59.13  0.001052322    1.649    0.394
       142 -10.5216     80.6429     61.8465   5.9380639662e+01   5.5201664833e+01    0.6462629    0.3673702 -41.28  0.002309121    1.838    0.456
       143 -10.4101     74.0777     67.4430   6.3958978300e+01   5.5286054501e+01    0.2822473    0.2551218 -27.23 0.0002368502    1.163    0.140
       144  -9.5081     77.3998     66.1786   6.2187254719e+01   5.4918221930e+01    0.2009827    0.1473366 -60.47 0.0003040085    1.517    0.341
       145  -9.6159     42.2434     67.9670   7.8726778305e+01   6.0323394775e+01    0.2543194    0.2081539  25.99 0.0008075506    1.246    0.198
       146 -10.8042    180.9394     63.9474   3.5103052370e+01   3.1228643273e+01    0.3459679    0.2420101 -29.10 0.0006157599    1.402    0.287
       147  -9.9132    177.2681     63.9851   3.5675775066e+01   3.2055520214e+01    0.2034166    0.1943465 -53.19 0.0002889035    1.022    0.021
       148  -9.1199    157.5353     67.4942   4.0073710426e+01   3.6110205343e+01    0.1436876     0.140351 -50.93 -8.817373e-06    1.021    0.021
       149 -11.6058    111.0726     65.8757   5.0534699171e+01   4.7561388119e+01     0.279903    0.2615818 -45.99 0.0002732246    1.094    0.086
       150  -9.6057     85.1307     67.1380   5.9544808996e+01   5.3126046526e+01    0.2240193    0.2151095  70.32 0.0004188086    1.070    0.065
       151  -9.0464     10.0943     66.9277   9.5598615699e+01   6.3493902485e+01    0.3186748    0.1246868  44.32  0.001232688    2.849    0.649
       152 -10.2881    194.8176     65.7363   3.3594409623e+01   2.7921599581e+01    0.2370347    0.1836408 -39.75 0.0002833393    1.164    0.141
       153  -9.9219     89.4315     65.5135   5.7412024252e+01   5.2555755046e+01    0.3232418    0.2357468  69.60 0.0008480605    1.723    0.420
       154  -9.9099     59.3776     65.6828   6.9749248760e+01   5.8346942418e+01    0.6616987    0.4295574 -24.79  0.001331915    2.077    0.519
       155 -10.3850     61.5422     57.4442   6.5892336729e+01   5.9880040665e+01    0.4275578    0.2386735 -47.67  0.001816297    1.794    0.442
       156 -10.6182     57.8057     57.6364   6.7723725457e+01   6.0489820599e+01    0.3956886    0.2890737  63.24  0.001381857    1.733    0.423
       157  -9.7405    161.2068     64.5636   3.8532998471e+01   3.5705832345e+01     0.268316    0.1919346 -35.75 0.0002722103    1.358    0.264
       158  -9.9609    153.0998     64.8410   4.0134341457e+01   3.7596745779e+01    0.2647645    0.2213812   6.59  0.001360126    1.454    0.312
       159  -9.5124     26.1876     65.3515   8.6494594640e+01   6.2754157047e+01    0.2855367    0.1567762  28.22  0.001297154    1.837    0.456
       160 -10.4621     43.8977     61.6400   7.6025869099e+01   6.1677888753e+01    0.5373707    0.2394926 -60.38  0.002085109    2.262    0.558
       161  -9.9666      1.9621     63.8659   9.9668505283e+01   6.4642833110e+01    0.2200333    0.1762138 -79.91 0.0004277657    1.148    0.129
       162  -9.6753     34.8907     61.7804   8.0850038334e+01   6.2771725317e+01    0.4080289    0.1976149 -37.76  0.001394573    2.412    0.585
       163  -9.3516    190.7118     61.7283   3.3104312391e+01   2.9370671988e+01    0.3613654    0.1659965  54.20  0.001581202    2.293    0.564
       164  -9.6582    147.0408     61.7303   4.0382540764e+01   3.9567838470e+01    0.2167555    0.2110194 -30.14 0.0003148058    1.067    0.063
       165 -12.3309    150.7068     57.4679   3.8332206959e+01   3.9348738154e+01     0.352368    0.2746539 -54.42 0.0005921736    1.305    0.234
       166  -8.4895    200.3233     61.2532   3.1723468734e+01   2.7364254172e+01    0.1240224   0.09977117  24.34 0.0002602738    1.542    0.352
       167  -9.5634    108.7334     57.3511   4.8229358372e+01   4.9723744623e+01    0.6008056    0.2007533 -42.41  0.001921891    3.042    0.671
       168  -8.8595    105.5241     57.4380   4.9211309543e+01   5.0478584526e+01    0.2425964    0.2297339  63.91  0.001290997    1.037    0.035
       169 -10.1158     22.0273     60.9639   8.7808950722e+01   6.4244602931e+01    0.2003325    0.1863598 -48.32  0.001187155    1.016    0.016
       170  -9.9076    218.6526     59.3839   2.9141737730e+01   2.3863730946e+01    0.2200329    0.1645107 -42.46  0.000693094    1.151    0.131
       171  -9.6317    197.2820     57.7103   3.1192020967e+01   2.8489833307e+01    0.2048517    0.1612676 -56.02 0.0001604041    1.231    0.188
       172 -10.5319    200.4527     55.2567   3.0170137999e+01   2.8133222612e+01     0.297833    0.2726603 -80.40  0.001895123    1.136    0.120
       173 -10.1269    185.1247     57.7003   3.2792136781e+01   3.1173290951e+01    0.2715271    0.1801172 -30.59 0.0002853703    1.443    0.307
       174 -10.4469    160.9866     56.8117   3.6270047432e+01   3.6945994431e+01    0.3960443    0.2698369 -46.60  0.001068738    1.433    0.302
       175  -9.1659    161.7693     52.3969   3.4807089611e+01   3.7407000102e+01    0.2411643    0.1715444  52.36 0.0005812125    1.456    0.313
       176 -10.1540     94.4814     56.5846   5.2416106505e+01   5.3234877952e+01    0.4394599    0.2937911 -54.87  0.001936265    1.697    0.411
       177  -8.5278     73.5095     58.4955   6.1017418310e+01   5.7377596123e+01    0.1532901    0.1438542   4.19 -0.0001674678    1.105    0.095
       178  -9.3118     52.9893     58.1045   7.0238326806e+01   6.1178591858e+01    0.2099636    0.2005267 -34.42 0.0003226615    1.034    0.033
       179  -9.7768      8.0190     56.9328   9.5199988707e+01   6.6194380933e+01    0.2361107    0.1744557 -56.11 -0.001877172    1.218    0.179
       180  -9.5411     35.0592     50.9402   7.7444804143e+01   6.5422784290e+01    0.2135028    0.1936817 -29.26 0.0004384005    1.066    0.062
       181 -10.8927     19.9307     55.3889   8.7730965132e+01   6.5837975551e+01    0.2953735    0.2192945 -43.17 0.0004516609    1.280    0.219
       182 -12.3951      2.0450     51.2666   9.7964505639e+01   6.7888552025e+01    0.3148516    0.2174399 -45.46 0.0004954019    1.334    0.250
       183  -9.2103     27.0104     56.4438   8.3812336976e+01   6.4947663244e+01    0.2628483    0.1635044  20.02 0.0007566912    1.673    0.402
       184 -11.7539     30.4966     53.3086   8.0873290462e+01   6.5370862441e+01    0.4975863    0.3375985 -84.20  0.002380765    1.819    0.450
       185  -9.9992     26.5681     47.9975   8.1620884564e+01   6.7085885227e+01    0.2893569    0.2232552  11.22 0.0006281415    1.349    0.259
       186 -10.7315     10.8409     52.4282   9.2646700253e+01   6.7203834516e+01    0.3181842    0.2602142  59.10  0.001011234    1.357    0.263
       187 -10.9688     17.9023     49.8366   8.7606692467e+01   6.7396537471e+01    0.6271884    0.4027411  -1.76  0.002655668    1.734    0.423
       188  -8.8490    213.3175     56.6592   2.9057059404e+01   2.5273261262e+01    0.1376232   0.08375454 -56.19 0.0007048962    1.711    0.415
       189  -9.4889    223.7750     55.3977   2.7670337376e+01   2.3359692943e+01     0.162512    0.1124404  51.97 0.0009557884    1.703    0.413
       190  -9.9247    178.9355     52.9121   3.2333368013e+01   3.3251932320e+01    0.3128162    0.2789107  83.62  0.001840713    1.151    0.131
       191  -9.7658    174.2303     53.0341   3.3047844287e+01   3.4334281205e+01    0.3646986    0.1942309 -35.89  0.001647671    1.738    0.425
       192  -8.8940    172.3152     50.2168   3.2515918576e+01   3.5179266501e+01    0.1932153    0.1664299 -55.93            0    1.102    0.092
       193 -10.7184    128.1016     52.7758   4.1549010550e+01   4.5729177722e+01    0.4833623    0.2887788 -44.12  0.001400259    1.702    0.412
       194 -10.9060     85.1355     48.3459   5.2484730025e+01   5.6951711594e+01    0.8356575    0.4966128 -11.69  0.002821207    3.472    0.712
       195  -9.8142     97.0892     41.4931   4.5612101717e+01   5.5349870106e+01    0.2936263    0.2421837  44.27 0.0005932086    1.186    0.157
       196 -12.3186     90.8916     43.8268   4.8592935021e+01   5.6443280890e+01    0.3967412     0.325559  47.50 0.0003691689    1.169    0.145
       197 -10.1635     89.1564     38.1446   4.6762720574e+01   5.7836478873e+01    0.2658487    0.2540681 -60.66 0.0002708434    1.107    0.096
       198  -9.0939     68.7840     53.7241   6.1218258357e+01   5.9337993800e+01    0.1956567    0.1763435 -87.65  0.001023567    1.280    0.219
       199  -9.4095    205.9794     52.8877   2.8927996348e+01   2.7266790405e+01     0.191331    0.1672864 -46.57 0.0003356787    1.009    0.009
       200  -9.0921     44.5327     53.3675   7.2955380442e+01   6.3579947157e+01    0.1979319    0.1303536 -43.58 0.0007672775    1.507    0.336
       201  -9.7666    117.6402     51.4373   4.3640057701e+01   4.8575135376e+01    0.2564224     0.235308  53.20 4.381615e-05    1.067    0.063
       202  -9.9117    112.1680     50.5117   4.4753710133e+01   5.0095844270e+01     0.483824    0.2969276  85.10  0.001782968    2.711    0.631
       203 -11.8456    122.5291     50.0090   4.1899551249e+01   4.7584760861e+01    0.4091025    0.2819722 -47.39  0.001591396    1.503    0.335
       204 -11.6398    233.2460     48.2957   2.5150376934e+01   2.2401616879e+01    0.2374273    0.1973749 -43.11 0.0002618173    1.018    0.017
       205 -10.0546    212.0809     49.7398   2.7486407836e+01   2.6391935825e+01    0.2783777    0.1817824 -82.77  0.001396464    1.861    0.463
       206 -10.1225    201.3407     49.8366   2.8669901413e+01   2.8641953537e+01    0.2363764    0.2047153 -79.44 0.0008889301    1.189    0.159
       207 -11.9796    138.1993     47.5585   3.7565078843e+01   4.3996958999e+01     0.333903    0.2787274 -65.79 0.0003934424    1.243    0.195
       208  -9.9707    134.3194     43.5931   3.6989663288e+01   4.5579944103e+01    0.2712071    0.2167659  46.59 0.0005796812    1.295    0.228
       209  -8.6701    186.7180     49.6961   3.0391915435e+01   3.1898087475e+01    0.1287671    0.1047161  19.25 0.0001714762    1.554    0.357
       210  -9.5275     63.3110     48.2377   6.1493540480e+01   6.1561421907e+01    0.2511483    0.2234971  -5.43 0.0008701249    1.195    0.163
       211  -9.0859     45.2202     48.6638   7.0857843166e+01   6.4572327673e+01     0.197145    0.1785533 -55.82   0.00068727    1.138    0.121
       212  -9.4258    193.9148     48.2023   2.9100664795e+01   3.0475017386e+01    0.2188203    0.1629524 -59.06  0.001064999    1.316    0.240
       213  -8.9677    103.8033     48.5850   4.6405854396e+01   5.2492022708e+01    0.2071477    0.1448771  65.29 0.0005076721    1.521    0.342
       214  -9.3640     50.9674     48.4455   6.7685284815e+01   6.3716609664e+01    0.2957976    0.1410483  34.68 0.0008142099    2.093    0.522
       215  -8.9710     67.2978     45.4256   5.8497554727e+01   6.1357062742e+01     0.258205    0.1344475 -44.96 0.0006925261    1.971    0.493
       216  -9.0459     38.8307     45.1741   7.3165654584e+01   6.6293890299e+01    0.2784339    0.1892806 -68.85  0.000627871    1.736    0.424
       217 -11.2534     33.9151     38.7063   7.3624229935e+01   6.8429020744e+01    0.5203483    0.4733574  72.73  0.003026493    1.311    0.237
       218  -8.5633     40.7462     38.7588   6.9417815966e+01   6.7462716174e+01    0.1793859    0.1590654  58.03 0.0009984673    1.309    0.236
       219 -12.2884    163.4023     42.5717   3.1554654650e+01   3.8379883916e+01    0.3415043    0.2731153 -79.73  0.000360633    1.290    0.225
       220 -10.2137    108.5047     43.7659   4.3187994920e+01   5.2139181733e+01    0.5285388    0.2972545  72.04  0.001885174    2.301    0.565
       221 -10.3525     71.3994     43.6518   5.5944448298e+01   6.0862051217e+01    0.3762518    0.3211043 -63.35  0.001446556    1.340    0.254
       222  -9.2004     78.6500     44.2919   5.3254637324e+01   5.9171424917e+01    0.2259651    0.1767315 -85.53 0.0006772958    1.743    0.426
       223  -9.3970     18.3150     42.2794   8.5244026291e+01   6.9235061826e+01    0.2531487    0.1562075  82.45 0.0008456025    2.278    0.561
       224  -9.6105    145.1303     41.1840   3.4097320142e+01   4.3158443302e+01    0.2485791    0.2372291 -70.12 0.0008430974    1.026    0.025
       225 -12.3463    140.1515     37.8472   3.3862002067e+01   4.4898635812e+01    0.3257209    0.3177789 -88.88 0.0003567218    1.053    0.050
       226 -11.4264    239.7571     40.2438   2.2810501152e+01   2.2105151773e+01    0.4025842     0.280159   6.09   0.00214149    2.105    0.525
       227 -11.0435    250.2621     38.2093   2.1616639872e+01   2.0441887092e+01    0.4598351    0.1942286 -33.84   0.00121057    1.781    0.438
       228 -11.5872    246.0952     31.7891   2.0505769509e+01   2.1864134127e+01    0.3262137    0.2966966 -53.01  0.001364594    1.167    0.143
       229 -10.8907    230.5747     39.3162   2.3310026036e+01   2.3935127560e+01    0.2739142    0.1795933 -44.24 0.0006008729    1.252    0.201
       230 -10.2287    226.1568     37.3679   2.3210290334e+01   2.5013335675e+01    0.2769854    0.1658135  82.50  0.001429814    1.938    0.484
       231  -8.8173    218.2037     41.4034   2.4853000402e+01   2.6140532921e+01    0.1634936     0.112181 -83.26 0.0007645998    1.640    0.390
       232  -8.8080    209.7728     40.9722   2.5531624940e+01   2.7934427344e+01    0.1726237   0.09472566 -30.25 0.0008723765    1.638    0.390
       233  -9.3217     59.5639     31.5213   5.5703341853e+01   6.5599471692e+01    0.2165747    0.2032023  12.20 0.0001250563    1.028    0.027
       234 -11.0639     62.7870     37.0430   5.6826391417e+01   6.3914404486e+01    0.5645977    0.3889567 -53.56  0.001770866    1.658    0.397
       235  -9.8876     58.3788     38.1838   5.9487893164e+01   6.4561230806e+01    0.3582448    0.2708788  87.14  0.001048994    2.062    0.515
       236 -10.0092     54.6704     37.2884   6.0955769159e+01   6.5438606277e+01    0.3154217    0.2415452 -48.47 0.0005583006    1.367    0.268
       237 -10.7647     54.0738     33.3527   5.9391090915e+01   6.6325716173e+01     0.286188    0.2403464 -33.04 0.0003218958    1.205    0.170
       238  -9.6192     27.9447     41.1263   7.8420881208e+01   6.8588903882e+01    0.2098338    0.1866328 -30.17 0.0005016414    1.059    0.056
       239  -9.7744    113.4969     39.9510   4.0382953957e+01   5.1477830058e+01    0.3676796    0.2481458  27.61  0.001016859    1.938    0.484
       240  -9.9434    115.3650     35.7260   3.8269843893e+01   5.1629751106e+01    0.7496153    0.3743356  66.94  0.002930504    2.115    0.527
       241 -10.7314     84.8675     39.0076   4.8631736787e+01   5.8707656425e+01    0.4467827    0.3024204 -26.04 0.0003440991    1.690    0.408
       242 -10.1675     83.3106     35.6960   4.7714939782e+01   5.9638489133e+01    0.2928731    0.2562931  10.64 0.0008932698    1.259    0.206
       243 -10.2236     75.4739     40.0824   5.2682662185e+01   6.0657409212e+01    0.2627686    0.2060189  54.74 0.0003062862    1.289    0.224
       244  -9.4126    201.4284     37.6489   2.5498939401e+01   3.0120504062e+01    0.3879927    0.1371819 -52.66  0.001436142    3.218    0.689
       245  -9.0728    158.0397     39.2075   3.1318604015e+01   4.0160616222e+01    0.2197528     0.172852  29.39 0.0005634282    1.563    0.360
       246  -8.9490    160.7160     37.2838   3.0312680132e+01   3.9743349569e+01    0.1990166    0.1742267  76.37 0.0002046132    1.126    0.112
       247  -9.2966     10.0567     38.9251   9.0081129077e+01   7.0631228528e+01    0.1902584     0.171683 -36.44            0    1.035    0.033
       248  -9.8235    194.8873     37.4663   2.6121253803e+01   3.1592454788e+01    0.2485185    0.1505658 -46.12 0.0005282636    1.475    0.322
       249 -10.2349    127.3020     37.3066   3.6190792535e+01   4.8303941832e+01    0.5375797    0.3218997  54.06  0.002401226    1.603    0.376
       250  -9.9260    126.8562     34.1270   3.5104499759e+01   4.8864905300e+01    0.2105569    0.1697051  29.76            0    1.443    0.307
       251 -10.7010    124.0588     30.7595   3.4408716154e+01   5.0053885530e+01    0.3135791    0.2539945 -78.05  0.000421188    1.304    0.233
       252  -9.2230     79.4536     33.4607   4.8105802304e+01   6.0916124445e+01    0.2501023    0.1783962 -79.39 4.814853e-05    2.137    0.532
       253  -9.3277      2.2776     37.9500   9.5500716133e+01   7.1231688027e+01     0.179056    0.1490172 -56.62 0.0002620665    1.062    0.059
       254  -8.7878     44.6172     36.8355   6.6278073373e+01   6.7275648447e+01    0.1819666    0.1352961 -62.63 0.0001858636    1.584    0.369
       255 -10.2751    154.7738     34.8334   3.0416330120e+01   4.1554334864e+01    0.3366762    0.2971695  37.05    0.0012014    1.287    0.223
       256 -10.0092     74.0245     35.4118   5.1138905525e+01   6.1819666343e+01    0.2756817    0.2255851 -32.71 0.0006334908    1.277    0.217
       257  -9.0257    170.5845     33.7924   2.7894179068e+01   3.7744879242e+01    0.2629403     0.167474 -51.19 0.0005022701    1.511    0.338
       258  -9.8732    170.6530     30.1684   2.6795491888e+01   3.8166405309e+01    0.3312772    0.2150753  61.58  0.001683032    1.555    0.357
       259  -9.5178    149.1305     33.6348   3.0898318635e+01   4.3147643189e+01    0.2186406    0.1794537 -51.02 0.0003560208    1.186    0.157
       260  -9.0225    107.1825    246.6508   8.5510026058e+01   1.2122724620e+01    0.1544106    0.1178954  36.25 0.0007724056    1.158    0.136
       261 -10.9747     69.0117    217.3790   9.1440186772e+01   2.1436391778e+01    0.3038719    0.2040109  60.26 0.0003841544    1.547    0.354
       262 -10.2444    222.9802     21.9332   1.9792935721e+01   2.7317564545e+01     0.337225    0.1823689 -59.45  0.001376625    1.752    0.429
       263 -10.2564     73.7061    213.9129   9.0039930713e+01   2.1537898275e+01     0.335591    0.2459943 -60.47  0.001451708    1.661    0.398
       264 -10.4313     74.2043    221.2076   9.0538560896e+01   2.0139978978e+01    0.3051612    0.2143175  10.71  0.001797554    1.559    0.359
       265 -10.6634     78.6352    218.7073   8.9295949951e+01   2.0075082797e+01    0.3449077    0.2764805 -13.67  0.002234363    1.570    0.363
       266  -9.7308     55.9834    216.8387   9.4474691899e+01   2.2984548139e+01    0.1757527    0.1509078  68.70 0.0007254539    1.237    0.192
       267  -9.2234     12.1804     33.5154   8.6960395718e+01   7.1810793820e+01    0.1897575    0.1280205  12.43  0.001013225    1.534    0.348
       268 -12.0453    132.2964     29.6334   3.2380273099e+01   4.8037443072e+01    0.3835782    0.3140457 -49.76 0.0001466015    1.227    0.185
       269  -9.2429    223.4964     31.0030   2.1913860645e+01   2.6247311847e+01    0.1768314     0.152423 -75.28  0.000529433    1.177    0.150
       270 -10.0054    216.8410     30.0381   2.2200311484e+01   2.7708103271e+01    0.3489922    0.1548601 -47.68 0.0009375152    1.945    0.486
       271  -9.4532     76.2846     30.4119   4.7864323338e+01   6.2155249829e+01    0.2848092    0.1325409  48.38 0.0009028665    2.014    0.503
       272  -9.1176     24.6955     30.6846   7.6546970919e+01   7.1350838687e+01    0.2555446    0.1700625 -14.15 0.0004953606    1.717    0.418
       273 -10.4074     29.1555     26.9733   7.1621139687e+01   7.1626462251e+01    0.5327604    0.2473655 -35.49  0.002159399    2.498    0.600
       274  -8.6212     91.5204    214.5306   8.5891724609e+01   1.9267591985e+01    0.1278773   0.09981121  36.89 -6.798399e-05    1.066    0.062
       275  -8.7858    201.4479     29.5816   2.3392180354e+01   3.1048022326e+01    0.1304302      0.10871 -55.80 0.0001274854    1.049    0.047
       276  -8.5157    147.2490     29.2988   2.9734579528e+01   4.4179092764e+01    0.1346404    0.1088817  28.91   0.00014835    1.491    0.329
       277 -10.2778     47.2280     28.8708   6.0901492680e+01   6.8444981126e+01    0.3093038    0.1878515  37.26  0.001122443    1.606    0.377
       278  -9.2536      2.2196     29.3709   9.3625668019e+01   7.3331399533e+01    0.1851754    0.1448453 -53.00  0.001110151    1.117    0.105
       279 -10.5919     82.2899     27.2270   4.4115363694e+01   6.1235965740e+01    0.3876427    0.3593588 -86.30  0.001730416    1.180    0.153
       280  -9.6745     17.4825     27.1408   8.0535485549e+01   7.2881106675e+01    0.2595506    0.1284086 -63.52  0.001168655    2.061    0.515
       281 -10.0640     72.1062     26.4369   4.7542012076e+01   6.3758033658e+01    0.4155709    0.2369108  46.95   0.00184617    1.647    0.393
       282 -10.5070    179.6842     22.3078   2.3469090000e+01   3.6872118492e+01    0.6960771    0.2532298 -60.68  0.002298995    3.956    0.747
       283  -9.6750    178.0951     19.1568   2.2710649820e+01   3.7594788222e+01    0.2225849    0.1740613 -42.79    0.0012851    1.183    0.155
       284  -9.3808    123.9452    206.0145   7.7412374214e+01   1.6526848419e+01    0.1753053    0.1440201  23.30            0    1.011    0.011
       285 -10.0043     23.0127     23.7659   7.4663239304e+01   7.3062438965e+01    0.2843828    0.2622523 -81.66  0.001230303    1.319    0.242
       286  -9.8110     27.4773     18.8775   6.8625884142e+01   7.3521589954e+01    0.4177637    0.2107207 -25.94  0.001655094    2.864    0.651
       287 -10.5214    249.0402     23.0075   1.8430903246e+01   2.2239341691e+01    0.2540917    0.1637013 -53.99  0.001244144    1.311    0.237
       288  -8.6293    137.5103     24.4629   2.9592701954e+01   4.7307349629e+01    0.1435251    0.1343348  75.42 -1.402454e-05    1.054    0.051
       289 -10.5685     99.6517     23.6639   3.7160780705e+01   5.7381149621e+01    0.2848634    0.2548158  82.06 0.0005172943    1.124    0.110
       290 -10.7200     67.1733     21.9561   4.7234154188e+01   6.5580933226e+01    0.4626227    0.2957276  28.88  0.001545782    1.824    0.452
       291  -9.7640    211.9521     22.2938   2.0665371032e+01   2.9566987769e+01    0.2171663     0.170854 -24.80 0.0005720148    1.306    0.234
       292  -8.3708    133.0323    198.9953   7.4406438523e+01   1.6469852517e+01    0.1407103    0.1181832  20.13 0.0008887219    1.020    0.020
       293  -8.7918    223.0236    188.0367   5.5145395030e+01   5.7958855999e+00    0.1308779   0.09911444  -2.27 0.0009235255    1.005    0.005
       294  -8.8472      1.0000    185.0363   1.0653885385e+02   3.4503037085e+01    0.1870439    0.0623104 -86.33 0.0008081851    2.982    0.665
       295  -9.7863    100.9928    176.0140   7.8906279003e+01   2.5448994702e+01    0.1925665    0.1686319  31.59  0.001141609    1.003    0.003
       296  -8.6331     28.5968    167.5064   9.8233208048e+01   3.6241712818e+01    0.1303339    0.1116347  57.18 0.0001093418    1.019    0.019
       297 -11.1772      4.6447    162.9942   1.0490143992e+02   3.9206631465e+01    0.3127528     0.164374  29.22 0.0003302592    1.701    0.412
       298 -11.3474      6.1803    159.3383   1.0432230758e+02   3.9960905724e+01    0.5058106    0.2641769 -48.85   0.00246863    2.391    0.582
       299 -10.2584     15.0391    154.0482   1.0143170083e+02   4.0587807110e+01    0.2336946    0.1202194  54.73  0.001140099    1.739    0.425
       300  -9.3036     16.0801     22.6865   7.9771042531e+01   7.4010496474e+01    0.2985424    0.1604409 -30.88  0.001391348    1.981    0.495
       301 -10.9260      8.1206    136.8499   1.0269874858e+02   4.5317535620e+01    0.3777209    0.1916595  51.56  0.001827484    1.779    0.438
       302 -10.8404     11.3176    144.9888   1.0209645471e+02   4.3075820855e+01    0.3555219      0.22321  49.60 0.0003242978    1.411    0.291
       303 -10.5604      3.9317    152.1503   1.0471310714e+02   4.1823372146e+01    0.2584003    0.1940345  85.29  0.000499354    1.233    0.189
       304  -9.1996    164.9767     22.3485   2.5077879058e+01   4.0475153017e+01    0.1950662    0.1636484  86.67 0.0007679063    1.138    0.121
       305  -9.9216      1.4314     21.1981   9.2070490427e+01   7.5305291512e+01    0.2606832     0.109134 -67.51 0.0003190339    2.125    0.529
       306 -10.0777    188.4558     20.5761   2.2142060379e+01   3.4984978070e+01    0.2142411    0.2116127  81.01 8.790653e-05    1.184    0.156
       307 -11.3190    192.9883     18.0869   2.1065725771e+01   3.4199322194e+01    0.3215131    0.2847727  74.11   0.00206692    1.219    0.180
       308  -9.4746     75.5657     20.8660   4.3333398846e+01   6.3788821005e+01    0.2816549    0.1838772  40.97 0.0008329932    1.506    0.336
       309 -10.5803      5.9600    147.9862   1.0392348734e+02   4.2701257383e+01    0.4171304    0.2161894  17.72  0.001510315    1.995    0.499
       310 -11.4435     12.8748    134.7808   1.0098987141e+02   4.5521736821e+01    0.4181647     0.264295 -57.44 0.0003133994    1.667    0.400
       311 -10.4151     17.6918    133.9207   9.9296199593e+01   4.5391076036e+01    0.2838231     0.193531  57.55 0.0002794191    1.358    0.264
       312  -9.5430     89.3812     19.8822   3.8267074418e+01   6.0511236327e+01    0.2516987     0.194966  77.56 0.0006155603    1.375    0.273
       313  -8.9720    118.4065     19.5146   3.1110031052e+01   5.2956552808e+01    0.1434223    0.1348932  69.69 -0.0001535798    1.040    0.038
       314 -10.8929     12.0798    128.8875   1.0088165817e+02   4.7077154552e+01    0.5015228    0.1796881  23.27 0.0002635804    2.608    0.617
       315  -9.3226     29.5185    150.5261   9.6705210626e+01   4.0232682088e+01    0.2318953    0.1268256 -85.76 0.0005362385    1.871    0.465
       316 -10.0805     29.6300    146.4376   9.6332066517e+01   4.1234169759e+01     0.328994    0.1891926  39.41 0.0008017103    1.548    0.354
       317 -10.8749      3.0806    142.7331   1.0460542498e+02   4.4167843942e+01     0.328196    0.2411494  70.22 0.0009771254    1.198    0.166
       318  -8.5389     15.2637     18.2914   7.8420101653e+01   7.5051116335e+01    0.1329733   0.08712743 -28.86            0    1.500    0.334
       319 -10.6701     17.5884    141.2332   9.9845274969e+01   4.3550737276e+01    0.3754198    0.1924188  33.84  0.001481371    1.751    0.429
       320  -9.1278     44.5041    141.4758   9.0987996111e+01   4.0973853287e+01    0.1407668    0.1277352  57.77 4.481335e-05    1.006    0.006
       321  -9.8912     71.9324    138.0744   8.1546551152e+01   3.8325874155e+01    0.2160243    0.1952793  52.42 0.0003040154    1.046    0.044
       322 -10.5907     29.4578    137.8340   9.5629428992e+01   4.3413199628e+01    0.3131581    0.2073124  50.63  0.001620245    1.402    0.286
       323 -11.0655     28.1193    131.8282   9.5522802191e+01   4.5068807083e+01    0.6287143    0.3284099  39.90  0.002921459    1.745    0.427
       324  -9.1325    184.7129    134.0546   5.1630763128e+01   1.9294531706e+01      0.18511     0.155632 -21.24 0.0002747622    1.100    0.091
       325  -9.9206      4.6223    131.6801   1.0360634608e+02   4.6833447550e+01    0.2534425    0.1740418  49.52 0.0008281537    1.324    0.245
       326  -8.9184     39.4743    128.5498   9.1175298604e+01   4.4811971644e+01    0.1384202    0.1327697  70.08 -8.507851e-06    1.046    0.044
       327 -11.5237     98.9817    126.0482   7.0778176914e+01   3.6850103590e+01    0.2731082    0.2557274  40.77 0.0003087263    1.018    0.018
       328  -9.5350     69.0491    126.4604   8.0539235636e+01   4.1623157079e+01    0.2264188    0.1920155 -67.95 0.0005953307    1.215    0.177
       329  -9.9432     48.9600    126.9771   8.7607624576e+01   4.4155965729e+01    0.2141331    0.1956043  63.22            0    1.035    0.034
       330 -10.7704     31.1362    125.8582   9.3843224136e+01   4.6337196443e+01    0.5948552    0.1471791  34.13   0.00191354    3.136    0.681
       331 -11.1148     23.7880    125.0919   9.6417343965e+01   4.7182599847e+01    0.3695473    0.2329217  78.70  0.001115448    1.598    0.374
       332  -9.7770    229.8716    124.9062   4.2322985791e+01   1.3125678442e+01    0.2314218    0.1795346  50.03  0.001504286    1.619    0.382
       333  -9.2773     16.1980     13.9584   7.5318439290e+01   7.5879025400e+01    0.1749436    0.1726479  59.13  0.000443932    1.247    0.198
       334  -9.7563     59.0259    125.0406   8.3761824252e+01   4.3383379977e+01    0.2101224    0.2010746  54.83 -0.001877172    1.021    0.021
       335 -10.5945     15.8788    122.5976   9.9070064952e+01   4.8437825062e+01    0.4538174    0.1340031  39.57  0.001045185    2.871    0.652
       336  -8.9192     79.5029    121.4348   7.6059190301e+01   4.1266145576e+01    0.1489326    0.1433222  33.16 6.261017e-05    1.043    0.041
       337 -11.2902     40.7060    118.3712   8.9395303763e+01   4.7330131105e+01    0.5368373    0.4364106 -83.32  0.002137448    1.214    0.176
       338 -11.2792     46.8150    116.5130   8.6830458610e+01   4.7125495047e+01    0.2899502    0.2435489 -57.61  0.001562199    1.214    0.176
       339  -8.7515    192.2771     11.3582   1.9293088583e+01   3.5043826912e+01    0.1213497   0.09674923  28.53  0.000700906    1.658    0.397
       340  -8.8200     84.5068    119.4988   7.3995827051e+01   4.0915534131e+01    0.1510352    0.1444617  47.98 0.0001793198    1.003    0.003
       341 -10.7040     21.2373    118.5834   9.6736443047e+01   4.9086518783e+01    0.3569734    0.2159717  33.70  0.001183754    1.584    0.369
       342 -11.6954     15.5118    115.7314   9.8639349401e+01   5.0255461334e+01    0.5756106     0.328485 -21.09  0.001880817    2.334    0.572
       343 -10.2899     10.3430    112.6622   1.0036834199e+02   5.1394526408e+01    0.4473908    0.1948046 -83.01  0.001753231    2.164    0.538
       344 -10.5396      2.1855    113.0630   1.0350880761e+02   5.1734268856e+01    0.3734847     0.247313 -87.04  0.002018413    1.373    0.272
       345 -10.6054      5.7492    109.3085   1.0190910535e+02   5.2532202612e+01    0.3450244     0.253063  -1.39 0.0005728535    1.579    0.367
       346 -10.1119     98.6702    117.4530   6.8994007468e+01   3.8908801655e+01    0.2462852    0.2317905  39.99  0.000234682    1.020    0.020
       347 -10.6276     72.2756    117.4371   7.7736975624e+01   4.3402473006e+01    0.3374415    0.2520397  34.85 0.0009633336    1.292    0.226
       348 -10.1355     31.6746     32.8242   7.2587952748e+01   7.0032935493e+01     0.226198    0.2209568 -27.88 0.0002791852    1.104    0.094
       349  -9.9004     57.1781    117.1940   8.3099868935e+01   4.5643912931e+01    0.3209552    0.2412086  53.54 0.0008618806    1.336    0.251
       350  -9.5883     61.6953    115.3118   8.1109122513e+01   4.5507676559e+01    0.2424304    0.1750035  83.34 0.0003045723    1.621    0.383
       351 -10.7289     62.4180    111.5855   8.0133695134e+01   4.6360255006e+01    0.4892672    0.2695827 -56.71  0.001496338    1.799    0.444
       352 -10.2420     30.7040    117.9167   9.3099344091e+01   4.8453783154e+01    0.2484804    0.1905909  37.86 0.0003546628    1.265    0.210
       353  -8.6057     86.6169    116.3035   7.2613809107e+01   4.1331476876e+01     0.164287    0.1132778  64.41 0.0007021433    1.785    0.440
       354 -11.0519      8.9260    103.4546   1.0020379984e+02   5.3898464530e+01    0.5779347    0.3432921 -84.13  0.001336138    1.562    0.360
       355  -9.1793     98.7133    113.4711   6.8062634204e+01   3.9829639103e+01    0.1935725    0.1470633  25.69 0.0002993241    1.394    0.283
       356  -9.9323     84.1966    113.0598   7.2709808025e+01   4.2536664902e+01    0.2389884    0.2079905  34.67 0.0002791968    1.122    0.108
       357  -9.6606     71.6516    112.8897   7.7036736657e+01   4.4642073723e+01    0.2045303    0.1882471 -73.89 0.0003315637    1.108    0.098
       358  -9.3608     50.3078    111.9817   8.4767022857e+01   4.7885267768e+01    0.2181437    0.1883845  67.42 0.0004292251    1.158    0.136
       359 -11.6826    236.3281     30.2566   2.0814456904e+01   2.3828768095e+01    0.4546242    0.3150801 -22.09   0.00287685    1.448    0.310
       360  -9.6258     40.1858     98.8902   8.6541297370e+01   5.2525658601e+01    0.2854358    0.2129056  35.94 0.0009677652    1.330    0.248
       361  -9.6990     46.5520    109.4253   8.5782087482e+01   4.9013405173e+01    0.2800084    0.2188815  46.84 3.714313e-05    1.255    0.203
       362 -11.6061     45.6798    102.5829   8.4932982951e+01   5.0916552592e+01    0.4618546    0.3079492 -74.99 0.0005993154    1.536    0.349
