#   1 NUMBER                 Running object number                                     
#   2 MAG_AUTO               Kron-like elliptical aperture magnitude                    [mag]
#   3 X_IMAGE                Object position along x                                    [pixel]
#   4 Y_IMAGE                Object position along y                                    [pixel]
#   5 X_WORLD                Barycenter position along world x axis                     [deg]
#   6 Y_WORLD                Barycenter position along world y axis                     [deg]
#   7 A_WORLD                Profile RMS along major axis (world units)                 [deg]
#   8 B_WORLD                Profile RMS along minor axis (world units)                 [deg]
#   9 THETA_WORLD            Position angle (CCW/world-x)                               [deg]
#  10 FWHM_WORLD             FWHM assuming a gaussian core                              [deg]
#  11 ELONGATION             A_IMAGE/B_IMAGE                                           
#  12 ELLIPTICITY            1 - B_IMAGE/A_IMAGE                                       
         1 -14.0266     20.4300     58.8065   9.2210179037e+01   6.3512196894e+01    0.6072063    0.3358614 -35.59  0.001119322    1.546    0.353
         2 -10.7487     59.9430     19.3946   5.8604754303e+01   6.4578646556e+01    0.5976841    0.3037475  10.01   0.00244952    3.321    0.699
         3 -11.2648      2.0026     20.7075   8.8871915680e+01   7.1930963043e+01    0.2948169    0.2133062 -34.37  0.001238654    1.246    0.197
         4 -11.4425     14.1643     16.0603   7.9363304993e+01   7.1614547914e+01    0.3188684    0.2601351 -59.23  0.001056339    2.272    0.560
         5 -11.9363    213.6522     17.5947   2.9212573085e+01   3.0731339213e+01    0.2823603    0.2092673 -29.75 0.0009073982    1.687    0.407
         6 -11.5981    125.2828     17.2004   4.0134545953e+01   5.0796451850e+01    0.2413074    0.2020373  77.70 0.0002308927    1.142    0.125
         7 -11.5458    234.9496     14.9331   2.7065671118e+01   2.6769221092e+01     0.244625    0.1786037  80.21 0.0007068572    1.321    0.243
         8 -11.4152     83.3607     15.3288   4.9109434998e+01   6.0378543190e+01    0.4252787    0.2288062  21.87  0.001516961    2.371    0.578
         9 -10.7107     85.5762     10.4600   4.6577974793e+01   6.0353501115e+01    0.2473086     0.179148  35.98 0.0004420888    1.212    0.175
        10 -11.1363     34.9677     12.4696   6.6246675614e+01   6.9494092390e+01    0.2666601    0.2193798  37.60  0.001061094    1.514    0.340
        11 -11.6393     29.7968      7.6956   6.6453489241e+01   7.0792287009e+01    0.3842447    0.2536726   9.63  0.002464778    1.291    0.226
        12  -9.8813    105.7111     13.9336   4.2979915102e+01   5.5607945312e+01    0.1622984     0.149202  47.93 0.0001880204    1.102    0.093
        13 -11.2536    175.5120     12.6132   3.1746508483e+01   3.9557641076e+01    0.2288034    0.1702272  73.76  0.001455261    1.167    0.143
        14 -12.0311    125.5945     10.5405   3.7998910861e+01   5.1332010115e+01    0.4754559    0.2478793 -58.78  0.001261185    2.723    0.633
        15 -11.9200    117.9200      9.8503   3.9144855545e+01   5.3171247564e+01    0.4762686    0.2827442 -66.19  0.002352745    2.414    0.586
        16 -11.2297    191.8624     10.5316   2.9627436539e+01   3.6125124513e+01    0.3268806    0.1598481 -73.24 0.0006573614    2.230    0.552
        17  -9.5903     64.5617     10.7316   5.3102304529e+01   6.4609745690e+01    0.1472884    0.1148635 -29.08 0.0007172247    1.542    0.351
        18 -11.3043     45.2369      9.8609   6.0209609245e+01   6.8174287951e+01    0.2111568    0.1572365  21.97 0.0002583203    1.051    0.049
        19 -10.3455     22.9410      9.1213   7.0863284411e+01   7.1544284638e+01    0.3165501    0.1449806  19.23  0.001585209    2.273    0.560
        20 -10.8177     56.2171      8.2987   5.5017142660e+01   6.6407749854e+01    0.2513468    0.1904786  -9.37 0.0007565681    1.373    0.272
        21 -10.4299     53.7672      3.0982   5.3500676894e+01   6.7326710587e+01    0.1960507    0.1823535  15.53  0.001434157    1.305    0.234
        22 -12.2709     18.8153      2.5658   6.9743130398e+01   7.2844216006e+01    0.4423468     0.179232  31.32  0.001820219    2.127    0.530
        23  -9.3932      8.9685      9.4957   7.9351964881e+01   7.3058049835e+01    0.1301916   0.08875112  38.91 0.0008020753    2.216    0.549
        24 -10.4163    165.2119      7.4246   3.1612982697e+01   4.2400663345e+01    0.1770757    0.1004459  84.79 0.0004161686    1.624    0.384
        25 -11.2055    199.1082      4.9812   2.7794627735e+01   3.5111874327e+01    0.2111998    0.1599646 -35.78 0.0006932658    1.539    0.350
        26 -10.5063      2.7410      6.1438   8.1695885324e+01   7.4091508306e+01    0.2330452    0.1298568  18.61 0.0008010656    1.599    0.374
        27 -10.8769    104.7553      3.8478   3.9663306893e+01   5.6663378430e+01    0.2658446    0.2018886   8.30 0.0008035254    1.574    0.365
        28 -10.1742    241.3810      2.8360   2.4461682625e+01   2.6850161109e+01    0.1841457    0.1209726 -89.78 0.0004007867    1.287    0.223
        29 -11.0220    236.2838      1.7694   2.4571344273e+01   2.7920996644e+01    0.2592664    0.1220442 -88.50  0.001518525    1.933    0.483
        30 -10.3145     38.6005      5.2404   6.0892842042e+01   6.9729544546e+01    0.2323331    0.2081486  41.71  0.001665844    1.543    0.352
        31 -10.5295     15.6529      8.4565   7.4723177221e+01   7.2499953582e+01    0.2863201    0.1541453   4.40  0.001603631    1.897    0.473
        32 -10.3531     98.2867      7.1188   4.2199131554e+01   5.7857723846e+01    0.2006105    0.1377902  49.11 0.0003125735    1.192    0.161
        33 -10.2767    150.5399      2.4632   3.2049289432e+01   4.6211024495e+01    0.1231244    0.1002355  75.45 4.239086e-05    1.030    0.029
        34 -10.1124     80.9654      1.6800   4.4308933119e+01   6.2041918774e+01     0.175302    0.1444074  71.90 0.0007362915    1.358    0.264
        35 -10.4902    117.5133      1.4994   3.6520876377e+01   5.3931184157e+01    0.2218317    0.1009113  65.53  0.001091189    1.769    0.435
        36 -10.3018    112.8676      1.0000   3.7164652705e+01   5.5032479622e+01    0.3873348   0.08384973  64.94  0.001358096    3.522    0.716
        37 -10.1570     29.8830      1.3267   6.3067853483e+01   7.1463513688e+01    0.2088331   0.09052628  41.18 0.0009852945    2.076    0.518
        38 -11.2485      4.1983    201.5211   1.1862587226e+02   2.9697803808e+01    0.2319811    0.1508267 -83.58 0.0006898869    1.320    0.243
        39  -9.8607    109.9797    250.7940   9.8922041358e+01   6.1200770139e+00    0.1809068    0.0915359  32.27 0.0004973576    1.699    0.411
        40 -11.0087     27.9925    250.4977   1.1659574392e+02   1.6566193757e+01    0.2977426    0.1019666  31.03  0.001349736    2.677    0.626
        41 -12.0036     18.0951    248.8390   1.1847803046e+02   1.7933422565e+01    0.3198108    0.2754503 -40.27  0.002259524    1.648    0.393
        42 -11.8876      3.1448    247.8752   1.2133907546e+02   1.9574698918e+01    0.7938138    0.3975396  59.08  0.004689691    1.622    0.384
        43 -13.1347     11.4910    243.5065   1.1949952842e+02   1.9685713906e+01     0.686364    0.4635075  51.78  0.004525674    1.226    0.184
        44  -9.2939     14.3236    192.6852   1.1561005794e+02   3.0973925763e+01    0.1387942   0.08109696  63.30 0.0007041903    1.663    0.399
        45  -9.6452      6.2529    191.9706   1.1750712739e+02   3.1819180177e+01     0.169001   0.09401233 -80.70 0.0008815252    1.553    0.356
        46  -9.5809      1.0000    190.9191   1.1868548805e+02   3.2480042720e+01    0.2040585   0.06104679 -77.90 0.0007901047    2.858    0.650
        47  -9.3062      7.3473    188.2454   1.1697500131e+02   3.2639722253e+01    0.1185795   0.09034099 -42.49 0.0002645796    1.576    0.365
        48 -10.3419      4.9843    153.5020   1.1470105615e+02   4.1540585652e+01    0.2631191   0.07148288  36.36 0.0009849366    3.532    0.717
        49  -9.6114      6.3584    145.1650   1.1347563845e+02   4.3589953214e+01    0.1902741    0.1085858 -86.53 0.0006362302    1.659    0.397
        50  -9.1576     52.9820    141.9786   9.8417636228e+01   4.0203944058e+01    0.1765411    0.1575227 -60.05            0    1.038    0.037
        51  -9.2742      1.7003    139.6509   1.1430159088e+02   4.5279637238e+01    0.1414702    0.0785196 -48.64 0.0004128055    1.688    0.408
        52  -9.7575    236.1097    138.4839   5.1711526182e+01   7.9293625522e+00    0.1730475    0.1336773  42.63  0.001016159    1.545    0.353
        53  -9.9638     96.1487    133.5668   8.2826593586e+01   3.5959789583e+01    0.2702014    0.2087232 -32.92 0.0007437723    1.352    0.260
        54  -9.4460    212.7741    133.6252   5.4532337406e+01   1.2873804943e+01    0.1799768    0.1351946  61.22 0.0007233564    1.650    0.394
        55 -10.0282     61.6352    130.8291   9.3444563216e+01   4.2036471267e+01    0.2299504    0.2030377  -3.06 0.0004095839    1.209    0.173
        56 -10.5746     12.4500    130.1656   1.0983445332e+02   4.7062991090e+01    0.2534898    0.1471213 -84.58 0.0008575927    1.740    0.425
        57  -9.5777     44.8174    129.8279   9.8943991762e+01   4.4338132196e+01    0.1872861    0.1629709  81.59 0.0002464452    1.273    0.214
        58 -11.8460     28.4296    128.0489   1.0420925652e+02   4.6402922448e+01    0.2422632    0.2276905 -29.91 0.0008679563    1.125    0.111
        59 -10.7980     23.9976    121.7736   1.0472286078e+02   4.8393341811e+01    0.2712231    0.1276449  40.36   0.00112634    2.452    0.592
        60 -10.1413     20.5215    120.6295   1.0574981380e+02   4.8954149022e+01    0.1924192    0.1562191  63.08 0.0001703024    1.429    0.300
        61 -11.1841     10.3811    121.4338   1.0935666210e+02   4.9432370286e+01    0.3176238    0.2571645  10.81 0.0009192641    1.440    0.305
        62 -10.0556     69.1615    116.8661   8.7788456418e+01   4.4552587299e+01     0.214882    0.2066304 -86.10 0.0002599136    1.156    0.135
        63 -10.5640      1.5537    114.0142   1.1138789261e+02   5.1787204724e+01    0.2463857    0.1302499 -64.36 0.0007257037    1.498    0.332
        64 -11.3912      3.4361    109.4588   1.1010816114e+02   5.2833846888e+01    0.5047415    0.2520044 -20.83  0.002058417    2.385    0.581
        65 -11.8089      1.5410    104.7713   1.1012455465e+02   5.4085666755e+01     0.296869    0.1351342 -65.91 0.0002638522    1.745    0.427
        66 -10.5541     25.0040    111.5119   1.0261157031e+02   5.0932543803e+01    0.1863152    0.1375111  11.48 0.0004191435    1.515    0.340
        67 -12.1842     13.4397    109.0874   1.0643549563e+02   5.2367499848e+01    0.5363206    0.1895156 -63.77  0.002184724    2.233    0.552
        68 -10.7310    247.0041    101.6753   4.2770025859e+01   1.2396997010e+01    0.1673187    0.1513383 -57.64 0.0006279284    1.123    0.109
        69  -9.4406    186.9913    102.4764   5.2065128595e+01   2.3909233383e+01     0.205332    0.1433137  51.99  0.000497421    1.515    0.340
        70  -9.1076     94.5026    102.4831   7.5431633131e+01   4.3745427315e+01    0.1548593    0.1474016  -8.00 -0.0001370881    1.001    0.001
        71 -12.0635     20.3755     93.1016   1.0083447408e+02   5.5832104283e+01     1.021131    0.4292981  -5.31  0.003176567    3.648    0.726
        72 -11.6154     10.5332     93.6357   1.0487910303e+02   5.6344467570e+01    0.2552733    0.1928251 -45.41  0.000249444    1.102    0.092
        73 -10.7191      7.1609     90.8457   1.0571643049e+02   5.7199270859e+01    0.2587156    0.1938779 -55.22 0.0004120168    1.100    0.091
        74 -11.0920    125.1515     93.1626   6.3554053210e+01   3.9463101530e+01    0.2492708    0.2392067  78.41            0    1.116    0.104
        75  -9.8266     99.8543     94.2928   7.1365308013e+01   4.4525403596e+01    0.2097367     0.186259  25.46 0.0003816092    1.105    0.095
        76 -10.0923     66.5540     91.9390   8.2272780137e+01   5.0909526304e+01    0.2145302    0.1902546  12.58 0.0003099373    1.114    0.103
        77 -11.2521     57.8418     91.6947   8.5525054866e+01   5.2227207203e+01    0.3115273    0.2225341 -21.39 0.0008294637    1.470    0.320
        78 -11.8836      6.7096     84.8373   1.0477678669e+02   5.8646620304e+01    0.4867684    0.3098955  18.33  0.001585218    1.780    0.438
        79  -9.7961     16.9668     85.3828   1.0060022264e+02   5.7905718019e+01    0.2420282    0.1480772 -45.41  0.001283388    1.346    0.257
        80  -9.9542    250.4056     80.7772   3.8274056622e+01   1.5107431289e+01    0.1657037    0.1023885 -35.77  0.000576229    1.585    0.369
        81  -9.9350     89.3034     80.6949   7.0727546759e+01   4.9405530432e+01    0.2357272    0.2097996 -59.93 0.0004280074    1.326    0.246
        82 -10.1429     86.1957     78.6417   7.1143955790e+01   5.0405185425e+01    0.2617268    0.2139478  38.08 0.0003879556    1.221    0.181
        83 -10.0281    134.9765     78.9025   5.6892777188e+01   3.9988212057e+01    0.2215652    0.2088612  45.20 0.0004317048    1.033    0.032
        84  -9.4086    124.4127     79.2365   5.9685562859e+01   4.2322886511e+01    0.1944731    0.1419775 -51.84 0.0003251839    1.510    0.338
        85  -9.0281     80.4871     79.5286   7.3428612882e+01   5.1274064716e+01    0.1466597    0.1375197   2.98 1.245166e-06    1.047    0.045
        86 -11.1044     48.9786     78.6508   8.5359891979e+01   5.6320262415e+01    0.5871487    0.3316057   0.58 0.0009196927    2.426    0.588
        87 -11.2111     55.1333     75.0843   8.1746378872e+01   5.6258954049e+01    0.4125224     0.305983  36.43  0.001621826    1.463    0.316
        88 -10.6854     16.1154     77.4161   9.9168181490e+01   5.9803010876e+01     0.393223    0.2518806  66.99   0.00185748    2.728    0.633
        89 -10.5194     22.2495     76.4627   9.6238773727e+01   5.9567025616e+01    0.2604247    0.2226761  71.67  0.001016863    1.620    0.383
        90  -9.7162    176.9825     76.5237   4.7477949207e+01   3.0722457122e+01    0.2157641    0.1361808  58.55  0.001004885    1.585    0.369
        91  -9.4033     38.4996     70.4817   8.7395603030e+01   5.9325824043e+01    0.2678871    0.1492012 -12.53  0.001169897    2.273    0.560
        92  -9.9390    165.2690     75.2564   4.9301604756e+01   3.3615554204e+01    0.1865232    0.1519913 -66.59 0.0003065992    1.279    0.218
        93 -10.3684     69.8902     74.2807   7.5662517052e+01   5.4164949063e+01    0.3822184    0.2140655  38.87  0.001713209    1.803    0.446
        94  -9.1798     32.6999     73.2960   9.0775905627e+01   5.9334542423e+01    0.1209835     0.106809  63.49 0.0002451022    1.573    0.364
        95  -9.4237    217.1174     71.8323   4.0340383929e+01   2.2797900473e+01    0.1532385    0.1451637 -44.88 0.0002743635    1.227    0.185
        96 -10.2668     19.0896     71.9881   9.6509931102e+01   6.0807505360e+01     0.202073    0.1625754 -34.33 0.0003229521    1.017    0.017
        97  -9.3974    106.0026     71.7958   6.2575113303e+01   4.7719456594e+01    0.1953561    0.1128473  45.53 0.0004207841    1.654    0.395
        98 -10.3442    100.1308     70.1409   6.3832702646e+01   4.9256271178e+01     0.222401    0.2058245 -44.39  0.001236648    1.190    0.160
        99  -9.4864     93.0773     71.7758   6.6618085652e+01   5.0395849806e+01    0.3248143    0.1137534  49.29  0.001041425    3.278    0.695
       100  -9.7737     37.0119     74.7537   8.9303220858e+01   5.8571731731e+01    0.3531789     0.204613 -73.04  0.001464033    2.917    0.657
       101  -9.2870    158.3633     70.2831   4.9311993285e+01   3.6043283232e+01    0.1455803    0.1098348  28.24 0.0007017736    1.683    0.406
       102 -11.6914      6.1833     65.4087   1.0081512768e+02   6.3075996141e+01    0.5031043     0.146279 -36.52  0.001944232    3.084    0.676
       103  -9.3795      1.4864     70.4792   1.0412886616e+02   6.2185796812e+01    0.1290951   0.09963895 -42.06 0.0004971463    1.019    0.019
       104 -12.7367     80.7376     67.3167   6.9359501392e+01   5.3602193313e+01    0.2915313    0.2669418   4.61 0.0005344502    1.026    0.025
       105  -9.8150     44.6938     69.2860   8.4323209706e+01   5.8845939400e+01    0.1948318    0.1098212 -42.24 0.0006730464    1.619    0.382
       106  -9.8168     89.0194     67.9259   6.6697648364e+01   5.1907692903e+01    0.2282779    0.1870128 -89.08   0.00113331    1.849    0.459
       107  -9.9050     59.1102     67.5127   7.7685698726e+01   5.7218992284e+01    0.2073375    0.1753438 -17.83 0.0009526181    1.076    0.071
       108  -9.2381    229.7311    247.3698   7.3185389481e+01  -9.4273786005e+00   0.09987333   0.09281769 -26.62 0.0006994738    1.667    0.400
       109  -9.9404     62.6805     61.3257   7.4131651555e+01   5.7842668928e+01    0.2619818     0.199338 -34.11  0.001432891    1.293    0.227
       110  -9.9396     65.7329     59.5679   7.2300939250e+01   5.7663681627e+01     0.277637     0.127088  39.73   0.00112595    2.150    0.535
       111  -9.7369     38.9273     61.7022   8.4440902101e+01   6.1080450963e+01    0.1865468    0.1556685  -4.54 0.0005155901    1.072    0.067
       112  -9.5513    157.3005     60.9850   4.6983407299e+01   3.7764201449e+01    0.1790507    0.1706411 -50.53 0.0001738192    1.111    0.100
       113  -9.6091    145.4414     59.4810   4.8903865284e+01   4.0784387307e+01     0.141063    0.1319472  76.74 -0.0001437257    1.028    0.027
       114 -12.6029     86.3725     54.4979   6.2969935577e+01   5.4735251729e+01    0.4244896    0.3331205   8.50 0.0001579385    1.336    0.251
       115 -10.1115     57.8722     58.9795   7.5266793339e+01   5.9031311307e+01    0.2022767    0.1774749   1.99 0.0004551401    1.041    0.040
       116  -9.8800     48.8792     59.3027   7.9201966407e+01   6.0280732232e+01     0.207604    0.1691794  41.12  0.001186892    1.494    0.331
       117 -10.4068     51.7069     66.1021   8.0291006149e+01   5.8570474674e+01    0.2942473     0.197795 -23.11 0.0008187759    1.488    0.328
       118 -10.5493      3.5448     58.1784   1.0028589404e+02   6.4762289568e+01    0.3352081    0.1386124 -24.09  0.001523013    2.473    0.596
       119  -9.3232    177.9727     58.7496   4.2829352078e+01   3.3296235024e+01    0.1672989    0.1104068  63.45 0.0002634257    1.460    0.315
       120 -10.3347     71.8522     56.3638   6.8800698287e+01   5.7171089238e+01    0.2309249    0.1804928 -25.54 0.0003873359    1.273    0.214
       121 -10.5623     32.7511     56.0274   8.5413729020e+01   6.2893148131e+01    0.2586682    0.1753856 -29.87  0.000879952    1.295    0.228
       122 -10.6403    103.7532     56.0812   5.8092404036e+01   5.0857826198e+01    0.2435876    0.1890696  44.83 0.0006047608    1.190    0.160
       123  -9.4877    127.8262     54.8814   5.1409586024e+01   4.5606402279e+01    0.1848268     0.161794 -86.18 0.0003379277    1.280    0.219
       124 -13.3479    114.7295     53.1820   5.4108770774e+01   4.8866105136e+01    0.3415988    0.3049789  35.45  0.000662811    1.062    0.059
       125 -11.2036    119.8279     48.7781   5.1397440203e+01   4.8342274644e+01    0.3573699    0.2705243 -68.39  0.001836156    1.717    0.418
       126  -9.5600    200.5083     53.8718   3.8461327379e+01   2.8965626063e+01    0.1737422     0.120867 -41.10 0.0003284501    1.420    0.296
       127 -10.5542    148.6597     51.4844   4.5978519623e+01   4.1200706942e+01    0.4395194    0.1896551 -48.63  0.001721079    2.699    0.630
       128 -12.0169     66.7496     52.5643   6.9371888840e+01   5.8710629185e+01    0.4371516     0.219397  33.89   0.00196684    1.900    0.474
       129 -12.2313    106.0099     50.3687   5.5523917251e+01   5.1231844707e+01    0.2916627    0.2751291  58.28  0.000309585    1.129    0.114
       130 -10.7295     52.1329     48.1385   7.3725613251e+01   6.1819120892e+01    0.5126218    0.3466182  14.00  0.002770972    1.445    0.308
       131 -11.2135     38.1783     48.6616   8.0245567585e+01   6.3642809231e+01    0.3328153    0.2875835  21.40  0.001479634    1.286    0.223
       132  -9.9903      4.3333     50.8934   9.7929546738e+01   6.6227967122e+01    0.2657118   0.09968887 -45.99 0.0009685394    1.971    0.493
       133  -9.3617     32.7657     50.6619   8.3552156714e+01   6.3913567298e+01    0.1669819     0.109478  28.40 0.0003417165    1.577    0.366
       134  -9.9867     75.8646     48.5537   6.4462478949e+01   5.7714503699e+01    0.2585391      0.21673 -86.48  0.001390282    1.929    0.482
       135 -10.9863      9.4983     47.4595   9.4224748634e+01   6.6600306362e+01    0.3437424    0.2475219   9.47  0.001478241    1.399    0.285
       136 -10.7586    136.6703     46.5863   4.6934350339e+01   4.4714385000e+01    0.3699788    0.2174057  69.10  0.001708122    1.802    0.445
       137  -9.6117     68.9045     46.5428   6.6285419812e+01   5.9307733853e+01    0.1917574    0.1213423  35.65 3.816725e-06    1.445    0.308
       138 -10.1777     79.6404     45.2914   6.1912238607e+01   5.7487418914e+01    0.2423985    0.1648755  41.03 0.0003976495    1.341    0.255
       139 -10.2585     25.9494     44.0760   8.4546191111e+01   6.5852436101e+01    0.2648854    0.1837696 -53.35  0.001525683    1.730    0.422
       140  -9.7173     39.9710     65.5135   8.5204025612e+01   6.0189996742e+01    0.1857163    0.1256311  22.47 0.0005138465    1.476    0.323
       141 -10.6384     16.0987     43.1071   8.9307716221e+01   6.6941271530e+01    0.2886453    0.2570705 -89.30  0.001562845    1.835    0.455
       142  -9.6143    155.9693     46.2419   4.3178448397e+01   4.0197530169e+01    0.3723893      0.24089  39.25   0.00183577    1.840    0.456
       143 -11.5943     61.0918     42.5065   6.7789655941e+01   6.1295554889e+01    0.2293067    0.1983724   3.02 0.0002936999    1.057    0.054
       144 -10.3430    184.5866     41.1413   3.7534264759e+01   3.4230692700e+01    0.3415116    0.2237749  86.15  0.001569989    1.536    0.349
       145 -10.4934     36.8263     41.6559   7.8228910098e+01   6.5033845063e+01     0.267103    0.2183027  29.96  0.001261845    1.402    0.287
       146 -10.2560    170.9053     40.3079   3.9221052507e+01   3.7476139867e+01    0.1984749    0.1631641 -68.60 0.0001951877    1.177    0.151
       147  -9.2487    141.7028     41.7371   4.4497517566e+01   4.4167630920e+01    0.1412974    0.1237562  85.06 0.0002569877    1.128    0.113
       148  -9.0005    139.4728     39.5487   4.4280099917e+01   4.4974876577e+01    0.1783655    0.1359045 -13.28 0.0009628048    1.653    0.395
       149 -10.4991      4.9546     41.5382   9.4772832391e+01   6.8034559039e+01    0.1708697    0.1061253   7.43 0.0007799859    1.573    0.364
       150  -9.7013    133.9703     39.7053   4.5410754504e+01   4.6254900318e+01    0.1947708    0.1565332  58.27 0.0003420162    1.113    0.102
       151  -9.3187     90.4889     40.4854   5.6585737703e+01   5.5971947534e+01    0.1397704    0.1185124  28.32 0.0001833609    1.059    0.055
       152  -9.7202     44.7241     40.0280   7.3861789033e+01   6.4241665358e+01    0.1769559    0.1435512  -6.19 0.0002382749    1.056    0.053
       153 -12.2553    121.0951     37.4044   4.7435533542e+01   4.9558555428e+01    0.3976904     0.360744  40.86  0.001353905    1.082    0.075
       154  -9.4927    128.4124     38.5056   4.6190178395e+01   4.7713270153e+01    0.1349285     0.122225  58.08 6.738235e-05    1.016    0.016
       155 -10.7356     21.7113     37.8988   8.4425024127e+01   6.7374618176e+01    0.1721278    0.1392082 -16.16  0.001134083    1.072    0.067
       156 -11.2550      4.1677     34.7625   9.2937057956e+01   6.9349050581e+01    0.3856794    0.2966855  36.89  0.002532896    1.839    0.456
       157  -9.9342    133.1505     35.3196   4.4240712166e+01   4.6990322538e+01    0.2593558    0.1440028  22.90 0.0008818103    3.313    0.698
       158  -9.5725     37.9850     34.7991   7.4901206360e+01   6.6000507154e+01     0.371544    0.1702355  36.86   0.00178152    2.209    0.547
       159 -10.2075     28.1077     33.5644   7.9342073141e+01   6.7424469625e+01    0.2359273    0.1328943 -23.01 0.0007923775    1.720    0.419
       160  -9.3257    220.0201     33.7710   3.1960247863e+01   2.7516074321e+01    0.1490384   0.08928547  75.95 0.0003981559    1.588    0.370
       161 -11.5340    144.5327     31.8574   4.1112845091e+01   4.4709771579e+01    0.3144082    0.2161156 -48.91  0.001717879    1.583    0.368
       162 -10.6319     91.1400     31.7250   5.3153099014e+01   5.6957159435e+01    0.3107831    0.2461561  43.82  0.001141872    1.100    0.091
       163  -9.9711     49.8672     33.2517   6.8759344952e+01   6.4506914208e+01    0.1785398    0.1564389   9.62 0.0004584773    1.155    0.134
       164  -9.2351    177.6635     32.2864   3.6278630045e+01   3.6911542419e+01    0.1343852   0.08688159 -74.26  0.000421069    1.629    0.386
       165 -12.6507     10.3778     29.6710   8.7481961547e+01   6.9804577528e+01    0.4651788    0.2332194  34.47   0.00245106    2.515    0.602
       166  -9.8531    227.3274     31.0327   3.0752098162e+01   2.6380708991e+01    0.1602498    0.1232854 -61.30 0.0003759961    1.094    0.086
       167 -10.0848    128.9340     31.2044   4.3810813971e+01   4.8467239558e+01    0.2592072    0.1741919  67.93   0.00137561    1.395    0.283
       168 -10.6968     80.5603     28.8836   5.5311037025e+01   5.9502336358e+01    0.3792557    0.1975356 -15.98  0.001721771    2.513    0.602
       169 -10.0890     39.1241     31.0498   7.2768125159e+01   6.6418223253e+01    0.2193337     0.171039  29.80  0.001349009    1.348    0.258
       170  -8.9698    237.5091     29.5116   2.9615748888e+01   2.4577713339e+01    0.1166603   0.08948254 -69.07 0.0001100287    1.004    0.004
       171  -9.6753    135.6055     29.2317   4.1931111583e+01   4.7120165168e+01    0.1643845    0.1297093  -5.21 0.0002981148    1.615    0.381
       172 -10.3742    164.9814     28.3235   3.6975110619e+01   4.0305683946e+01    0.1824333    0.1467567  76.89 0.0004093497    1.086    0.079
       173  -9.4450     94.2069     27.3699   5.0665556028e+01   5.6805514133e+01    0.1774649    0.1153839  61.44 0.0003596095    1.561    0.360
       174 -11.1799     46.2363     26.0509   6.7271205327e+01   6.6078526942e+01    0.2191503    0.1833512  -1.80 0.0002138104    1.122    0.109
       175 -10.6003     69.7178     26.6557   5.8084201926e+01   6.1909377417e+01    0.3910507    0.2348822 -24.87   0.00209435    1.804    0.446
       176 -10.2671     59.4782     24.4544   6.0988041861e+01   6.4068403533e+01    0.2982954    0.1825352 -31.17  0.001651501    1.776    0.437
       177  -9.7828    224.8011    247.2260   7.4082261075e+01  -8.8409381464e+00    0.1737677    0.1130887  -6.92 0.0007172654    1.325    0.245
       178 -10.0567     59.3180     16.2823   5.7467034434e+01   6.5034798032e+01    0.3853965    0.1569487  32.18  0.001655676    2.577    0.612
       179 -10.2963     34.9768     22.7404   7.1119616971e+01   6.8180864752e+01    0.2997349    0.1746435   3.60  0.001588009    1.892    0.472
       180  -9.3538    124.6323     23.2937   4.2178275987e+01   5.0340607890e+01    0.1335455   0.09546456 -80.94 0.0007028064    1.719    0.418
       181  -9.8489    170.9604    246.8140   8.4886350576e+01  -1.8559494378e+00      0.21118    0.1527688   1.31  0.001214235    1.327    0.247
       182 -10.3389      7.3086     19.2294   8.4958760456e+01   7.1765507768e+01    0.3004627    0.1435401 -16.34    0.0015487    2.187    0.543
       183 -10.4033     74.7116     22.0082   5.4461527778e+01   6.1468563484e+01    0.2345519    0.1693657 -32.53 0.0004704171    1.608    0.378
       184 -10.7978     75.5343     18.3848   5.2709703001e+01   6.1689681955e+01    0.3734301    0.1938245  63.65 0.0009944743    2.557    0.609
       185 -11.1825     14.9936     21.2305   8.1252066203e+01   7.0761793715e+01    0.3390645    0.2167754  34.65  0.002058466    1.945    0.486
       186  -9.7341     33.6689    247.2960   1.1522926007e+02   1.6610069510e+01    0.1308567   0.07087809  58.50 0.0002598051    1.638    0.390
       187 -10.1656     85.0687     21.1023   5.0882589892e+01   5.9440675397e+01    0.2440502    0.1443402  35.93 0.0005204003    1.554    0.357
       188 -10.5115     88.8311     18.8392   4.8939656280e+01   5.8872595221e+01    0.2202164    0.1430943  44.23 0.0003045157    1.285    0.222
       189  -9.5169    116.1603    246.5524   9.7005597863e+01   6.0568106203e+00    0.1755694    0.1162702  21.12 0.0009166106    1.494    0.331
       190  -9.1698    120.3399     19.2645   4.1730965997e+01   5.1747783103e+01    0.1349823   0.08361839  41.69 0.0004288028    1.594    0.373
       191  -9.6880    154.7456     17.6696   3.5578492607e+01   4.3839594805e+01    0.2465157    0.1323238  23.45 0.0009659562    4.070    0.754
       192  -9.1826     86.6666    245.2635   1.0353004411e+02   1.0463583718e+01    0.1355358   0.08544808  54.45    0.0004447    1.579    0.367
       193 -10.0903     68.0050     17.6992   5.4929810697e+01   6.3249395863e+01    0.2037737    0.1765777 -55.75  0.001111702    1.679    0.405
       194 -10.6410    238.2232     17.0042   2.7221726920e+01   2.5909726948e+01    0.1545047    0.1341577 -82.09  0.001190272    1.253    0.202
       195  -9.8410    146.7786    244.4141   8.9816517134e+01   2.0142779307e+00    0.1937356    0.1138278  20.88 0.0009483119    1.654    0.395
       196 -11.3327    203.6102     16.5390   2.9862774353e+01   3.2957882329e+01    0.3131433    0.1714784 -89.97   0.00173473    1.734    0.423
       197  -9.4503     20.0215     16.9967   7.6401424948e+01   7.0854435748e+01    0.1436712    0.1081324  -6.21 0.0004331816    1.044    0.043
       198  -9.4421     52.2117    244.6336   1.1110331472e+02   1.5032335001e+01    0.1742568    0.1129927  21.81 0.0009510298    1.766    0.434
       199 -12.4962      8.4416    238.6298   1.1985218294e+02   2.0998089958e+01    0.7121817    0.4267065  -6.76  0.003442717    3.676    0.728
       200 -10.0745     39.6732     15.0096   6.5213578163e+01   6.8488162600e+01    0.1827703    0.1353665  21.70 0.0003450459    1.100    0.091
       201 -10.0867    118.5337    239.5552   9.5549636244e+01   7.0865564986e+00    0.2638116    0.2016368  56.82  0.001198421    1.463    0.317
       202  -9.1434     60.9521    241.0000   1.0886923267e+02   1.4726160409e+01     0.204021   0.06555124  31.13 0.0005786475    2.834    0.647
       203 -10.5025     35.6174    240.0721   1.1431679710e+02   1.7914764905e+01    0.2107158    0.1409324  50.28 0.0004957197    1.267    0.211
       204 -11.4040     24.6816    235.9019   1.1634999223e+02   1.9981290010e+01    0.2464493    0.1471088  45.11 0.0007147018    1.440    0.306
       205  -9.2908    204.0197    235.2664   7.6131094902e+01  -4.4296512325e+00    0.1538465   0.09857967  23.08 0.0004348693    1.425    0.298
       206  -9.8730    174.2895    235.6951   8.2409962779e+01  -4.0109164190e-01    0.1193544    0.1043117  53.25   0.00023184    1.570    0.363
       207  -9.4043    201.6564     11.7167   2.9009075977e+01   3.3887427589e+01    0.1106831   0.08224276  53.38 0.0002724997    1.639    0.390
       208  -9.8169     22.0238    199.3305   1.1427148791e+02   2.8655145694e+01     0.342685    0.1481884 -89.32  0.001432128    2.522    0.603
       209 -10.7619    208.0208     13.0434   2.8746948063e+01   3.2400334719e+01    0.1780157     0.141835 -78.80 0.0003551614    1.017    0.016
       210  -8.9271     77.5225     11.5266   4.9280625762e+01   6.1949630667e+01    0.1253918    0.1048623  41.18 0.0001413734    1.064    0.060
       211 -11.9428      4.1047    232.7225   1.2042088127e+02   2.2655112280e+01    0.3205287    0.2209156  59.23  0.002109153    1.192    0.161
       212 -12.4089      9.2097    228.6476   1.1915432196e+02   2.3074961613e+01     0.454821    0.3191342 -61.03  0.002882187    1.596    0.374
       213 -12.2242      2.8254    224.3228   1.2024727509e+02   2.4597974856e+01    0.7387713    0.3049515  83.29  0.003494756    2.401    0.583
       214  -9.5145    249.4830    233.4840   6.7320123011e+01  -9.6270655856e+00    0.1204312   0.08805705 -12.06 0.0008102318    1.000    0.000
       215  -9.4121     32.4834    233.5241   1.1451627796e+02   1.9673086283e+01    0.1262761    0.1027073  65.10 0.0002386617    1.026    0.026
       216  -9.4795     47.8192    229.8248   1.1081862155e+02   1.8757154931e+01    0.1764777    0.1256749  60.12   0.00101667    1.271    0.213
       217  -9.3814    243.0311    230.0000   6.7853958636e+01  -8.4034068408e+00     0.171621   0.06205754  30.44 0.0005125169    2.840    0.648
       218  -9.7194    209.5288    229.5192   7.4051013358e+01  -4.2181763852e+00    0.1296569    0.1053608  -4.70 0.0001040183    1.035    0.033
       219  -8.8396    205.2932    229.6512   7.4917876354e+01  -3.6778035904e+00    0.1103177    0.1069488  80.13  0.000358059    1.672    0.402
       220 -11.0401    140.1420    227.7349   8.8819144554e+01   6.1992712411e+00     0.325631    0.2182381 -61.12  0.001621546    1.883    0.469
       221  -9.6045     17.9966    227.7550   1.1724475210e+02   2.2437102160e+01    0.1474094   0.09503606  34.88 0.0003817473    1.527    0.345
       222  -9.6557    223.4269    226.5322   7.0840537688e+01  -5.5266653866e+00    0.1279672    0.0994639  -9.75 5.447874e-05    1.011    0.011
       223 -10.6240     26.6902    223.9744   1.1509237729e+02   2.2409616397e+01    0.1785092    0.1399183  79.90 0.0004523179    1.117    0.105
       224  -9.3793    167.4541    221.4633   8.1540925932e+01   3.2278262639e+00    0.1393043    0.1221314   5.96 0.0001611293    1.021    0.021
       225 -11.2137      8.2032    218.8613   1.1880168585e+02   2.5344547231e+01    0.3046563     0.173189 -61.80   0.00157095    1.817    0.450
       226  -9.2300     85.5646    215.3964   1.0025540288e+02   1.7122775436e+01    0.1373916    0.1278659  42.71  1.63362e-05    1.035    0.034
       227  -9.7841     16.1055    212.8769   1.1667436306e+02   2.5994614500e+01    0.1614624    0.1439054 -58.18  0.001074732    1.325    0.246
       228  -9.5245    205.4884    212.1041   7.1765702537e+01  -7.0267347391e-01    0.1968188    0.1193002 -37.04 0.0007982904    1.534    0.348
       229  -9.6129     20.2660    209.4596   1.1547903130e+02   2.6400305618e+01    0.1780994   0.09910921  45.52 0.0009355296    1.643    0.391
       230 -10.0134    193.8054    202.2049   7.2329635419e+01   2.8360141903e+00    0.1983828    0.1849474  -9.95 0.0008824632    1.176    0.150
