#   1 NUMBER                 Running object number                                     
#   2 MAG_AUTO               Kron-like elliptical aperture magnitude                    [mag]
#   3 X_IMAGE                Object position along x                                    [pixel]
#   4 Y_IMAGE                Object position along y                                    [pixel]
#   5 X_WORLD                Barycenter position along world x axis                     [deg]
#   6 Y_WORLD                Barycenter position along world y axis                     [deg]
#   7 A_WORLD                Profile RMS along major axis (world units)                 [deg]
#   8 B_WORLD                Profile RMS along minor axis (world units)                 [deg]
#   9 THETA_WORLD            Position angle (CCW/world-x)                               [deg]
#  10 FWHM_WORLD             FWHM assuming a gaussian core                              [deg]
#  11 ELONGATION             A_IMAGE/B_IMAGE                                           
#  12 ELLIPTICITY            1 - B_IMAGE/A_IMAGE                                       
         1 -15.8495    178.9252     76.1972   8.4984712550e+01   3.0126788780e+01     12.27707     4.635145 -47.14   0.02604198    2.981    0.665
         2 -18.1491    248.4009    109.6816   8.1924395948e+01   8.2393038833e+00     14.34551     1.978685 -35.75    0.0359442    5.706    0.825
         3 -16.6739    203.1033     23.2237   6.6019396694e+01   3.1582693798e+01     13.96116     1.976114  62.76   0.03918657    4.685    0.787
         4 -10.6282    155.3985     13.5642   6.9569525677e+01   4.5042835912e+01    0.3443306    0.1728627 -14.28  0.001433681    2.506    0.601
         5  -9.8674    196.4810     12.0667   6.3695947616e+01   3.4520915994e+01    0.1721529    0.1320848 -36.94 0.0003142101    1.348    0.258
         6 -11.9297    107.5362      9.6875   7.7435121592e+01   5.7222725833e+01    0.3276231    0.1458856 -33.62  0.001434797    2.374    0.579
         7 -10.7625    207.4828      7.9141   6.1440430962e+01   3.2157627127e+01    0.1920373    0.1323526 -27.99 0.0007245755    1.574    0.365
         8  -8.7096    208.7705      4.0684   6.0314320845e+01   3.2224324740e+01    0.2533898    0.1550614 -44.81 0.0009502635    1.557    0.358
         9 -10.4442     38.5783      2.7806   9.7579258976e+01   7.0820739566e+01    0.1568282   0.09744883 -34.83 0.0007748238    1.637    0.389
        10 -11.1783    133.6715    144.0107   1.1293910214e+02   2.6877024848e+01    0.9546638    0.2684935 -57.81   0.00193882    8.347    0.880
        11 -12.5795    244.5651    248.8490   1.0980936947e+02  -1.0062765581e+01    0.4898322    0.2338544  20.88   0.00268529    2.146    0.534
        12 -10.7247    144.0139    145.9964   1.1089270159e+02   2.4323605731e+01    0.2498448    0.1871074  85.19  0.001142392    1.739    0.425
        13  -9.7699    100.8286    136.3887   1.1965640515e+02   3.4854204618e+01    0.1856971    0.1404345  30.22 0.0004031065    1.538    0.350
        14 -11.7449    136.0028    129.9875   1.0923973349e+02   2.9479008100e+01    0.5075052    0.2109944 -50.79  0.001639486    2.494    0.599
        15 -12.1908    134.9215    120.8783   1.0732571377e+02   3.1710043203e+01    0.7471859     0.212931 -49.55  0.001973079    3.715    0.731
        16 -12.9357    134.5941    107.3667   1.0394644583e+02   3.4719610983e+01     1.186822    0.3098719 -45.69  0.003299069    3.814    0.738
        17 -13.5092    161.2708    128.1858   1.0279145557e+02   2.4337223185e+01    0.6009493     0.541039  26.70  0.001896227    1.179    0.152
        18 -11.7997    122.0088    113.0426   1.0871126545e+02   3.6161746840e+01    0.3280533    0.2455021  88.67  0.001474747    1.761    0.432
        19 -11.4589    153.7913    109.7354   9.9851706063e+01   2.9867372569e+01    0.4292809    0.1861684  57.44  0.001392703    2.862    0.651
        20 -13.1068    120.3875    103.1616   1.0656696981e+02   3.8682927588e+01    0.5885934    0.4475726 -37.46  0.002824031    1.364    0.267
        21 -11.5367    112.0596    104.1546   1.0912490415e+02   4.0159603670e+01    0.2842585    0.2304406 -64.61 0.0009663754    1.286    0.222
        22 -11.0667    139.0593    103.9490   1.0189153079e+02   3.4452388201e+01    0.2364045     0.235623   8.17  0.000488419    1.036    0.035
        23 -11.8954    143.9768     99.6871   9.9491767715e+01   3.4219183087e+01    0.3925214    0.3336127 -13.16   0.00075631    1.374    0.272
        24 -11.5542    131.4185     96.3335   1.0173802253e+02   3.7769580839e+01    0.2956067    0.2826919 -88.60 0.0001689432    1.073    0.068
        25 -10.5971    113.1826     94.9338   1.0629826804e+02   4.1961394738e+01    0.2287297    0.2060836  89.10 0.0004900821    1.217    0.178
        26 -14.5847    161.8816     68.2952   8.6087334216e+01   3.5823888613e+01     3.076058     1.111349  59.27  0.001803143    2.977    0.664
        27 -11.9917    136.9940     89.1758   9.8234498448e+01   3.7980651520e+01    0.3858206    0.3279028  77.96 0.0008635766    1.331    0.249
        28 -12.9884    148.9476     82.9326   9.3441021187e+01   3.6379896865e+01    0.3988281     0.341654 -55.36 0.0008743408    1.209    0.173
        29 -13.3974     57.9767    173.0356   1.3595341015e+02   3.2862662695e+01    0.3674849    0.3348358 -70.34 0.0009865098    1.289    0.224
        30 -10.6918    208.0276     77.9615   8.0281059628e+01   2.2528236546e+01    0.3924012     0.215653 -19.25  0.001482858    2.498    0.600
        31 -11.0599    142.9482     79.5205   9.3852388856e+01   3.8475952910e+01    0.2294136    0.1523445  50.60 8.111628e-05    1.499    0.333
        32 -10.4669    205.2370     64.8385   7.7178949177e+01   2.5322146614e+01    0.2471912    0.1959733  86.13  0.000845679    1.349    0.259
        33 -12.9326    191.0638     60.4536   7.8242700647e+01   2.9607995261e+01    0.9264793    0.7840092  18.33  0.004726768    1.427    0.299
        34 -12.9125    196.6064     52.2823   7.5023122170e+01   2.9416609197e+01     0.387729    0.3601975  87.72  0.002154924    1.037    0.035
        35 -13.0975    203.6587     50.1416   7.3373354742e+01   2.7922802670e+01    0.5391827     0.315493  40.59  0.001766067    2.131    0.531
        36 -14.9776     20.1837    198.8226   1.4607622893e+02   3.1654739910e+01     2.267473    0.8249699  61.59   0.01126945    2.506    0.601
        37  -9.8236    215.1789     62.5444   7.5070349264e+01   2.3201466309e+01    0.1548122   0.09142291 -50.52 -0.0001541599    1.700    0.412
        38 -12.3429    227.2500     55.9117   7.1704791576e+01   2.1246016857e+01    0.3313987      0.22435 -88.01  0.001230444    1.698    0.411
        39 -11.1803    215.8737     49.5389   7.1524145852e+01   2.4935472134e+01    0.1920617    0.1668624 -83.46 0.0004213648    1.113    0.102
        40 -10.7704    220.0240     45.0450   6.9810773793e+01   2.4535023404e+01    0.2091728    0.1839784 -72.08 0.0004163045    1.055    0.052
        41 -10.2924    205.0851     42.7317   7.1129361342e+01   2.8597186926e+01     0.362604     0.167008  46.49 0.0008151498    2.561    0.610
        42 -14.2627     10.0652    205.9440   1.4836226116e+02   3.1223954779e+01     1.175793    0.6074927  56.32  0.007700157    1.532    0.347
        43 -11.8976    216.6174     36.9542   6.8106268238e+01   2.6463109250e+01    0.3328147    0.2062158  65.45  0.001555269    1.582    0.368
        44 -15.2018     33.3018    192.6716   1.4308326052e+02   3.1543352969e+01    0.9303995    0.7852448  80.36  0.003629853    1.177    0.151
        45 -11.6053    191.1727    191.9151   1.0986680061e+02   6.1137842956e+00    0.6728846    0.3591198 -64.66   0.00209051    5.839    0.829
        46 -10.8976    207.4807     35.0716   6.8721388237e+01   2.9005493488e+01    0.1974017    0.1329821 -37.92 0.0004918189    1.447    0.309
        47 -13.3570     46.4819    173.6480   1.3860254911e+02   3.4139841910e+01    0.8241675    0.4179227  84.01  0.004020722    2.140    0.533
        48 -13.0098     68.3342    144.8765   1.2967538723e+02   3.7954025238e+01      2.80687     1.230762  65.88  0.007692982    4.530    0.779
        49 -14.5324     64.6323    167.3730   1.3374224956e+02   3.3259877842e+01    0.9236667    0.7692215  60.00  0.003019511    1.153    0.133
        50 -14.0495     69.5465    161.2525   1.3177082474e+02   3.3980832407e+01    0.7729176    0.5587657  57.21  0.001727825    1.309    0.236
        51 -11.2166    230.1856    166.9612   9.7640240769e+01   2.7709436659e+00    0.3505782    0.1808809 -46.23  0.001547295    2.337    0.572
        52 -12.0493    173.9833    153.9636   1.0586865545e+02   1.6370954268e+01    0.2306844    0.2171748  42.10 0.0004189445    1.023    0.022
        53 -12.7236    168.0870    148.3047   1.0591562298e+02   1.8742844731e+01    0.5025505    0.3004008  62.93  0.001858475    2.195    0.544
