#   1 NUMBER                 Running object number                                     
#   2 MAG_AUTO               Kron-like elliptical aperture magnitude                    [mag]
#   3 X_IMAGE                Object position along x                                    [pixel]
#   4 Y_IMAGE                Object position along y                                    [pixel]
#   5 X_WORLD                Barycenter position along world x axis                     [deg]
#   6 Y_WORLD                Barycenter position along world y axis                     [deg]
#   7 A_WORLD                Profile RMS along major axis (world units)                 [deg]
#   8 B_WORLD                Profile RMS along minor axis (world units)                 [deg]
#   9 THETA_WORLD            Position angle (CCW/world-x)                               [deg]
#  10 FWHM_WORLD             FWHM assuming a gaussian core                              [deg]
#  11 ELONGATION             A_IMAGE/B_IMAGE                                           
#  12 ELLIPTICITY            1 - B_IMAGE/A_IMAGE                                       
         1 -12.5588     51.9011     93.1420   1.0706910853e+02   5.1721255725e+01     2.718056    0.8485776 -48.20  0.009707195    3.110    0.678
         2 -13.5143     25.9245     71.9565   1.1160083169e+02   5.9351544628e+01      2.41461    0.9185908 -50.60  0.005616121    2.146    0.534
         3 -11.9761    129.0314     20.9240   5.8290973876e+01   5.0964169167e+01     1.334955    0.8811987  25.16  0.006144392    1.734    0.423
         4 -11.8620     15.0105     35.4739   1.0664447583e+02   6.8335985511e+01     1.049947    0.4765058 -44.99  0.005525006    1.727    0.421
         5 -12.4598     28.7047     25.6144   9.5991042568e+01   6.9159060888e+01      1.55994    0.9679236 -39.65  0.009158092    1.294    0.227
         6 -12.3323      8.3751     26.1757   1.0690117292e+02   7.0700592188e+01    0.7672542    0.5063812 -21.46  0.003248722    1.559    0.358
         7 -13.4773     46.6481     42.6211   9.4539397633e+01   6.3782253567e+01     2.488495     1.557828  20.81   0.01318698    1.916    0.478
         8 -13.2259    102.2028      7.2867   5.8463060393e+01   5.8991933672e+01     1.522195    0.6063414  62.24  0.002966851    2.591    0.614
         9 -13.5253     90.9085     57.3388   8.3398890378e+01   5.3791355075e+01     4.014925     1.777232  30.24    0.0113944    3.657    0.727
        10 -11.7887     74.5869     47.9723   8.5502293851e+01   5.8586473016e+01      1.37125    0.6025946 -35.22  0.005414741    2.320    0.569
        11 -12.9229    114.3547     20.2093   6.1323633700e+01   5.4675856516e+01     1.599347    0.9624177   7.25  0.006805844    2.183    0.542
        12 -12.6117     16.7202     10.9417   9.5633639277e+01   7.3000265147e+01     1.014467    0.7307723 -65.00  0.003980815    1.979    0.495
        13 -12.1474      2.2378      2.2101   1.0025866794e+02   7.5672229903e+01    0.3088505    0.2292928 -46.62  0.002222314    1.232    0.188
        14 -12.7623      3.4072     17.6818   1.0653960879e+02   7.2698476612e+01    0.3517991    0.2957559 -36.30  0.001530394    1.147    0.128
        15 -12.5703      3.5586      9.7435   1.0309888904e+02   7.4215900325e+01    0.5390629     0.313269 -44.32  0.001211637    1.261    0.207
        16 -13.4314     39.7059    122.6988   1.1587605913e+02   4.5928509354e+01     2.402495     1.364716  53.15   0.01018132    1.856    0.461
        17 -13.4550    110.5338     72.5142   8.2616145697e+01   4.6774325409e+01     3.410195     2.417019  17.88   0.01476522    1.908    0.476
        18 -13.1293     81.4313     96.7760   9.8523776873e+01   4.6748868185e+01      4.01656     2.081375 -29.37   0.01345619    3.791    0.736
        19 -12.3440     46.4604     16.1533   8.2667465070e+01   6.8640489913e+01      1.93313     1.060463 -52.12  0.009000947    2.626    0.619
        20 -10.1751    150.1890     34.1436   5.9084732813e+01   4.3835305505e+01     1.575016    0.7380043  55.30  0.006165948    2.029    0.507
        21 -12.1643     58.1553      4.6905   7.1144671032e+01   6.8377129441e+01     1.144745    0.5264387  41.93   0.00244953    2.152    0.535
        22 -12.0433    110.8013     31.6618   6.7131652954e+01   5.3990220502e+01     1.027178     0.868026  71.49  0.002421988    1.386    0.278
        23 -13.0100     90.6231     23.9844   6.9601359509e+01   5.9563778996e+01     2.765926    0.8049253 -23.59  0.007238219    5.612    0.822
        24 -10.7314    203.3994     26.4809   4.8475617962e+01   3.0791860218e+01    0.7623307    0.4914303 -29.03  0.003673491    1.499    0.333
        25 -10.3152    204.4348     17.3103   4.5657543373e+01   3.1571518908e+01    0.7917855    0.3656197  31.98  0.002628523    4.010    0.751
        26 -11.0561    214.2690      4.7850   4.1159686467e+01   3.0378854902e+01     1.151639    0.4103162  70.03  0.004543428    2.641    0.621
        27 -10.4863    210.8528     17.4415   4.5035698068e+01   2.9923416498e+01    0.4139882    0.2856516  63.62  0.001491358    1.471    0.320
        28 -10.2017    226.5866      7.0004   4.0765287806e+01   2.7132650566e+01    0.4917728    0.2977694  14.38  0.002132799    2.644    0.622
        29 -11.0470    214.1203     26.0571   4.7149741733e+01   2.8119846089e+01     1.266626    0.7272236   1.36  0.005101037    2.733    0.634
        30 -10.5542    221.7323     11.9872   4.2501503192e+01   2.7798913894e+01    0.4840588    0.3265084  88.75  0.001203057    1.508    0.337
        31 -10.1739    213.6253     11.8019   4.3172693845e+01   2.9829510912e+01    0.4110208     0.334824  86.50   0.00158908    1.204    0.169
        32 -10.6390    193.0992     32.5987   5.1620077447e+01   3.2713202879e+01    0.5540025    0.3910255   4.70  0.002564402    1.822    0.451
        33 -10.8048    133.9405     53.3152   6.9629162168e+01   4.5042245573e+01     2.416805    0.6368513 -27.58  0.005098398    6.987    0.857
        34  -8.9711    239.0377     15.0827   4.1884647327e+01   2.3328212188e+01    0.2654933    0.1667718 -56.26 0.0004010162    1.474    0.322
        35 -10.2233    241.4150     21.8281   4.3410952160e+01   2.2027215362e+01    0.7412161    0.1972733 -39.10  0.002734708    2.804    0.643
        36 -10.1440    243.6085     12.4691   4.0874492722e+01   2.2555553363e+01    0.4061466     0.300807  -8.96  0.001304962    1.612    0.379
        37 -10.0813    243.9307      5.1649   3.9038796858e+01   2.3244427119e+01    0.3522539    0.1948016 -19.96 0.0009692802    1.930    0.482
        38 -10.3480    167.6780     24.3244   5.2582215578e+01   4.0448667918e+01    0.7109481     0.300831  46.46  0.002447107    2.525    0.604
        39 -11.1074    179.6894     27.3527   5.1815226914e+01   3.6892352910e+01     1.115113    0.7654239  17.80  0.005056151    1.888    0.470
        40 -10.1294    176.3093     20.8142   5.0143810933e+01   3.8554862169e+01    0.7128067    0.5912222 -48.74   0.00379964    1.200    0.166
        41 -13.2261     71.2093     30.8598   7.9513868562e+01   6.2276065043e+01     2.344893     1.609389  40.31     0.012509    1.561    0.359
        42  -8.9504    173.5008     10.2194   4.6996319276e+01   4.0423940265e+01    0.3595621    0.2368122  26.06  0.001133482    1.869    0.465
        43  -9.7894    167.6862     12.8334   4.8640192766e+01   4.1710192878e+01    0.6211504    0.2974745  80.38  0.002405965    2.392    0.582
        44 -11.2141    164.3665      5.2149   4.6454198439e+01   4.3330234990e+01    0.9402919    0.5311165  65.35  0.002915792    1.638    0.390
        45 -11.4978    159.2941     19.3626   5.2153671344e+01   4.3250094264e+01    0.9901773     0.712721 -22.34  0.001844078    1.432    0.302
        46 -11.3315    149.4290     14.5289   5.1979809438e+01   4.6387569546e+01    0.9401302    0.6440697   4.07  0.002041548    1.728    0.421
        47  -9.8257    230.9844     18.9934   4.3572131172e+01   2.4796557424e+01    0.5308518    0.3613781 -34.52  0.001927801    1.331    0.248
        48  -9.6719    232.2535     10.5522   4.1252710432e+01   2.5407971134e+01    0.3165789     0.227582 -87.52  0.001306867    1.392    0.282
        49  -9.5179    234.0441      7.1505   4.0236672349e+01   2.5336454125e+01    0.2716005    0.2127576  53.43 0.0006219902    1.471    0.320
        50 -10.7581    199.5416      6.1562   4.2865746581e+01   3.3982086531e+01    0.8180693    0.4308286 -32.54  0.003775033    1.783    0.439
        51  -9.3799     86.8133     10.5435   6.4275797035e+01   6.2089850047e+01    0.3938134    0.2404043  17.24  0.001235404    1.879    0.468
        52 -10.5981    182.2429      4.7237   4.4185473871e+01   3.8633572285e+01    0.5402125    0.3944784  75.13  0.001455157    1.309    0.236
        53 -10.0759     78.0688      8.9789   6.6233247265e+01   6.4092525318e+01     0.248485    0.2113942  -7.57  0.000369191    1.082    0.076
        54  -9.2606     77.4113      4.7849   6.4219203480e+01   6.4695103348e+01    0.2981581    0.1704586  -3.15  0.001008413    1.950    0.487
        55  -9.4782    250.0332      7.6829   3.9245345590e+01   2.1607828490e+01    0.3010149    0.1964068 -54.29 0.0009430189    1.333    0.250
        56 -10.5416    132.2177      4.5411   5.1002019139e+01   5.1846428153e+01    0.5109572    0.3069152  46.61  0.001875386    1.568    0.362
        57  -8.8248    139.2238      8.3907   5.1335783385e+01   4.9678159517e+01     0.202486    0.1683846 -66.74 0.0009379662    1.341    0.254
        58 -11.2163    138.9064      2.2397   4.8974476269e+01   5.0313928827e+01    0.3985273    0.3236169  -7.01 0.0005390618    1.304    0.233
        59  -8.6182    187.3199      9.7239   4.5207774094e+01   3.6814926429e+01    0.2214671    0.1431921 -59.47 0.0002778158    1.612    0.380
        60  -9.1385    190.5864      7.7391   4.4239663334e+01   3.6153831306e+01    0.2781219    0.1824169  62.53 0.0007140205    1.480    0.324
        61 -12.0741     25.4099      6.1596   8.7969627047e+01   7.2930459093e+01    0.6442938     0.446326 -18.91  0.002227653    1.234    0.189
        62 -12.5663     54.3994     65.1032   9.9038440285e+01   5.7979362618e+01     2.000648     1.531762  67.94  0.009185456    1.763    0.433
        63  -8.5684    248.7700      1.4333   3.7818644363e+01   2.2526449913e+01    0.1629788    0.1114885  64.35 0.0005895362    1.614    0.380
        64  -8.4305    232.3245    232.6398   9.1691209918e+01  -4.5169393933e+00   0.09573504   0.08630223  51.70  0.000704287    1.781    0.438
        65  -9.5321    235.0791    249.2774   9.3694554633e+01  -6.5264039446e+00    0.2596724    0.1304096  30.04  0.001665057    1.511    0.338
        66  -9.5122    151.1747    249.6448   1.0761168377e+02   5.4366889437e+00    0.1645204    0.1590083  81.91 0.0008409808    1.335    0.251
        67  -9.2915    124.8424    249.8675   1.1214044138e+02   9.2209181532e+00    0.1656641    0.1275628  35.93  0.000936193    1.253    0.202
        68  -9.5718    219.3870    231.0125   9.3563790094e+01  -2.4790774442e+00    0.2020205    0.1662879  62.12   0.00115613    2.023    0.506
        69 -10.3266     33.1934    165.1979   1.2211699365e+02   3.6825196744e+01    0.1929265    0.1695179  17.63 0.0009140242    1.634    0.388
        70  -9.8962     11.0583    164.6929   1.2689886098e+02   3.9010683801e+01    0.2741135    0.1570352  49.11  0.001460947    1.594    0.373
        71 -10.0881      2.8337    160.7984   1.2842194652e+02   4.0511716382e+01    0.3134709    0.1786426 -77.56  0.001423804    1.445    0.308
        72  -9.9022      3.0794    156.9108   1.2814647368e+02   4.1328581275e+01       0.3197    0.1692092  53.13  0.001349162    1.678    0.404
        73  -8.1383     20.5088    232.4863   1.2861709874e+02   2.5033795030e+01    0.1025603   0.07107922  66.72  0.000418774    1.027    0.026
        74 -10.7193     30.7238    151.2847   1.2144154825e+02   4.0165135875e+01    0.2694551    0.1928636 -62.10  0.001026957    1.447    0.309
        75  -9.9958     46.5577    144.5452   1.1687788596e+02   4.0035914330e+01    0.3871225    0.2690705 -30.78  0.002083077    2.293    0.564
        76 -10.4477     21.5657    137.7979   1.2239724550e+02   4.4094931647e+01    0.4432087    0.2676576 -31.05  0.002301393    2.873    0.652
        77  -9.5738     31.2610    134.4768   1.1959679105e+02   4.3980016321e+01    0.2237379    0.1986242 -19.91 0.0008871699    1.592    0.372
        78 -11.1120     30.3417    142.8582   1.2071506602e+02   4.2123822802e+01    0.4961224    0.3248707 -52.29   0.00293187    1.738    0.425
        79 -10.2843     27.3162    138.4306   1.2101995153e+02   4.3432029707e+01    0.3068366    0.2053075 -88.23  0.001197705    1.233    0.189
        80 -10.1311     35.9092    151.7851   1.2026110454e+02   3.9528334701e+01    0.3216061    0.1976437  83.05 0.0006301638    1.465    0.317
        81 -10.8401     39.9160    146.8654   1.1878356784e+02   4.0229764316e+01    0.3880205    0.3671474 -75.94  0.001812779    1.289    0.224
        82  -9.4491     12.7188    231.8719   1.2985895696e+02   2.5908860158e+01    0.2131862    0.1042534  57.74   0.00150085    1.426    0.299
        83  -8.6902    226.9404    231.5432   9.2399706073e+01  -3.6339123075e+00     0.167338   0.08766565  35.12 0.0004467045    1.524    0.344
        84  -9.8096     66.4848    148.3562   1.1241197079e+02   3.6700844405e+01    0.2850466    0.2432413  64.46  0.001775721    1.124    0.110
        85  -9.8154     70.4619    142.5196   1.1056877542e+02   3.7511231489e+01    0.2714671    0.2012261  64.46  0.001527855    1.317    0.241
        86 -10.0689     37.0169    143.0413   1.1908176771e+02   4.1414921415e+01     0.320046    0.2470977  71.87   0.00125103    1.159    0.137
        87 -11.3752     23.7384     52.3709   1.0770184916e+02   6.4016420414e+01    0.7116269    0.4407308 -62.18  0.004059634    1.355    0.262
        88 -10.3459     55.7298    137.0883   1.1357260961e+02   4.0700053186e+01    0.2638015    0.1903155  31.75  0.001503057    1.633    0.388
        89  -9.2986    236.5017    135.4788   7.2603036921e+01   7.1644811049e+00    0.2695896    0.1325485  47.26  0.000980919    2.154    0.536
        90  -9.2607     69.7318    135.1517   1.0961194637e+02   3.9337064991e+01    0.2869548     0.143212 -43.82  0.001201069    2.606    0.616
        91  -9.6516     72.8520    129.6035   1.0785588599e+02   4.0213158429e+01    0.2986645    0.1988945 -73.06  0.001225312    1.426    0.299
        92  -8.1573     95.6557    131.3108   1.0209398924e+02   3.6285794523e+01     0.150409    0.1056078  76.29 0.0007045578    1.703    0.413
        93 -10.6242     79.9453    129.0354   1.0584249035e+02   3.9311897723e+01    0.2198079    0.1877771 -74.90            0    1.064    0.060
        94  -8.8402     81.1003    124.5223   1.0468588726e+02   4.0205815240e+01     0.190411    0.1774204  59.47 0.0006226277    1.139    0.122
        95  -8.9395     75.1406    125.0581   1.0642332471e+02   4.0965227177e+01    0.2661344    0.1593171  63.09 0.0008815821    1.998    0.499
        96 -10.0739     91.3639    121.2925   1.0122374648e+02   3.9339223929e+01    0.4152258    0.3161685 -62.81 0.0009844748    1.234    0.190
        97  -9.0945     92.5293    115.4701   9.9651694315e+01   4.0514510196e+01    0.3079898    0.1352579 -55.17  0.001010872    2.134    0.531
        98  -8.7849     90.8677    112.5231   9.9463121858e+01   4.1487300538e+01     0.225916    0.1964542 -41.31 0.0008943076    1.226    0.184
        99  -9.8348     98.6706    113.6315   9.7524367583e+01   3.9886589317e+01    0.4756505    0.3133358  59.89  0.001832623    1.767    0.434
       100  -8.9757    106.0694    119.5372   9.6851424721e+01   3.7191380266e+01    0.2762587    0.2368359 -12.36 -7.261919e-05    1.485    0.327
       101  -8.8763    104.5238    116.5243   9.6582166351e+01   3.8167215934e+01    0.2406642    0.2188996 -72.98 0.0007046897    1.052    0.049
       102  -8.5581    132.4715    119.4332   8.9989733917e+01   3.2063939470e+01    0.1491884    0.1461985 -84.83 0.0001175151    1.008    0.008
       103  -9.0571    136.0000    230.9728   1.0817940260e+02   1.0301472300e+01    0.1600303    0.0675922 -53.51 0.0008062124    2.969    0.663
       104  -9.0588    143.0739    114.3615   8.6122580250e+01   3.0904886424e+01    0.2426765    0.2069465 -29.20 0.0003478144    1.237    0.192
       105  -8.2647    104.3729    109.1814   9.4882901183e+01   3.9888814185e+01    0.2441788    0.2028612  76.58 0.0005209134    1.340    0.254
       106  -9.3198    108.2320    114.2406   9.5042406665e+01   3.8009042712e+01    0.3770299    0.1410325 -56.08  0.001252439    2.884    0.653
       107  -9.2317    107.5806    110.1940   9.4244586572e+01   3.9058558494e+01     0.321392    0.2115726 -35.94  0.001231441    1.741    0.426
       108  -8.9793     81.6744    114.5474   1.0252284055e+02   4.2490205172e+01    0.3225201    0.2349988  -4.94  0.001501241    2.246    0.555
       109  -9.7855    131.8836    110.9900   8.8025608283e+01   3.4019384902e+01    0.6166866    0.3159358  43.37   0.00243567    2.010    0.503
       110  -9.0994    136.0213    106.8163   8.5890974461e+01   3.4033647023e+01    0.3282295    0.2193792  52.19  0.001042273    1.566    0.361
       111  -9.9090    133.0194    102.8859   8.5591601564e+01   3.5524102752e+01    0.4715795    0.3548086  15.64  0.002114859    1.780    0.438
       112 -12.1165     38.9202     92.7853   1.1125693215e+02   5.3219274811e+01    0.9790267    0.7513272  32.94  0.005900888    1.545    0.353
       113  -9.7910    149.3225    106.9061   8.2673482299e+01   3.1077638651e+01     0.529074    0.2287126 -38.55  0.001863105    2.370    0.578
       114  -8.1820    120.7022    109.7231   9.0592241820e+01   3.6606402861e+01    0.1457684    0.1213076  -5.51  0.000182359    1.534    0.348
       115  -8.4534     94.5994    109.4743   9.7702009035e+01   4.1568945104e+01    0.1464665    0.1338658 -60.70 5.173331e-05    1.037    0.035
       116  -9.9875    113.6610    107.1026   9.1810106904e+01   3.8594734520e+01    0.2843012    0.2563937  87.12 0.0009044343    1.171    0.146
       117  -9.1803    171.1957    102.5173   7.6554924511e+01   2.6910703731e+01    0.3992881    0.2620397  27.49  0.001654776    1.939    0.484
       118 -10.9500    141.8390    101.7945   8.3086444642e+01   3.3813883166e+01    0.4040848    0.3215001  24.08 0.0007976288    1.469    0.319
       119  -9.0926    105.5068    102.9140   9.2991294836e+01   4.1115459995e+01    0.2653426    0.1723902 -45.84 0.0005622737    1.485    0.326
       120  -9.4475    106.2874     98.9839   9.1738206825e+01   4.1861834771e+01    0.2539844    0.2185323  34.56  0.001321526    1.267    0.211
       121  -8.3025     95.7962    103.3937   9.5887837667e+01   4.2779600475e+01    0.1898201    0.1438219  24.91 0.0008486341    1.613    0.380
       122  -8.8692     39.9921    102.7018   1.1271018288e+02   5.0717299102e+01    0.1713848    0.1589316  85.69 0.0004196972    1.149    0.130
       123  -9.1568    152.1396    101.7509   8.0604893835e+01   3.1489089437e+01     0.251438    0.2060656 -53.45 0.0002958108    1.258    0.205
       124 -10.2908    157.8327     95.9021   7.7648898733e+01   3.1331754693e+01    0.7015322    0.4327311  55.97   0.00293793    1.744    0.427
       125  -9.5281    151.4351     96.3359   7.9249494243e+01   3.2742071493e+01    0.4041898    0.3096823  87.53  0.001797045    1.762    0.432
       126  -8.6687     58.9269    101.6998   1.0662613096e+02   4.8797186006e+01    0.1785861    0.1702727  68.39 0.0006056119    1.160    0.138
       127 -10.2852      5.1530     87.0418   1.2148618118e+02   5.7195532114e+01    0.8295166    0.2665479 -58.53  0.003842677    2.290    0.563
       128  -9.4090      1.7829     84.5842   1.2228375799e+02   5.7952384956e+01     0.216106    0.1371197 -68.63  0.000598497    1.193    0.162
       129 -10.5643      4.5584     99.6143   1.2317301634e+02   5.4272072237e+01    0.6339349     0.237215 -57.67  0.003107849    2.183    0.542
       130  -8.9559      2.6639     95.7277   1.2332112740e+02   5.5292912885e+01    0.2352032    0.1315975 -51.43 0.0003624015    1.724    0.420
       131  -9.4127    115.4625    100.5841   8.9608382566e+01   3.9700062099e+01    0.2836302    0.1370596 -37.66   0.00102935    2.356    0.576
       132  -8.8193    110.9637    100.6444   9.0866796268e+01   4.0580181023e+01    0.1986469    0.1882509  53.45 0.0003922312    1.102    0.093
       133  -9.8958     65.0784     98.2790   1.0396787424e+02   4.8810996010e+01    0.4828022    0.2312488  35.25  0.002109442    2.333    0.571
       134  -8.9943    132.4351     96.7935   8.4049550814e+01   3.6950255506e+01    0.2788592    0.1947806 -36.24 0.0007781325    1.455    0.313
       135  -9.3313    139.8393     95.3226   8.1759723782e+01   3.5608580530e+01    0.4310124    0.2683891  49.02  0.001040782    1.653    0.395
       136 -12.3876     81.8966     76.0358   9.2657181115e+01   5.1450555963e+01    0.7302053    0.4670823 -58.99  0.003406727    1.603    0.376
       137  -9.1592    226.7822     95.4551   6.4469127550e+01   1.5282473769e+01    0.2514431     0.149183  60.93  0.001002697    1.992    0.498
       138  -8.9718    188.9645     95.0110   7.0886459944e+01   2.4081702866e+01    0.2304696    0.2175505 -28.49 0.0003661255    1.017    0.017
       139 -10.9400    114.2457     94.2843   8.8207656782e+01   4.1344092804e+01    0.5325097    0.4305567  35.93  0.002657946    1.338    0.253
       140 -10.1109    124.1847     81.8335   8.1781107824e+01   4.1907448666e+01    0.5586454    0.2931917 -49.67  0.002167699    1.969    0.492
       141 -11.0427    122.7607     92.4714   8.5357024548e+01   3.9967500470e+01     0.643427    0.4199223  57.65  0.001695273    1.753    0.430
       142 -11.3129    119.4424     86.6126   8.4533906386e+01   4.1929877022e+01    0.8338993     0.336154  50.99  0.002724229    2.781    0.640
       143 -11.6269     40.7444     78.5858   1.0765115638e+02   5.6428312694e+01    0.7479663    0.6302159  60.53  0.002576648    1.380    0.275
       144  -8.4935    187.4932     89.5378   6.9639081466e+01   2.5398393705e+01    0.1548741    0.1474564 -42.57 0.0001934549    1.050    0.048
       145 -11.1242    133.4359     80.5519   7.8948192961e+01   4.0086060227e+01     1.436931    0.7335457 -39.42  0.005103623    1.900    0.474
       146  -9.1956    202.2148    228.9821   9.6158949721e+01   3.2215285167e-01    0.1896831    0.1315231  33.04 0.0003595527    1.143    0.125
       147 -10.0835    150.6007     59.5342   6.7940702993e+01   3.9842143927e+01    0.4964454    0.3743825  58.03  0.002331095    1.368    0.269
       148 -11.1574    145.2113     85.4909   7.7542981615e+01   3.6360470516e+01     1.379313     0.929943 -17.11  0.005692537    1.939    0.484
       149 -11.1827    152.9842     44.5793   6.2266899286e+01   4.1622255804e+01    0.8449728    0.7269696 -58.73  0.002286726    1.242    0.195
       150 -11.1286    150.3954     66.1815   7.0207444424e+01   3.8738799750e+01     1.137655    0.7303629 -34.69  0.004360435    1.517    0.341
       151 -10.8047    160.8170     50.7316   6.2827374976e+01   3.8653609545e+01    0.9451134    0.7127445 -67.36   0.00436519    1.581    0.367
       152 -10.3994    140.8678     51.9330   6.7493698159e+01   4.3559260150e+01    0.4592588    0.4144018  67.75   0.00126461    1.175    0.149
       153 -10.8136    166.4407     68.3360   6.7460422796e+01   3.4326991493e+01    0.4944932    0.4214186 -78.80  0.001488092    1.345    0.257
       154 -11.1446    165.4974     61.6832   6.5522162320e+01   3.5689969823e+01     1.336989    0.6133814 -41.81  0.004393002    2.143    0.533
       155 -11.5422    146.7695     74.9576   7.3893740591e+01   3.8023678540e+01      0.48676    0.3243083  49.01            0    1.534    0.348
       156 -11.5365    139.9634     73.0303   7.4908463897e+01   4.0026824953e+01     1.033173     0.629281 -41.54  0.001824104    1.593    0.372
       157 -10.9082    149.4848     53.2956   6.6047841094e+01   4.1161756477e+01    0.9895886    0.5494238  55.28  0.004043402    1.808    0.447
       158 -12.0891    141.6279     44.5127   6.4645154467e+01   4.4546982174e+01    0.9223176    0.6896907 -83.59  0.002559189    1.756    0.431
       159  -8.9499    112.7094     87.6657   8.6727626136e+01   4.3108623017e+01    0.2838937    0.1767368 -36.07 0.0006198365    1.676    0.403
       160 -11.3686      6.7671     56.3475   1.1585435568e+02   6.4238529003e+01     1.231096    0.8305309  75.38  0.006654062    1.830    0.454
       161  -9.6832    164.5775     75.6197   7.0126156388e+01   3.3516229251e+01    0.5384008    0.3764759  88.59  0.001334169    2.076    0.518
       162  -8.6700    224.6231     84.8461   6.2036846260e+01   1.7405916705e+01    0.2063711    0.1213761 -40.47 0.0009179364    1.581    0.368
       163  -8.7580     76.2257     83.8482   9.6787722396e+01   5.0592724718e+01    0.2700029    0.1548721  51.03  0.001188577    2.105    0.525
       164 -10.1030    161.2004     81.7293   7.2724730254e+01   3.3235115898e+01    0.4256334    0.3457552  47.15  0.001089808    1.262    0.208
       165  -9.6011    216.9164     78.5067   6.1510584366e+01   2.0166885597e+01     0.329752    0.2824296  13.78  0.001687668    1.294    0.227
       166  -8.7454     50.4816    227.4786   1.2327525597e+02   2.2627112268e+01    0.1094959   0.07948139  64.41 5.583606e-05    1.004    0.003
       167  -7.8887      7.3247     71.2988   1.1841109269e+02   6.0765056009e+01    0.2160691   0.09924305 -54.79 0.0008112784    1.708    0.414
       168  -9.3107      5.5534     77.5303   1.2003029779e+02   5.9406061370e+01    0.2323533    0.1854352  65.95  0.001586618    1.406    0.289
       169  -9.9043      3.4111     73.8710   1.2024571282e+02   6.0372277735e+01    0.3927739    0.1589995 -55.92  0.001488067    1.891    0.471
       170  -9.2513    247.6702     75.6706   5.6496286240e+01   1.3668242281e+01    0.2989759    0.1739923 -56.32 0.0009712006    2.096    0.523
       171  -8.6503    204.5270     75.5009   6.2641165584e+01   2.3605462918e+01     0.265745    0.1307007  46.34  0.001026487    2.204    0.546
       172 -10.5389    143.6213     58.2153   6.9063888734e+01   4.1816872937e+01    0.2758483    0.2682247  -2.57 0.0003177367    1.024    0.023
       173  -9.9049    190.0626     77.1156   6.5593566434e+01   2.6898633932e+01    0.7868761    0.3363477  36.06  0.002336485    3.870    0.742
       174  -9.1306    176.7034     68.5362   6.5498967511e+01   3.1689216494e+01    0.4255992    0.2689478  87.37  0.001614099    2.476    0.596
       175  -9.8182     84.5906     67.6904   8.9109529981e+01   5.2814247652e+01    0.3006912    0.2865349 -69.99  0.000845078    1.141    0.123
       176  -8.9242    137.5875     59.2024   7.0830845928e+01   4.3134670197e+01    0.3196846      0.23275  34.75 0.0009199405    1.506    0.336
       177  -9.0889    133.9418     62.8105   7.2977828133e+01   4.3372299603e+01    0.4474577    0.2151633  48.92  0.001340108    2.108    0.526
       178  -9.4263    129.1653     60.3956   7.3346869295e+01   4.4949445085e+01    0.4835974    0.2356323  57.28  0.001730976    2.299    0.565
       179  -8.7647    111.6641    225.4205   1.1202726736e+02   1.4823974569e+01    0.2492714   0.06748731  49.33  0.000962376    3.394    0.705
       180  -8.6596    207.4404     61.5146   5.8196591596e+01   2.5046554016e+01    0.1504647     0.139213 -40.85 0.0001478931    1.015    0.015
       181 -11.1470    193.2117     54.0277   5.8172680459e+01   2.9747791577e+01     1.158332     1.086404  15.22  0.006296589    1.145    0.127
       182  -9.5307    179.1075     44.6880   5.7529217121e+01   3.4764907582e+01    0.3101129     0.266105   2.80 0.0008942533    1.298    0.230
       183 -10.4023    173.5307     47.4997   5.9389820980e+01   3.5821679915e+01    0.6515159    0.3716335  62.30  0.002722902    1.789    0.441
       184 -10.1314    174.0069     57.3721   6.2497439259e+01   3.4194824144e+01    0.4876163    0.3963774  29.65  0.001600494    1.369    0.270
       185 -10.3023    177.6146     51.8480   6.0081800493e+01   3.4108685424e+01     0.555999    0.4031501  34.77  0.001615831    1.569    0.363
       186 -11.2402    185.0242     55.9353   6.0096316317e+01   3.1568887211e+01    0.5250823    0.4534006  15.72 0.0002937352    1.300    0.230
       187 -11.0203    183.4677     51.8958   5.9097281871e+01   3.2579096117e+01     0.385953    0.3058201  54.09 0.0004843816    1.291    0.225
       188  -9.1601    212.0302     59.5548   5.6965729068e+01   2.4203090431e+01    0.2806178     0.205271  -6.74   0.00062212    1.609    0.379
       189  -9.0057    201.3385     59.6538   5.8582888499e+01   2.6847069472e+01    0.2555288    0.2087164 -26.77 0.0007126969    1.191    0.160
       190  -9.8678    222.2004     56.5927   5.4743739434e+01   2.2156007739e+01    0.4638939    0.3899798  23.31  0.001800246    1.385    0.278
       191  -9.5203    243.8897     55.8375   5.1902865817e+01   1.7228011061e+01     0.461503    0.2043909 -35.07  0.001972684    1.888    0.470
       192  -7.9922    158.4315     59.0000   6.6083893691e+01   3.7942776095e+01    0.3444951   0.08950754  57.39 0.0009343765    3.932    0.746
       193 -12.8681     14.4161    127.2036   1.2321921979e+02   4.7135392396e+01     1.153198    0.8269427  45.09  0.001122058    1.516    0.340
       194  -9.6843    233.5063     55.2712   5.2965601438e+01   1.9669385231e+01    0.2699898    0.2608123  76.62 0.0007153826    1.138    0.122
       195  -8.9411    211.4492     51.3955   5.4720829240e+01   2.5514305906e+01    0.4117443    0.2015644 -10.48  0.001362472    3.398    0.706
       196  -8.5438    126.9385     50.9761   7.0518675906e+01   4.7133535466e+01     0.217885    0.1740435  13.68 0.0003164984    1.432    0.302
       197  -9.0174     53.1707    224.1540   1.2258492847e+02   2.2890528606e+01    0.1600044   0.09609698  64.69 0.0007520341    1.322    0.244
       198  -9.6857    224.4113     48.3798   5.2205605086e+01   2.2755691311e+01    0.4799081    0.2303745 -46.39  0.001981309    2.017    0.504
       199  -9.6785    219.9832     43.4332   5.1373637702e+01   2.4490488203e+01    0.4562837     0.222616 -36.83  0.001671677    1.808    0.447
       200  -8.5707     16.2304     50.6016   1.1048310295e+02   6.4964956022e+01    0.1514906    0.1052404 -19.63 0.0006285343    1.661    0.398
       201 -10.4008    207.2138     45.5276   5.3598606282e+01   2.7386391709e+01    0.4669043    0.3564321 -52.40  0.001415907    1.288    0.223
       202  -8.1430    129.6706     46.2813   6.8086825091e+01   4.7248411669e+01    0.2254893    0.1220182 -52.89 0.0005153946    2.405    0.584
       203 -10.2963    129.6359     40.9557   6.6076664300e+01   4.8092322419e+01    0.5783231    0.4710993  81.37  0.002648487    1.466    0.318
       204  -8.1291     16.9428     45.4000   1.0875266876e+02   6.6066389839e+01    0.3092232    0.1238029 -39.75  0.001428754    2.377    0.579
       205  -8.4580    248.9664     44.9765   4.8594192633e+01   1.7518249680e+01    0.1692495    0.1428747 -39.61 0.0005046259    1.027    0.026
       206  -9.0738     41.1648    221.0376   1.2451782343e+02   2.4833434965e+01    0.1544112    0.1111699 -52.92  0.001014297    2.094    0.523
       207  -8.8715     34.0104    219.4920   1.2569113853e+02   2.5899589782e+01    0.1471485   0.08984628  41.53 0.0004436487    1.558    0.358
       208  -8.7841    224.6677    215.3302   9.0225313317e+01  -1.4982876743e+00    0.1029157   0.09246307  58.51 0.0007052007    1.722    0.419
       209  -9.3199    214.1546     42.3561   5.1785268576e+01   2.6071906063e+01    0.3827584    0.2365355  -4.16  0.001617683    2.227    0.551
       210  -9.1339      3.2079    214.1693   1.3077159815e+02   2.9909474676e+01    0.1635502   0.05658458  84.22 0.0008731575    2.558    0.609
       211  -9.3369     26.5508    212.2715   1.2662080584e+02   2.8006812700e+01     0.193555   0.08613953 -86.63  0.001134378    2.046    0.511
       212 -10.9244    217.2196     35.1564   4.9378747162e+01   2.6238272000e+01    0.7993056    0.3678521  59.17  0.002239597    2.198    0.545
       213  -9.3520     13.6604    211.5994   1.2886786709e+02   2.9411923083e+01     0.206484    0.1029223  88.72  0.001344458    1.673    0.402
       214 -10.2781    244.3334    204.5084   8.5148637007e+01  -3.2296089573e+00    0.2396642    0.1524607   6.84 0.0005085667    1.493    0.330
       215 -10.5452    232.9406    198.9660   8.6049391734e+01  -8.3688935261e-01     0.360351    0.2809629  60.42  0.002186751    2.102    0.524
       216  -8.2877    167.3565     42.2823   5.8748700536e+01   3.8197084973e+01    0.1606217    0.1129688  31.12 0.0007016843    1.665    0.400
       217  -9.3694    191.2125     39.8027   5.4111802949e+01   3.2269721586e+01    0.3277417    0.2237737  19.05 0.0005827066    1.968    0.492
       218  -9.3006     27.3690    193.7614   1.2540322672e+02   3.1469980757e+01    0.1977413    0.1237591 -76.02  0.001254921    1.497    0.332
       219 -10.2795    180.8309     38.1230   5.5137430975e+01   3.5217125669e+01    0.4858169      0.35747 -53.77  0.002152688    1.410    0.291
       220  -9.4517    173.8981     38.9002   5.6499638215e+01   3.6941945684e+01    0.3813216     0.244886  61.16  0.001715004    1.548    0.354
       221  -8.8104    235.7151     39.0732   4.8425097626e+01   2.1285010608e+01    0.2017833    0.1622992 -35.05 0.0005546633    1.125    0.111
       222  -9.4139    197.9883     37.3588   5.2415658532e+01   3.0833471931e+01    0.2059807    0.1862176  76.68 0.0005315166    1.125    0.111
       223  -8.3573    169.4991    200.5243   9.7754640619e+01   9.5222227008e+00    0.1275067    0.1092603  39.48 -5.606074e-06    1.056    0.053
       224  -8.9676    124.3564     35.6417   6.5282090051e+01   5.0180955534e+01    0.2954517    0.2554283  16.81   0.00155364    1.186    0.157
       225 -10.3211    245.9003     33.3481   4.5945785500e+01   1.9649714256e+01     1.146065    0.4456876  83.52  0.003996809    4.039    0.752
       226  -9.8678     11.4755    192.1988   1.2835071808e+02   3.3315420254e+01    0.2066756    0.1785285  60.24  0.001675326    1.346    0.257
       227  -8.9861    216.0007    189.0325   8.7175401483e+01   3.2053197013e+00    0.1572607    0.1315579  13.82  0.000693157    1.011    0.011
       228 -10.5359    246.5792     18.9000   4.2252512471e+01   2.1176488176e+01    0.5321655    0.2469229  71.66  0.002110853    2.276    0.561
       229  -9.6640      1.4996    188.0307   1.3003384506e+02   3.5010465595e+01    0.2618858   0.08263717 -81.88  0.001329307    2.597    0.615
       230  -9.3072    244.9708    187.6528   8.1999646265e+01  -1.3581977442e+00    0.1715938    0.1316087  22.63 0.0004786271    1.149    0.129
       231 -10.2613    235.2288     33.7148   4.7061887190e+01   2.2065040152e+01    0.4467689    0.3749447  37.03  0.002474014    1.423    0.297
       232 -10.4357    237.7376     28.0357   4.5334381185e+01   2.2161005231e+01    0.4791495    0.3259225  -6.17  0.002161419    1.840    0.456
       233  -9.5913    202.8333     34.8317   5.1022868750e+01   2.9911020890e+01    0.2129401    0.1999781  29.98 0.0005159863    1.175    0.149
       234 -11.0104    135.6143     34.5287   6.2237896589e+01   4.7537444872e+01    0.6384016    0.3898188  15.74 9.966228e-05    2.369    0.578
       235  -8.8743    135.2664     30.3314   6.0694657326e+01   4.8198623779e+01    0.2465177    0.1803375  56.56 0.0002039745    1.347    0.258
       236  -8.2722    130.3208     35.2811   6.3722982227e+01   4.8761520175e+01    0.1550713    0.1108702  25.81 0.0006993397    1.586    0.370
       237 -10.0765     11.7272    184.7443   1.2791836642e+02   3.4779580454e+01    0.2050127    0.1318939 -66.21  0.001229765    1.687    0.407
       238  -8.0907    176.5158     14.5783   4.8057672190e+01   3.9178262938e+01    0.3998048    0.1826899  66.55  0.001108059    2.062    0.515
       239  -9.8773    172.6959     31.3374   5.4177823634e+01   3.8255298957e+01    0.5595173    0.2840077  38.17  0.002109369    2.473    0.596
       240  -9.8587    185.4022     23.6695   4.9845871432e+01   3.5816775152e+01    0.4244044    0.1830872 -42.57  0.001632966    2.257    0.557
       241  -9.6377    188.8609     19.7745   4.8176346666e+01   3.5348317107e+01    0.2804461    0.2157268  30.22 0.0005652118    1.518    0.341
       242  -9.6924      5.9914    185.5334   1.2906719174e+02   3.5125797308e+01     0.144381   0.09460434  41.84   0.00082744    1.570    0.363
       243  -9.3013     32.3745    184.1931   1.2377299881e+02   3.2883790173e+01    0.1641539   0.08729877  87.83  0.000869494    1.665    0.400
       244  -8.6121     18.1254    182.2167   1.2651335353e+02   3.4705393086e+01    0.1629071   0.09586765  67.38 0.0005296422    1.354    0.261
       245  -9.4672    228.0228     30.9691   4.7054912083e+01   2.4113585632e+01    0.2649588    0.2272248 -43.18 0.0006399525    1.054    0.052
       246  -9.5188    226.7510     27.7274   4.6306271782e+01   2.4809315731e+01    0.4556856    0.2893364  40.88  0.002185496    1.967    0.491
       247  -9.2770    198.8362     31.9054   5.0656286289e+01   3.1308948283e+01    0.2169854    0.1968559  14.08  0.000539217    1.240    0.193
       248  -9.2596    146.6907     28.9507   5.7848943978e+01   4.5431630771e+01    0.3669063     0.331208 -53.18  0.001974978    1.162    0.139
       249  -9.6746    147.7730     23.8941   5.5762040994e+01   4.5773976111e+01    0.3945986    0.2068408  62.94  0.001144027    1.856    0.461
       250  -8.9364    153.5897     23.8613   5.4716262621e+01   4.4245635539e+01     0.528774    0.3206005 -42.96  0.002013018    1.707    0.414
       251 -10.5003      1.6619    178.6489   1.2957875664e+02   3.6878540466e+01    0.4347041    0.1164387 -83.65  0.001949935    3.159    0.683
       252  -8.8197     36.6436    179.3448   1.2252996820e+02   3.3436263392e+01    0.1909973    0.1022218  66.48 0.0006983987    1.664    0.399
       253  -9.0669    191.6161    178.1550   8.9639689416e+01   9.0983713956e+00    0.2043464     0.168914  42.72 0.0004857776    1.201    0.167
       254  -8.8351     79.7799    176.5985   1.1296236487e+02   2.8633152927e+01    0.2225351    0.1450745 -57.63  0.001082447    1.651    0.394
       255  -9.5130      7.5033    174.8174   1.2822434533e+02   3.7179591021e+01    0.2154744     0.136127 -89.82  0.001162515    1.234    0.189
       256  -9.8561    249.0115     25.5018   4.3700908733e+01   1.9878129859e+01     0.335043    0.2686758  28.34  0.001923686    1.615    0.381
       257  -8.8769    136.2925     25.4331   5.8572185901e+01   4.8567236556e+01    0.3050874    0.1806742  -5.05  0.001251268    2.147    0.534
       258  -9.1970    141.2894     22.8911   5.6595683800e+01   4.7586846811e+01    0.3566834    0.1927037  35.36 0.0008353119    2.167    0.539
       259  -8.8613    245.5020    170.9898   7.8695392979e+01   6.3877689233e-01    0.1630285    0.1019042 -48.54 0.0007751076    2.466    0.594
       260  -9.4001    198.6683     16.3339   4.5986072144e+01   3.3163894582e+01    0.2954828    0.2104327  47.91  0.001377473    1.522    0.343
       261  -8.5567    188.4402     15.2764   4.6818159378e+01   3.5948800712e+01    0.1854091    0.1266958 -40.34 0.0004390079    1.412    0.292
       262  -8.5292     61.8244     15.6587   7.5727328785e+01   6.6280639253e+01    0.1551494     0.122221  50.41 0.0008992134    1.572    0.364
       263  -9.1410     67.5257     13.1743   7.2184442596e+01   6.5609610640e+01    0.2059814    0.1852042  60.43  0.001272765    1.471    0.320
       264 -12.9840      6.2989    143.6444   1.2657011802e+02   4.4001268284e+01     2.367987      1.07913  61.03  0.009110199    2.043    0.510
       265  -9.9783    107.0683    247.6205   1.1497761565e+02   1.2044113498e+01    0.3718418    0.1588186  63.08  0.001720088    3.404    0.706
       266 -13.1163     16.4481    104.0127   1.2011372678e+02   5.2448848595e+01     2.188715    0.8693148 -50.82   0.01020435    2.461    0.594
       267  -9.7173     58.9866    247.4323   1.2306393381e+02   1.8310140548e+01    0.1893781    0.1034022  70.20   0.00128118    1.620    0.383
       268  -9.1392     30.5743    247.6896   1.2765715569e+02   2.1479260315e+01    0.1570574    0.1229816 -83.21  0.001346348    1.500    0.333
       269  -9.6562      3.2826    246.8586   1.3183028347e+02   2.4331478542e+01     0.197935    0.1178704 -70.97   0.00153091    2.017    0.504
       270  -8.8485    217.5193    247.5228   9.6246931063e+01  -3.9520994561e+00     0.110735   0.07992237  23.95 0.0004245001    1.019    0.019
       271  -9.6318     91.5635    245.7677   1.1747630295e+02   1.4435083538e+01     0.138301   0.09120861  84.83 0.0009116234    1.669    0.401
       272 -10.0248    142.2308    243.6183   1.0849233205e+02   7.5566530981e+00    0.2674564    0.1776283  31.76 0.0009708442    1.414    0.293
       273  -8.6268    194.4683    244.4680   9.9631345151e+01  -3.1799427592e-01    0.1128042   0.08444794  29.59  0.000140604    1.005    0.005
       274  -8.6294    211.2144    240.0137   9.6230142828e+01  -2.2678871557e+00    0.1263145   0.08661038 -26.21 0.0008705046    1.699    0.411
       275 -10.4271     14.8621    237.4498   1.2972646285e+02   2.4759917425e+01    0.3054225    0.1440401  79.22 0.0008841057    1.743    0.426
       276  -9.2435     55.2480    237.7787   1.2309914310e+02   2.0316917551e+01    0.1294513    0.1178216  64.72  0.001082144    1.413    0.292
       277  -9.7911    190.4163    236.1904   9.9204398982e+01   1.2507703651e+00    0.1307862    0.1111582 -50.39 0.0006153714    1.671    0.402
       278  -9.0723    180.9511    234.7421   1.0064380991e+02   2.8684165392e+00    0.1584556   0.07957999  38.68  0.000889815    1.564    0.361
