#   1 NUMBER                 Running object number                                     
#   2 MAG_AUTO               Kron-like elliptical aperture magnitude                    [mag]
#   3 X_IMAGE                Object position along x                                    [pixel]
#   4 Y_IMAGE                Object position along y                                    [pixel]
#   5 X_WORLD                Barycenter position along world x axis                     [deg]
#   6 Y_WORLD                Barycenter position along world y axis                     [deg]
#   7 A_WORLD                Profile RMS along major axis (world units)                 [deg]
#   8 B_WORLD                Profile RMS along minor axis (world units)                 [deg]
#   9 THETA_WORLD            Position angle (CCW/world-x)                               [deg]
#  10 FWHM_WORLD             FWHM assuming a gaussian core                              [deg]
#  11 ELONGATION             A_IMAGE/B_IMAGE                                           
#  12 ELLIPTICITY            1 - B_IMAGE/A_IMAGE                                       
         1 -14.4672     68.6137    144.0394   1.0181498153e+02   3.7469194542e+01     4.958228     2.094297  59.99  0.003760954    5.571    0.821
         2 -13.2755    197.4507     41.8223   4.3781612720e+01   3.1017345900e+01     1.142689    0.9911746 -47.46  0.003233114    1.148    0.129
         3 -13.8726    206.4646     32.7623   4.0420806273e+01   3.0088907702e+01     1.568821     1.084047  -7.06  0.001372508    2.213    0.548
         4 -12.2879    233.8732      7.3050   3.2164343283e+01   2.6975583243e+01    0.6413692    0.4940559 -16.21  0.004152188    1.815    0.449
         5 -12.5773    228.3088      5.3139   3.2151300542e+01   2.8366644160e+01    0.6316376    0.5083609 -20.06  0.004222877    1.645    0.392
         6 -11.1672     43.3492      8.4501   6.9102567832e+01   6.8748291259e+01    0.2058691    0.1945282 -38.22  0.001470602    1.640    0.390
         7  -9.5963     62.4579      8.4986   6.1471836421e+01   6.5568253088e+01    0.1255346    0.1003927  18.79 0.0001178865    1.021    0.020
         8 -10.9759     56.5743      4.9918   6.1951652963e+01   6.6962339920e+01    0.2887157    0.1643169  13.04  0.001539608    1.919    0.479
         9 -10.5472     27.9892      2.4902   7.3286107507e+01   7.1600465166e+01    0.2284064    0.1523369  46.12  0.001398095    2.187    0.543
        10 -11.3324    196.0609    204.7551   8.2045209120e+01   2.1910062819e+00    0.5672757    0.1886177  32.45  0.001985638    3.350    0.701
        11 -10.6520    140.2792    250.0677   1.0056374932e+02   3.3664468632e+00    0.4079448    0.1933748  39.37  0.001781621    1.736    0.424
        12 -11.0970    140.0000    245.9880   1.0009589614e+02   4.0879210996e+00    0.4689874    0.1960035 -54.94  0.002140295    2.989    0.665
        13 -13.3284     57.4693    185.4340   1.1076302583e+02   2.8751132218e+01     1.752741     1.243814  33.14  0.009761524    1.520    0.342
        14 -11.2095    202.6810    199.1252   7.9671928309e+01   2.0676980357e+00     0.344559    0.2418363  21.50  0.001860101    1.390    0.281
        15 -10.7487    121.1779    196.4091   9.7044129883e+01   1.6681612658e+01    0.4100078    0.2386748 -71.28 0.0008840833    2.334    0.572
        16 -10.8666    193.0825    195.1181   8.0849862077e+01   4.3850818723e+00      1.10155    0.5909753 -64.18  0.003218438    6.224    0.839
        17 -10.4555    110.7522    197.3824   9.9643402251e+01   1.8199691657e+01    0.2536637    0.2286955  14.63  0.001463874    1.248    0.199
        18 -16.6425      5.3821    213.2976   1.2441057530e+02   2.8035480590e+01     15.43197    0.4701788 -74.85   0.03921886    9.344    0.893
        19  -9.9349    109.5094    188.9851   9.8629690918e+01   2.0275405831e+01    0.2845171    0.1798391  -6.66  0.001037189    3.492    0.714
        20  -8.8686     72.1112    188.1359   1.0756777525e+02   2.6180124393e+01    0.2144503    0.1433243  71.52 0.0006411799    1.610    0.379
        21  -9.0064    147.9955    186.9775   8.9155100274e+01   1.3996567660e+01    0.2383102    0.1793011  -4.14  0.001144317    1.711    0.415
        22  -8.8325     80.7583    184.1556   1.0492176505e+02   2.5887456477e+01    0.2431608    0.1279629  67.45 0.0009373159    2.755    0.637
        23  -8.7208     90.8532    181.8718   1.0208916109e+02   2.4909524992e+01     0.251062     0.214867  29.42 0.0004223065    1.269    0.212
        24  -9.0640     93.5136    179.5359   1.0106404871e+02   2.5046200607e+01    0.2063928    0.1358418 -75.74 8.284968e-05    1.694    0.410
        25 -10.2529     99.1728    180.8195   9.9855121427e+01   2.3843838078e+01    0.2850527    0.2429547  21.94 0.0008304345    1.321    0.243
        26 -17.5097     11.2821    245.3034   1.2495478328e+02   2.1076168671e+01     6.797081     5.259851  78.06   0.02107316    1.130    0.115
        27  -9.9769    187.5974    175.8920   7.8191513888e+01   8.9451595726e+00    0.3792457    0.3136321 -58.70  0.001600998    1.468    0.319
        28  -8.7969    148.6089    175.3040   8.6786551253e+01   1.6372803836e+01    0.2892511    0.1989341  65.90 0.0006926198    2.023    0.506
        29  -9.6293    146.5760    171.8140   8.6576370294e+01   1.7514140738e+01    0.2647324    0.2317775  88.67 0.0007623953    1.363    0.266
        30 -13.6920     43.6470    110.6015   1.0325203238e+02   4.8886732058e+01     2.183359     1.438558  62.25   0.01070698    2.000    0.500
        31 -12.5317     54.6840    146.6633   1.0621939794e+02   3.8610393073e+01     3.245671    0.9515899 -46.87  0.009992969    4.140    0.758
        32 -10.0744     92.8649    249.1764   1.0993850023e+02   1.0477273279e+01    0.2817763    0.1420836  37.85  0.001033096    1.691    0.408
        33 -11.4306     75.3396    167.3734   1.0382345095e+02   3.0713240015e+01    0.3457563    0.3190964 -20.35  0.001065866    1.299    0.230
        34 -15.7744     50.3778    201.7034   1.1415782184e+02   2.5866640189e+01     14.54504       5.7389  78.47   0.02841383    6.386    0.843
        35 -10.0974     47.4490    171.8838   1.1161514034e+02   3.3212375252e+01    0.3426039    0.2737836 -17.73  0.001562363    1.757    0.431
        36  -8.7220    193.7287    171.0355   7.5908302927e+01   8.7458661556e+00    0.2047155    0.1813706 -24.70 0.0006322092    1.073    0.068
        37 -10.6213    240.4926    169.1728   6.6707940780e+01   9.4565163110e-01      0.21842    0.1669652   0.04 0.0009568631    1.326    0.246
        38  -9.1942    185.1760    168.8970   7.7251174273e+01   1.0762226575e+01     0.212822    0.2045077 -61.71 0.0006553145    1.209    0.173
        39  -9.9809     66.0036    194.4852   1.0980450741e+02   2.5532595648e+01     0.296854    0.2468756  37.63 0.0009241272    1.278    0.218
        40 -12.3367     83.5921    159.4899   1.0034739061e+02   3.1437149183e+01     1.188949    0.7639566  77.78 0.0008495859    2.105    0.525
        41 -11.0511     33.7989    164.1309   1.1416706559e+02   3.6579876881e+01    0.5734247    0.3274732 -20.74  0.002415198    3.491    0.714
        42  -8.9369    132.6476    162.3180   8.8057726608e+01   2.2279814173e+01    0.2483514    0.1867616  56.02 0.0007062329    1.451    0.311
        43 -13.1658     72.0286    154.0452   1.0257476364e+02   3.4484849510e+01    0.6647251    0.5368091 -64.21  0.001039273    1.155    0.135
        44 -11.6680     90.6453    152.0209   9.7082748428e+01   3.2180743544e+01    0.7399081    0.5100447 -26.35  0.003303413    1.983    0.496
        45  -9.0924    135.4638    165.4729   8.7997979853e+01   2.1027830772e+01    0.3905026    0.2001339  51.42  0.001488913    2.251    0.556
        46 -10.6949    133.7558    145.0042   8.4062365517e+01   2.6063929296e+01     1.220882    0.3346642 -55.25  0.002832011    5.703    0.825
        47  -8.8910    111.5761    149.7342   9.0927909118e+01   2.9158522329e+01    0.3979407    0.2264548  69.03  0.001311542    3.404    0.706
        48  -9.2039    174.8779    149.1404   7.5166656067e+01   1.6799224362e+01    0.2272488    0.2114738 -73.19 0.0003916902    1.225    0.183
        49 -10.6066     40.2349    146.9701   1.1031773975e+02   4.0163747915e+01    0.3270362    0.2586363 -50.04  0.001228167    1.294    0.227
        50 -10.2623    103.6557    138.2533   9.0658875075e+01   3.3367493605e+01    0.5711926    0.3464854 -25.33  0.002151077    2.578    0.612
        51 -11.6339     91.2277    137.8792   9.4113209416e+01   3.5589942468e+01     0.294383     0.266067 -37.96 0.0004226558    1.141    0.124
        52 -12.4106     44.7869    131.3752   1.0664554682e+02   4.3592180183e+01      0.85739    0.4392404 -74.48  0.003750738    2.002    0.500
        53 -10.0622    106.0016    130.8763   8.8338888461e+01   3.4736353810e+01    0.3575451     0.328346 -61.40  0.001233711    1.074    0.069
        54 -10.1875    135.6753    128.7076   7.9728204768e+01   2.9425330191e+01    0.4023478    0.1436044 -51.06  0.001235662    3.007    0.667
        55 -10.0919    112.6155    129.3290   8.6109268285e+01   3.3875691743e+01    0.3464005    0.2753713  10.81 0.0007947045    1.536    0.349
        56  -9.0092    160.8305    127.9910   7.3348404776e+01   2.4234145264e+01    0.2666956    0.1839667 -69.35  0.001090554    2.031    0.508
        57 -10.2287     99.6826    125.1058   8.8816533688e+01   3.7272602010e+01    0.3238074    0.2700006  -8.57  0.001520522    1.425    0.298
        58 -10.9792    118.6550    123.4076   8.2986999402e+01   3.4104693871e+01    0.5600644     0.403627  -1.71  0.002348912    2.040    0.510
        59  -9.3071    108.4233    118.4236   8.4641802782e+01   3.7260130223e+01    0.2478081    0.2449001  -9.88 0.0002606209    1.033    0.032
        60 -10.1185    231.3226    113.7925   5.6263884206e+01   1.2108624651e+01    0.2563954     0.246859  46.03 0.0007578894    1.179    0.152
        61 -10.1102    134.8716    112.6297   7.5826653310e+01   3.3204958120e+01     0.475049    0.1023845 -44.23  0.001169752    4.561    0.781
        62 -11.0120    238.6345    110.0709   5.4319992943e+01   1.1330764017e+01    0.2733434    0.2176801 -49.87  0.001565571    1.173    0.148
        63  -8.1985    167.6312    112.3089   6.7820555813e+01   2.6018315638e+01    0.1612099    0.1240202 -84.20 0.0007035827    1.761    0.432
        64  -9.4121    205.4832    110.1824   5.9727221551e+01   1.8058564520e+01    0.3048105    0.2126668  40.62 0.0008698413    1.604    0.376
        65 -11.7256     39.7782    125.2020   1.0714592630e+02   4.5663414137e+01    0.4533395    0.3140406 -63.67  0.002080988    1.241    0.194
        66 -10.8977    116.1529    109.2998   8.0049774526e+01   3.7856210299e+01    0.4497055    0.3699323  -7.16  0.002162455    1.437    0.304
        67  -8.8767    129.0764     96.3257   7.2865469200e+01   3.7972309783e+01    0.2211464    0.1983369  48.22 0.0006624174    1.141    0.124
        68 -10.9925     52.9859     93.8482   9.6321426937e+01   5.1862804881e+01    0.4675465    0.3311158 -75.02  0.002055366    1.694    0.410
        69 -11.6813     71.4675    171.8070   1.0549098427e+02   3.0175080002e+01    0.4642867     0.344042 -26.24  0.002340512    1.873    0.466
        70  -8.6194    157.0704     89.0967   6.3903722306e+01   3.3047153884e+01    0.2521282      0.18719 -75.13  0.001116112    1.776    0.437
        71 -10.7454     41.8593     88.9974   9.9160809293e+01   5.4255518982e+01     0.434244    0.2023112  45.41  0.001799982    2.907    0.656
        72  -8.0578     75.7069     85.3094   8.5999770926e+01   5.0615501405e+01    0.1374447    0.1163967  87.40 0.0002312807    1.586    0.370
        73  -8.5185    157.8138     82.6208   6.1900905538e+01   3.4085484797e+01    0.2092099    0.1453799  65.14 0.0004886048    1.606    0.377
        74  -9.4271     58.6312     67.4058   8.6729771726e+01   5.6969038537e+01    0.3227119    0.1974357  46.91  0.001537878    2.103    0.524
        75 -13.0551    185.9798     50.6480   4.7716906513e+01   3.2525749314e+01     1.016037    0.9018484 -19.81 0.0008709526    1.293    0.226
        76 -11.1987     61.8572    199.3310   1.1131697298e+02   2.4967951708e+01    0.3707288    0.2305748 -60.46 0.0006142833    1.623    0.384
        77  -8.1519     38.4050    216.3906   1.1802029779e+02   2.4038335832e+01    0.1227428   0.09374534  69.79 0.0001665735    1.074    0.068
        78 -11.1900    111.7185    204.4717   1.0047649951e+02   1.6505404153e+01    0.3816933     0.286168  89.58 0.0005418691    1.597    0.374
        79 -11.2288    107.5906    203.7757   1.0132616261e+02   1.7317141549e+01    0.5716619    0.2506901  54.01  0.002029836    2.818    0.645
        80  -8.5918     73.5426     54.5144   7.6682762641e+01   5.7134451629e+01    0.1365528    0.1254536  -8.39  2.06199e-06    1.075    0.070
        81  -9.7337     32.2747    204.1488   1.1832985379e+02   2.7378110944e+01    0.2618934    0.2171596 -83.32 0.0009531807    1.160    0.138
        82  -8.8718    189.5008     14.9625   3.7887907904e+01   3.6118558026e+01    0.1806092     0.125947 -31.35 0.0008216406    1.566    0.361
        83 -10.6735    163.8917    212.7141   9.0151933911e+01   6.1419143451e+00    0.3458528    0.1965171  36.83  0.001670226    1.603    0.376
        84 -11.3067    104.9711    210.4349   1.0285591520e+02   1.6307274683e+01    0.6226563    0.2432351 -49.87  0.002491172    2.852    0.649
        85  -9.6257     89.8346    212.2867   1.0649873823e+02   1.8211633715e+01    0.2408946    0.1986241  89.98 0.0005545241    1.222    0.182
        86  -9.3728    183.6700    212.6931   8.5994478373e+01   2.8577345151e+00    0.1392643   0.09710877   1.96 0.0002936723    1.659    0.397
        87  -8.1110    224.2597    206.6987   7.6938965069e+01  -2.5801844522e+00     0.108485    0.1027989 -49.35 0.0002125302    1.512    0.338
