#   1 NUMBER                 Running object number                                     
#   2 MAG_AUTO               Kron-like elliptical aperture magnitude                    [mag]
#   3 X_IMAGE                Object position along x                                    [pixel]
#   4 Y_IMAGE                Object position along y                                    [pixel]
#   5 X_WORLD                Barycenter position along world x axis                     [deg]
#   6 Y_WORLD                Barycenter position along world y axis                     [deg]
#   7 A_WORLD                Profile RMS along major axis (world units)                 [deg]
#   8 B_WORLD                Profile RMS along minor axis (world units)                 [deg]
#   9 THETA_WORLD            Position angle (CCW/world-x)                               [deg]
#  10 FWHM_WORLD             FWHM assuming a gaussian core                              [deg]
#  11 ELONGATION             A_IMAGE/B_IMAGE                                           
#  12 ELLIPTICITY            1 - B_IMAGE/A_IMAGE                                       
         1 -14.1121     68.6072    144.3921   9.8930544735e+01   3.7486650955e+01     4.131725     1.994798  68.60   0.00778606    4.892    0.796
         2 -13.5411    202.2420     41.5182   4.1682385588e+01   2.9981408752e+01     1.268841     1.157578 -18.16  0.005252649    1.423    0.297
         3 -13.4897    213.5939     30.9458   3.7977405630e+01   2.8820785735e+01    0.8820823    0.7962763  31.61  0.002587151    1.571    0.364
         4 -12.2782      2.7172     23.7260   9.4455517677e+01   7.1043181815e+01    0.6547258    0.3716067 -54.78  0.004015461    1.809    0.447
         5 -11.7113      2.5232     11.9937   8.9767848824e+01   7.2960679043e+01     1.023929    0.2297732 -38.83  0.004240029    3.695    0.729
         6 -12.7225    239.3235      5.6498   3.0556073389e+01   2.6354630152e+01    0.7865552    0.5453432 -87.80  0.005233375    1.227    0.185
         7 -10.5393     56.0038      5.9834   6.0559425831e+01   6.6818685303e+01    0.3637187    0.2292036  64.05  0.001965883    2.367    0.578
         8 -15.1552      5.0251    167.1550   1.1913946567e+02   3.8691497229e+01     8.316673     0.672009 -73.74   0.02098628    7.123    0.860
         9  -9.9434    102.2330    250.1281   1.0528029773e+02   8.4138577157e+00    0.2297246    0.1511276  44.96 0.0006751672    1.255    0.203
        10 -15.2843     43.2902    193.3407   1.1229295125e+02   2.8623645702e+01     5.242105     2.462955  66.04   0.01319758    2.480    0.597
        11 -10.2320    121.6325    197.8097   9.4097261623e+01   1.5981369579e+01    0.3994783    0.2420154 -71.36  0.001644616    2.117    0.528
        12  -9.3680    147.1583    186.9183   8.6265135825e+01   1.3842232693e+01    0.2180707    0.1997415  84.97 0.0006964158    1.214    0.176
        13  -8.9671     85.0598    186.0022   1.0117807134e+02   2.4687805130e+01    0.3146162    0.1826336  86.08  0.001105932    2.443    0.591
        14  -9.1066     82.5862    182.1977   1.0124497373e+02   2.5980915685e+01    0.2514477    0.2139446  53.67 0.0005298192    1.122    0.109
        15  -9.0352     79.4734    181.4786   1.0192935981e+02   2.6625562492e+01    0.2448496    0.2230682 -71.69 0.0008334767    1.115    0.103
        16  -8.5522    238.6685    185.3323   6.7557316979e+01  -1.4797195627e+00     0.118001    0.1009181 -68.00 -0.0005088623    1.725    0.420
        17  -9.4296     99.4206    180.8733   9.6782562366e+01   2.3621327005e+01    0.2629408    0.2082357  32.63 0.0006021178    1.323    0.244
        18 -12.6942     79.7477    159.2377   9.8366207869e+01   3.2082591193e+01     1.691076    0.6936702  56.58 0.0004047985    3.942    0.746
        19 -12.7973     67.7662    154.7148   1.0093275134e+02   3.4991104342e+01    0.6415703    0.4338146 -52.93  0.001019625    1.458    0.314
        20 -10.4432    119.7508    245.0826   1.0109890431e+02   6.7371321518e+00    0.2801468    0.1957751 -50.49   0.00105499    1.685    0.407
        21  -8.2593     88.2776    178.6457   9.9259830905e+01   2.5958258617e+01    0.1514518    0.1054919  75.35 0.0007009181    1.650    0.394
        22  -9.9110    187.1442    175.5774   7.5311635135e+01   8.8437406021e+00    0.3644421      0.27091 -52.09  0.001155784    1.445    0.308
        23 -10.6680    112.2940    173.4147   9.2253535857e+01   2.3197235339e+01    0.4576398    0.2197707  39.89  0.001820259    2.019    0.505
        24  -8.1162    147.7774    173.9897   8.3680649938e+01   1.6538210837e+01    0.1894651    0.1219118 -49.29 0.0003880964    1.579    0.367
        25 -10.4525    240.0276    169.2406   6.4238101353e+01   9.7881086592e-01    0.2406927    0.1541144  39.70  0.001047444    1.756    0.430
        26  -8.6309    110.8240    167.8295   9.1615684869e+01   2.4790782043e+01    0.2095193    0.1719054  75.25 0.0003884437    1.323    0.244
        27  -7.8116    120.4879    165.5394   8.8709807430e+01   2.3588858876e+01    0.1497173    0.1456237  73.04 0.0001312536    1.010    0.009
        28 -10.3332     32.6789    155.9414   1.1085267820e+02   3.8958640357e+01    0.3084677    0.2529494  89.88  0.001149663    1.078    0.073
        29 -11.6528     87.1226    152.8272   9.5192491943e+01   3.2525083780e+01    0.6293307    0.4633144 -17.50  0.001730743    1.967    0.491
        30 -10.4977    133.6352    144.5768   8.1016193877e+01   2.5997485083e+01     1.171057    0.3016577 -55.21  0.002695841    5.758    0.826
        31  -8.2973    112.1721    150.4212   8.7871109620e+01   2.8755758004e+01    0.2137984    0.1402706  51.46  0.000485368    1.598    0.374
        32  -9.3694    174.5411    148.9692   7.2391316107e+01   1.6695197267e+01     0.301366    0.2088779 -69.77  0.001197095    1.971    0.493
        33 -10.6744     54.2853    146.7545   1.0348590205e+02   3.8815520198e+01    0.5829086    0.2192804 -55.76  0.002247754    2.358    0.576
        34 -11.6832     66.7114    172.4639   1.0392697118e+02   3.0686737123e+01    0.6584693    0.3520574 -44.38  0.002804358    2.294    0.564
        35 -14.8421      9.5957    207.3267   1.2093196082e+02   2.8978480469e+01     1.256113     1.146951 -58.65  0.006396933    1.450    0.310
        36 -10.5069    101.5592    138.6022   8.8299468767e+01   3.3586748988e+01    0.5786967    0.3724562 -21.03  0.002218363    2.598    0.615
        37 -11.6140     88.6208    138.2353   9.1920608830e+01   3.5928812378e+01    0.3015411    0.2696068 -43.57 0.0003814034    1.157    0.136
        38  -9.4155     25.1987    137.3316   1.1061164807e+02   4.4346423130e+01    0.3083225    0.1411463  34.54  0.001423681    2.305    0.566
        39  -9.9065    105.7399    130.9388   8.5422722974e+01   3.4687641504e+01    0.4604829    0.3074558 -64.62  0.002019244    1.627    0.385
        40  -9.4618    110.6575    129.6611   8.3746637258e+01   3.4062974789e+01    0.3648118    0.2614295  23.01  0.001102702    1.711    0.416
        41  -9.8356    134.9261    128.8251   7.7056580789e+01   2.9373500640e+01    0.3455043    0.3129193 -71.82  0.001715534    1.136    0.120
        42 -10.2863    118.0653    123.0742   8.0128466406e+01   3.4166577018e+01    0.5487468    0.3412715  -3.18  0.001647746    4.324    0.769
        43 -10.4961     97.9072    125.4541   8.6416946671e+01   3.7459599434e+01    0.3231834    0.2714019 -12.73 0.0008403418    1.448    0.310
        44  -8.4783    163.4194    121.2078   6.8393314964e+01   2.4919280990e+01    0.2127271    0.1422999 -55.08 0.0003975005    1.558    0.358
        45 -11.3952     70.9844    168.0157   1.0214540109e+02   3.1188385283e+01    0.4224981    0.2940277 -44.08 0.0007347689    1.642    0.391
        46  -9.0551    107.2202    118.6405   8.2086692757e+01   3.7345903513e+01    0.2026773    0.1902344  24.20 0.0005816765    1.132    0.117
        47  -8.9577     83.9916    118.1864   8.8915022036e+01   4.1649763681e+01      0.22853    0.1979225  76.10 0.0006102017    1.282    0.220
        48 -10.1877    231.3030    113.6636   5.4157427654e+01   1.2182431998e+01    0.2825989    0.2440047 -48.00 0.0007250911    1.009    0.009
        49  -9.5643     39.8640    113.3351   1.0217796423e+02   4.8899356377e+01    0.2077449    0.1642938  55.43 0.0006685319    1.430    0.301
        50 -10.9710     53.0173    109.5893   9.7003998023e+01   4.8293699794e+01    0.5552882    0.1989524 -55.46  0.002095631    2.394    0.582
        51  -9.4579    205.1388    110.5148   5.7636521122e+01   1.8005793358e+01    0.3168893    0.2383231  34.16   0.00113146    1.636    0.389
        52 -10.2659     33.1864    108.3615   1.0349569639e+02   5.0796149646e+01    0.3170421     0.243881 -72.19  0.001807474    1.225    0.184
        53  -8.5642    114.6396    109.6924   7.7707692103e+01   3.7941716507e+01    0.1589655    0.1241014  -2.45  7.52183e-05    1.736    0.424
        54 -11.2564    246.8571    107.2165   5.0607624559e+01   1.0386298586e+01    0.3980002    0.2545114 -78.84  0.001939886    2.346    0.574
        55  -9.7357     42.4111    103.8816   9.9421057850e+01   5.0928104426e+01    0.2439375    0.1801152  48.13 0.0006303874    1.556    0.357
        56 -10.2082     36.1535    100.9843   1.0101333212e+02   5.2285771594e+01    0.3071689    0.2421294  75.03  0.001135391    1.531    0.347
        57 -11.4559    243.6601     95.7342   4.8627224455e+01   1.2881454486e+01    0.4399217    0.1285725 -41.75  0.001649083    2.793    0.642
        58  -9.2559    120.5168     98.5372   7.3083681448e+01   3.9175876589e+01    0.1510152    0.1498486 -18.20 0.0001476634    1.031    0.030
        59 -13.7121     19.0597    219.1081   1.1972569268e+02   2.5458520454e+01    0.7351483    0.6549501 -36.63  0.005174474    1.662    0.398
        60  -9.4353     52.8503     90.8580   9.2685950281e+01   5.2752790131e+01    0.2202032    0.1757418 -30.72 0.0005686542    1.245    0.197
        61 -16.9397     15.4248    242.7465   1.2181271830e+02   2.0928958644e+01     6.188792     2.158529  26.94     0.026771    3.952    0.747
        62  -8.9235    159.4937     82.9971   5.9373560063e+01   3.3432755806e+01    0.2264299    0.1456219 -41.33 0.0005339162    1.549    0.354
        63  -8.5175    151.0351     82.9674   6.1181104500e+01   3.5422162114e+01    0.2429015    0.1792108 -79.07 0.0007912617    1.703    0.413
        64  -8.0563     69.3877     81.6889   8.4241435395e+01   5.2429431540e+01    0.1433573    0.1117877  74.05 0.0001447982    1.821    0.451
        65  -8.1604    109.6868     79.3506   7.0577919585e+01   4.5420741430e+01    0.1519634    0.1188128 -83.85 0.0007046095    1.725    0.420
        66  -9.2067     51.8908     64.1505   8.5442728696e+01   5.8621380394e+01    0.1868493    0.1792402  58.61 0.0005586889    1.292    0.226
        67 -11.3338      1.8278     60.2820   1.0569230777e+02   6.4079492073e+01    0.6299437    0.1479623 -67.54  0.002087936    4.784    0.791
        68 -10.4941     13.4385     59.9242   1.0047186527e+02   6.3446549274e+01    0.2333688    0.1982164 -55.19 0.0004254031    1.178    0.151
        69 -12.8676    192.4664     48.7377   4.4696380263e+01   3.1227531520e+01    0.9394721    0.7437058  38.29  0.001045979    1.638    0.389
        70 -11.0905     95.1500    241.9734   1.0586682312e+02   1.0985891943e+01    0.4725966    0.2120284 -63.06  0.002245405    2.522    0.603
        71  -8.2153     78.6486     57.7246   7.3333836117e+01   5.5579096315e+01    0.1412213    0.1028683   7.36 0.0007004747    1.639    0.390
        72 -10.7834    184.1093    213.7218   8.3012340889e+01   2.2165619510e+00    0.2461544    0.2084042  10.59  0.001486089    1.102    0.092
        73  -9.1952     89.2301    211.0373   1.0356266798e+02   1.8282158584e+01    0.2346608    0.1716917  85.84 0.0006133312    1.470    0.320
        74 -10.1343    110.8836    203.1072   9.7439296595e+01   1.6615656652e+01    0.2561109    0.1769336  49.52 0.0005686342    1.366    0.268
        75  -8.9440    197.9027     23.8599   3.7981753224e+01   3.3234407992e+01    0.1834209    0.1661724  58.05 0.0006789402    1.330    0.248
        76  -8.6580    189.4963     15.0717   3.6768601298e+01   3.6180499426e+01    0.1727083     0.122138 -35.84 0.0006859592    1.539    0.350
        77 -10.8612    192.5015    193.8286   7.7745099775e+01   4.4254634777e+00    0.5914336     0.323615 -63.18  0.002171024    3.746    0.733
