#   1 NUMBER                 Running object number                                     
#   2 MAG_AUTO               Kron-like elliptical aperture magnitude                    [mag]
#   3 X_IMAGE                Object position along x                                    [pixel]
#   4 Y_IMAGE                Object position along y                                    [pixel]
#   5 X_WORLD                Barycenter position along world x axis                     [deg]
#   6 Y_WORLD                Barycenter position along world y axis                     [deg]
#   7 A_WORLD                Profile RMS along major axis (world units)                 [deg]
#   8 B_WORLD                Profile RMS along minor axis (world units)                 [deg]
#   9 THETA_WORLD            Position angle (CCW/world-x)                               [deg]
#  10 FWHM_WORLD             FWHM assuming a gaussian core                              [deg]
#  11 ELONGATION             A_IMAGE/B_IMAGE                                           
#  12 ELLIPTICITY            1 - B_IMAGE/A_IMAGE                                       
         1 -16.2344    243.3774    106.5298   9.6217689890e+00   1.2968874301e+01     3.320801     1.049757 -37.25   0.01482825    2.409    0.585
         2 -16.3907    241.6267     63.4370   9.4547551499e-01   1.9125099476e+01     3.413708      1.49988 -44.44   0.01819055    1.726    0.421
         3 -14.0757    147.8878     81.2418   1.7793463848e+01   3.5740329812e+01     2.129101    0.7765294 -48.18  0.007233069    2.840    0.648
         4 -15.0362    194.3823     37.6565   3.5923260769e+02   3.1738033677e+01     1.436192     1.147853 -77.01  0.007417359    1.155    0.135
         5 -14.2553    178.2051     24.2988   3.5723492260e+02   3.7015729911e+01     1.069831    0.4485424 -45.83  0.004867635    2.008    0.502
         6 -13.3967    234.0483     13.7280   3.5092425726e+02   2.6411239820e+01     1.209436    0.7087815 -77.21  0.007666315    1.603    0.376
         7 -14.8187    153.7184      6.5235   3.5431219428e+02   4.4784674526e+01     1.888236    0.9835391 -85.60  0.009066337    1.856    0.461
         8 -13.2216    178.2830      5.2346   3.5205641811e+02   3.9025055272e+01    0.6707457    0.3289194 -43.93  0.003468173    1.701    0.412
         9 -13.3843    170.6458      3.4145   3.5207647577e+02   4.0986112015e+01    0.6329671    0.3951538 -74.21  0.001974247    1.406    0.289
        10 -12.8000     59.3943     16.4290   1.6622015333e+01   6.7386172506e+01    0.3440397    0.2303109  14.20   0.00168051    1.986    0.497
        11 -13.7899     28.9361      2.5280   2.2224834872e+01   7.5408991458e+01     0.944711    0.1809581  48.18  0.003065205    4.359    0.771
        12 -13.8111     39.0912      8.2619   2.0636117065e+01   7.2732107482e+01    0.5976062      0.42497 -12.16  0.003376892    1.571    0.364
        13 -13.1056     40.5169      1.9947   1.5571652859e+01   7.3153908174e+01    0.4993956    0.2068413  51.36  0.002264395    2.077    0.519
        14 -12.0024     22.3666     11.2391   3.3079648173e+01   7.5347161668e+01    0.2219475    0.1626247 -45.50   0.00130218    1.538    0.350
        15 -11.3904    246.5173     16.4720   3.5090462693e+02   2.3837234629e+01    0.3184598    0.1184624 -36.64  0.001714009    1.943    0.485
        16 -13.1335     60.4527      2.9033   8.4249512163e+00   6.8610070365e+01    0.4210409    0.3108181  39.17  0.002418257    1.308    0.235
        17 -11.2072      2.1348      2.3885   4.4487649954e+01   7.9512057531e+01    0.1928706    0.1399606 -47.33  0.001217272    1.454    0.312
        18 -12.0620    109.4983      1.6965   3.5748291691e+02   5.6446864344e+01    0.3781958   0.07744297  67.16   0.00123399    3.512    0.715
        19 -12.4968    208.0190    160.9988   2.5248815179e+01   1.0179239985e+01    0.2940512    0.2445088 -30.80  0.001400261    1.119    0.107
        20 -12.7761    149.8335    162.8413   3.6708816959e+01   1.9217423863e+01    0.4447875    0.2485934  48.19    0.0020075    1.989    0.497
        21 -13.0283    188.5772    120.0049   2.0047409334e+01   2.0218814459e+01    0.9229905    0.3424157 -38.37   0.00361981    2.451    0.592
        22 -11.6696    166.7590    138.6263   2.8180743533e+01   2.0891329723e+01    0.3849407    0.2873324  73.06  0.001608459    1.921    0.479
        23 -13.8974    181.4086    133.8007   2.4338559226e+01   1.9104821569e+01    0.9752071     0.621671 -44.30  0.004986005    1.472    0.321
        24 -14.1146    166.8368    128.0224   2.5825119584e+01   2.2884018209e+01     1.453978    0.8412539 -70.83  0.004976834    3.994    0.750
        25 -14.3556    177.2536    147.4493   2.7991706401e+01   1.7387455746e+01     1.659926    0.5593799 -37.79  0.006026587    3.000    0.667
        26 -13.7990    174.3721    140.9616   2.7187389557e+01   1.9074056916e+01    0.6207619    0.4919282   4.96  0.002420058    1.470    0.320
        27 -12.7240    165.0378    158.6385   3.2660267050e+01   1.7429255995e+01    0.4203092    0.3016155 -37.43  0.002266316    1.344    0.256
        28 -12.1429    215.9264    156.0889   2.3059813088e+01   9.7805901599e+00    0.5007256    0.3321929  13.74  0.002869179    1.842    0.457
        29 -13.0276    141.6989    152.0084   3.6404362962e+01   2.2827222681e+01    0.5836138    0.4233279 -36.08  0.002956167    1.420    0.296
        30 -11.5692    163.5170    150.3246   3.1300853981e+01   1.9257456025e+01     0.269267    0.2363726 -61.40  0.001126671    1.300    0.231
        31 -13.7164    248.0296    143.8023   1.6254450457e+01   7.0974585025e+00    0.7080336    0.4278454 -23.34  0.003985531    1.482    0.325
        32 -11.2313     82.4985    238.5020   6.2905803975e+01   1.4374231234e+01    0.1239056   0.09973034  35.74 0.0008106784    1.009    0.009
        33 -14.5563    152.0042    220.8051   4.5817350722e+01   8.4432890316e+00     1.424003     1.016342 -35.68  0.008910012    1.496    0.332
        34 -13.0297    154.5070    114.9758   2.5279830113e+01   2.7858686831e+01    0.7146924    0.3397287 -47.16  0.002470094    2.049    0.512
        35 -12.4754    212.4360    112.4018   1.4707290345e+01   1.7171991437e+01    0.5057706    0.2356137 -36.21   0.00240004    1.841    0.457
        36 -12.4668    220.5133    108.2114   1.2720057620e+01   1.6428802671e+01    0.3812648    0.2662117 -33.03  0.001543746    1.233    0.189
        37 -12.8376    156.3248     86.5324   1.7608042670e+01   3.2854283404e+01    0.7085454    0.4739174 -25.63  0.003260706    1.793    0.442
        38 -11.4144    151.3391     72.4637   1.4629672472e+01   3.6486806284e+01    0.3293495    0.2936296  31.19  0.001564518    1.354    0.262
        39 -14.0928    142.2802     97.3119   2.3402400548e+01   3.3965872101e+01     1.750033    0.7642088 -53.96  0.006064929    2.772    0.639
        40 -15.6564    245.5606    206.5589   2.7364574760e+01  -8.0449795226e-01      2.43221    0.8899346 -31.54   0.01325338    2.301    0.565
        41 -13.6607      4.6625     87.3997   7.0765976829e+01   5.9712586800e+01    0.8323702    0.6145523  71.52    0.0045263    1.393    0.282
        42 -13.7890     13.8387     89.4371   6.6732859685e+01   5.8543504600e+01    0.8201215    0.5095209 -68.05  0.003311697    1.452    0.311
        43 -13.9563    244.2853    180.2768   2.3241194338e+01   2.6494239607e+00     1.100789    0.4970247 -19.21   0.00540957    2.749    0.636
        44 -13.6807    198.9989     64.5964   5.4503599542e+00   2.7081266330e+01     1.119146    0.6426316 -73.00  0.005283856    2.224    0.550
        45 -12.8315    195.4889     57.1250   4.0129108397e+00   2.8890572609e+01    0.2943968     0.243233 -29.70  0.001288464    1.297    0.229
        46 -13.7083    214.1565     68.0252   4.5634671397e+00   2.3541318015e+01    0.4707604    0.3025893 -52.66  0.001782945    1.362    0.266
        47 -12.6575     83.5169     69.0083   3.0931624691e+01   5.3028578762e+01    0.3195948    0.2932198 -88.64  0.001697793    1.129    0.114
        48 -13.9556     43.7229     89.7017   5.3162323634e+01   5.5254657223e+01    0.9072163    0.7037713 -19.35  0.004309294    1.566    0.361
        49 -13.4387    212.2934     43.7570   3.5909829001e+02   2.7184007172e+01    0.4546743    0.3427797 -23.15   0.00277679    1.525    0.344
        50 -13.8971    247.7637    189.9278   2.4373575089e+01   1.0158241779e+00    0.8388904    0.4603827 -32.30   0.00549125    1.487    0.327
        51 -12.0328    118.4342     39.0058   1.0304234065e+01   4.9940747966e+01    0.2684337    0.1864707 -84.18  0.001271522    1.620    0.383
        52 -12.3325     96.5128     36.5222   1.4455834382e+01   5.5817695133e+01    0.2992747    0.1439912 -33.49  0.001219407    2.195    0.544
        53 -11.6033    105.0910    225.1790   5.6480012488e+01   1.3938075500e+01    0.2168669    0.1866952  61.97  0.001372759    1.311    0.237
        54 -11.3010     86.3192     31.3366   1.5067821494e+01   5.9071076059e+01    0.1481084    0.1072815  27.45 0.0007049437    1.705    0.413
        55 -11.6881    206.7239    141.3013   2.1605411083e+01   1.3511162887e+01    0.2658509    0.1756202  -2.28  0.001360724    2.096    0.523
        56 -12.7227    200.7191    116.4428   1.7304575478e+01   1.8597268317e+01    0.5837331    0.3659943 -42.34   0.00310766    1.401    0.286
        57 -12.8118     44.8414     26.0777   2.8535624522e+01   6.9042779275e+01     0.414436    0.2243349  48.95  0.001932335    1.842    0.457
        58 -11.1706    103.1585     26.1640   8.6124500567e+00   5.5556013130e+01    0.2064791    0.1616517 -74.96  0.001086236    1.343    0.255
        59 -12.6655     55.7164     40.6266   3.0588980689e+01   6.4408062523e+01     0.464268    0.2226155  51.75   0.00188573    2.247    0.555
        60 -10.9365    224.6287     22.0191   3.5323101839e+02   2.7318781230e+01    0.2445583    0.1596361 -62.48    0.0015583    1.264    0.209
        61 -13.5409    209.4367    215.1702   3.4313067036e+01   2.0771502633e+00    0.4942411    0.2624958   4.74  0.002631237    2.375    0.579
        62 -13.9092    227.0262    211.5881   3.0920138076e+01   5.5421731600e-01    0.5576997     0.450154  33.79  0.004001972    1.660    0.398
        63 -13.9169    213.0362    203.9272   3.1939604607e+01   3.1767289891e+00    0.8363684    0.5428145  54.38  0.004511419    3.191    0.687
        64 -14.3655    195.2722    176.9957   3.0376029833e+01   9.5101323209e+00     1.226478      0.90895   6.89  0.007521423    1.372    0.271
        65 -13.9516    205.5715    187.2901   3.0409859542e+01   6.5003368552e+00     1.009697    0.3148801 -40.17  0.004303725    2.975    0.664
        66 -12.9994    134.8797    201.6494   4.6671486759e+01   1.4139041869e+01    0.3891146     0.296901 -75.44  0.002168918    1.885    0.469
        67 -11.8114     88.8327    203.1939   5.7729538819e+01   2.0446816159e+01    0.3183565   0.08927689 -58.56  0.001135915    3.725    0.732
        68 -11.2684     93.6604    198.6759   5.5971380215e+01   2.0720230660e+01    0.1364163    0.1029152 -11.90 0.0007051084    1.724    0.420
        69 -10.3727    168.2524    197.5795   3.9009913805e+01   1.0027700843e+01    0.1760432    0.1093825  21.29 0.0009459499    1.600    0.375
        70 -14.0072    238.1048    160.6856   2.0660831391e+01   6.0583384117e+00     1.287845    0.9377533 -60.10  0.007963301    2.218    0.549
        71 -15.2435    196.6411    194.1427   3.3120160515e+01   6.6606602761e+00      1.64443     1.137736  -2.00   0.01009813    1.454    0.312
        72 -13.1822    204.4412    163.7060   2.6349726749e+01   1.0281156400e+01    0.7690074    0.3364737 -45.73  0.003536506    2.383    0.580
