#   1 NUMBER                 Running object number                                     
#   2 MAG_AUTO               Kron-like elliptical aperture magnitude                    [mag]
#   3 X_IMAGE                Object position along x                                    [pixel]
#   4 Y_IMAGE                Object position along y                                    [pixel]
#   5 X_WORLD                Barycenter position along world x axis                     [deg]
#   6 Y_WORLD                Barycenter position along world y axis                     [deg]
#   7 A_WORLD                Profile RMS along major axis (world units)                 [deg]
#   8 B_WORLD                Profile RMS along minor axis (world units)                 [deg]
#   9 THETA_WORLD            Position angle (CCW/world-x)                               [deg]
#  10 FWHM_WORLD             FWHM assuming a gaussian core                              [deg]
#  11 ELONGATION             A_IMAGE/B_IMAGE                                           
#  12 ELLIPTICITY            1 - B_IMAGE/A_IMAGE                                       
         1 -13.1779    184.3170      5.4574   2.5758846587e+02  -5.9257068748e+01    0.3090182    0.1170845 -45.61  0.008708462    2.747    0.636
         2 -11.9125    229.7926      5.0553   2.5854741920e+02  -6.0814381272e+01    0.1390567   0.06807252 -88.39   0.00340999    2.553    0.608
         3 -12.3430    204.9205     17.5214   2.5884510932e+02  -5.9832521034e+01    0.1445985   0.06496355  81.51  0.003767761    3.552    0.718
         4 -12.3653    215.9199     11.9020   2.5870827856e+02  -6.0268214365e+01    0.1486813   0.06917511  76.95  0.002733459    3.348    0.701
         5 -12.5831    210.8510      4.4461   2.5808384378e+02  -6.0175116889e+01    0.1415564    0.1063191 -71.86  0.005713922    1.329    0.247
         6 -12.8681    223.6787     13.0068   2.5896065864e+02  -6.0520083358e+01    0.1766357   0.07770366 -88.96  0.003954868    3.157    0.683
         7  -8.7672     93.3978     12.1812   2.5627582858e+02  -5.6065754457e+01   0.02500537   0.01717654  -4.47 0.0004062898    1.580    0.367
         8 -10.6030    223.8892      1.5079   2.5816742700e+02  -6.0651025763e+01   0.07777135   0.03879265 -79.14 0.0007986537    2.167    0.539
         9 -10.1847    120.1241      9.3420   2.5658356610e+02  -5.7013355756e+01   0.04656881   0.03951153  13.34  0.001028342    1.185    0.156
        10  -9.6294     17.0101      5.0425   2.5459419433e+02  -5.3501684952e+01   0.03027289   0.01970597 -36.31 0.0005548247    1.621    0.383
        11 -12.1896    247.5631      3.4224   2.5884230124e+02  -6.1436071829e+01    0.2051165   0.09843412 -88.22  0.006098997    2.656    0.623
        12 -11.0890    199.3829     16.1477   2.5862933561e+02  -5.9658848365e+01   0.05703989   0.03709838  67.24 0.0007942535    1.785    0.440
        13 -10.9871    207.7260    206.5093   2.7088432332e+02  -5.7272883284e+01    0.3434693   0.09315179 -41.96  0.006102567    7.234    0.862
        14 -14.2842    135.3866    133.9511   2.6456489392e+02  -5.6046352584e+01    0.8066111    0.1314587  30.91   0.01625156    4.277    0.766
        15 -17.3639    245.1362    122.4697   2.6687838911e+02  -5.9808810724e+01     1.016912    0.3137237  27.56   0.02707893    3.020    0.669
        16  -9.4832    101.8766    167.8633   2.6568255601e+02  -5.4466842972e+01   0.02529159   0.02082293 -28.60 0.0003980182    1.284    0.221
        17 -16.1630    204.8148    115.4831   2.6526731818e+02  -5.8593802127e+01     1.124783    0.3099795  31.72   0.02929501    3.113    0.679
        18  -8.4056      8.3695    169.2987   2.6357951934e+02  -5.1375145850e+01   0.01962185   0.01321782  61.42 0.0007030864    1.736    0.424
        19  -9.9651    104.1392    160.1256   2.6530081268e+02  -5.4651072402e+01   0.02865121   0.02432192  57.23 0.0006009215    1.244    0.196
        20 -14.4993    156.5075    155.9517   2.6641816115e+02  -5.6425897503e+01    0.5101953    0.3160433  74.90   0.01709645    2.217    0.549
        21  -9.0792     41.2115    191.1077   2.6548306390e+02  -5.2153638239e+01   0.02655549   0.02371144  54.36 0.0003739146    1.164    0.141
        22 -10.1225    119.1677    151.7068   2.6519490264e+02  -5.5263748842e+01   0.03183287   0.02492778   5.47 0.0008477498    1.366    0.268
        23  -9.1428     95.6419    151.0208   2.6457415795e+02  -5.4498625747e+01   0.02691948   0.02344916  15.46  0.001152011    1.161    0.138
        24 -10.6561     69.7822    145.5858   2.6365657555e+02  -5.3717764014e+01   0.05602622   0.04068378 -49.59  0.001565599    1.364    0.267
        25 -10.9713     66.4911    143.4890   2.6346357512e+02  -5.3636606222e+01   0.05855196   0.04640748  -3.32  0.002131473    1.362    0.266
        26  -8.5806      1.9885    142.2185   2.6199912577e+02  -5.1512129315e+01   0.02453048   0.02285799 -63.21 0.0003249797    1.073    0.068
        27  -8.2786     84.9706    136.9644   2.6351991072e+02  -5.4336008894e+01   0.02134492   0.02109126 -55.17 0.0003328812    1.011    0.011
        28  -8.6096    142.9962    187.9484   2.6790571112e+02  -5.5505829399e+01   0.02129618   0.02023088  22.12  0.000330689    1.055    0.052
        29 -10.8379    150.4878    130.9965   2.6477333725e+02  -5.6585965969e+01   0.03447726   0.02899006   9.89  0.001284771    1.228    0.186
        30  -9.0477    115.8189    133.1525   2.6403340224e+02  -5.5409967463e+01   0.02603236   0.02112641  56.37 0.0006786334    1.309    0.236
        31 -10.2456     25.1861    131.6134   2.6190309148e+02  -5.2416286329e+01   0.03220417   0.03022818  74.34 0.0004215721    1.102    0.093
        32  -9.0618    108.0655    129.3315   2.6362356748e+02  -5.5204286154e+01   0.02993161   0.02355183  35.65 0.0005067674    1.263    0.208
        33 -14.2300    170.3477    111.7702   2.6411465730e+02  -5.7507810343e+01    0.3958286    0.2676069 -26.05   0.01463542    1.713    0.416
        34 -10.4022    173.8442    182.4610   2.6846017572e+02  -5.6584677775e+01   0.04270631   0.02889172   1.90  0.001041587    1.797    0.443
        35  -9.6324    113.1428    126.1925   2.6356136793e+02  -5.5414817765e+01   0.03757545   0.02543482  13.92 0.0007322421    1.547    0.354
        36 -10.7474    153.3003    126.0534   2.6454815256e+02  -5.6747488927e+01   0.04475387    0.0276947 -70.92  0.001325297    1.668    0.401
        37 -10.0422    121.8332    120.3881   2.6342774806e+02  -5.5780943464e+01   0.03978891   0.02447928  32.49 0.0004475419    1.580    0.367
        38 -13.1201     17.0879    109.7256   2.6053241247e+02  -5.2411650014e+01     0.217388    0.1407298 -84.68  0.005731898    1.715    0.417
        39 -12.1586     71.9651    108.6772   2.6160686609e+02  -5.4265410945e+01    0.1654656    0.1041791  11.47   0.00602513    1.685    0.407
        40 -12.1722     45.8930    108.2454   2.6103156744e+02  -5.3396047100e+01   0.06585708    0.0580497 -66.95 0.0008419244    1.133    0.117
        41 -11.8982     62.5340    112.0421   2.6159697304e+02  -5.3907655453e+01    0.0723137   0.06138252  51.62  0.001222961    1.217    0.178
        42 -13.3156     56.2101    107.9312   2.6122862028e+02  -5.3746106813e+01     0.161029    0.1245754 -84.71   0.00401595    1.375    0.273
        43 -11.3016    120.9988     96.6282   2.6198952980e+02  -5.6060468428e+01   0.08640699   0.02919077  27.84  0.002426454    2.660    0.624
        44 -10.1308    127.1149    110.8491   2.6298617038e+02  -5.6082558956e+01    0.0364995     0.029025 -23.51  0.000382843    1.355    0.262
        45 -11.5072    124.5916    106.6586   2.6267537520e+02  -5.6052794046e+01   0.09846681   0.03964435  49.47  0.002664631    3.094    0.677
        46  -9.0558    106.4976    108.7859   2.6238148684e+02  -5.5420576879e+01   0.04567336   0.01893819  15.18  0.001297946    2.696    0.629
        47  -8.6311     94.9699    110.5321   2.6222208580e+02  -5.5012704523e+01   0.02722286   0.01775557 -66.86 0.0004341856    1.518    0.341
        48 -10.5085    139.8223    105.7492   2.6298389326e+02  -5.6573131051e+01   0.04333072   0.03513483 -28.72  0.001543606    1.303    0.232
        49  -9.7823    144.2772    105.0367   2.6304857568e+02  -5.6731060513e+01   0.04153346   0.02214811  30.08 0.0009494419    1.797    0.443
        50 -15.3098    195.2102    166.5576   2.6814044097e+02  -5.7520667560e+01    0.7878846     0.281708 -56.32   0.02266192    2.555    0.609
        51  -9.2948    109.9929    105.2210   2.6225056922e+02  -5.5582965258e+01   0.02478298   0.01486117 -68.41 0.0007346689    1.663    0.399
        52  -9.2115    153.8753    185.7313   2.6808150578e+02  -5.5890905853e+01   0.03774398    0.0233457 -16.14  0.001246442    2.231    0.552
        53 -11.7310     22.2188    106.7374   2.6046825129e+02  -5.2619223649e+01    0.1019112   0.05935488  -0.22  0.003177625    2.030    0.507
        54 -10.3895    146.3000    113.3953   2.6360600078e+02  -5.6687706742e+01   0.03931892   0.02989248 -45.73 0.0006153777    1.322    0.244
        55  -8.9035     85.3896     96.3514   2.6118082467e+02  -5.4867699284e+01   0.03658687   0.01579892  26.78  0.001126586    2.170    0.539
        56 -10.6067    111.7174     92.8649   2.6155309638e+02  -5.5795809210e+01   0.07069167   0.04878464   4.36  0.002676478    1.579    0.367
        57  -8.9884    134.0368     94.2583   2.6214821197e+02  -5.6527567600e+01   0.02507615   0.02285711 -66.68 0.0003161948    1.095    0.087
        58 -10.9136    170.9093     96.7143   2.6319340619e+02  -5.7728344518e+01   0.08924603   0.04548957  24.12  0.002973955    1.919    0.479
        59 -15.8862    247.0936     98.9728   2.6539908929e+02  -6.0216211288e+01    0.9859523    0.3904344 -27.00   0.01575002    9.696    0.897
        60  -9.4983    195.0006     89.2894   2.6333806021e+02  -5.8628724126e+01   0.03965448    0.0251065  36.30 0.0009650257    1.553    0.356
        61  -9.7306    126.9437     89.3736   2.6168724085e+02  -5.6350841468e+01   0.03474542   0.02511257  34.94 0.0005550358    1.366    0.268
        62  -8.2063    102.6908    112.2851   2.6250031714e+02  -5.5248514499e+01   0.01910019   0.01315008 -34.44 0.0003064597    1.570    0.363
        63 -10.2778    169.0681     84.7050   2.6239449864e+02  -5.7822787066e+01   0.05960513   0.02429903  32.22  0.001227566    2.271    0.560
        64 -10.6784    177.4473     71.6653   2.6177087777e+02  -5.8268472511e+01   0.07027631   0.04713499 -88.87  0.001695138    1.698    0.411
        65 -10.0984    176.9975     67.0555   2.6146487613e+02  -5.8310491549e+01   0.03704986   0.02660286  16.69  0.000341483    1.412    0.292
        66 -11.3750    183.5982     78.3747   2.6235055878e+02  -5.8390081931e+01   0.07103267     0.063232 -39.19  0.001471112    1.132    0.117
        67 -10.8625    175.3286     77.8842   2.6211592165e+02  -5.8119265563e+01   0.05203741   0.04425132  59.92 0.0005138834    1.239    0.193
        68  -9.6520    171.1803     78.8765   2.6207798426e+02  -5.7967626906e+01   0.03741961   0.02412292  30.82 0.0005914053    1.511    0.338
        69  -8.5603     93.7091     84.7193   2.6067341029e+02  -5.5288355081e+01   0.02443033   0.01649171   9.51 0.0008343335    1.563    0.360
        70  -7.9943     53.3119     85.3483   2.5987660420e+02  -5.3916678568e+01    0.0200284   0.01279374  53.69 0.0007045933    1.716    0.417
        71  -9.7957    173.9552     82.3515   2.6236567100e+02  -5.8016478243e+01   0.02920162   0.02359266  34.38 0.0003945471    1.229    0.186
        72  -8.8956    139.9721     79.7240   2.6139484902e+02  -5.6908391184e+01   0.03458832   0.02394767 -12.14  0.001283823    1.661    0.398
        73 -11.5086    121.2550    102.5120   2.6234879064e+02  -5.5994465982e+01   0.06741774   0.04043739 -64.06  0.002432439    1.623    0.384
        74 -14.3231    189.9112    112.6604   2.6468420773e+02  -5.8142578123e+01    0.4192109    0.2336329  61.23   0.01335184    2.374    0.579
        75 -10.0072    152.5407     66.6479   2.6086779722e+02  -5.7491172036e+01   0.08817439   0.02586892  36.76  0.002153395    3.102    0.678
        76  -9.2510    145.8766     69.9289   2.6092165370e+02  -5.7226710514e+01   0.02871575   0.02373662  51.26 0.0005391746    1.251    0.201
        77 -10.9312    190.6704     63.8102   2.6158532343e+02  -5.8810339822e+01   0.08388412   0.03231773  36.38  0.002164672    2.449    0.592
        78 -10.4570    187.0289     59.3877   2.6120993642e+02  -5.8742112117e+01   0.04093346   0.03113524  54.89 0.0006881298    1.400    0.286
        79  -9.6951    173.1207     64.9121   2.6123543433e+02  -5.8206256423e+01   0.02866167   0.02399734 -28.93 0.0004835146    1.243    0.195
        80 -10.8479    175.5049     60.7723   2.6102599298e+02  -5.8336918459e+01   0.07147123   0.03286707 -78.16  0.001858491    2.488    0.598
        81  -9.7032    144.3455     59.5885   2.6024032104e+02  -5.7297892947e+01   0.03223184   0.02871495   1.27 0.0006396754    1.147    0.128
        82 -10.0830    165.9737     59.0759   2.6069564378e+02  -5.8035581999e+01   0.02729038   0.02708802  38.85 0.0003809594    1.014    0.014
        83  -8.4873    121.8880     57.1572   2.5960393025e+02  -5.6564357382e+01   0.02478822   0.02015222  47.32 0.0004264903    1.258    0.205
        84  -8.2630    123.2647     67.3092   2.6025807295e+02  -5.6493534854e+01   0.01881142   0.01307948  52.18 0.0002706111    1.534    0.348
        85  -9.9726    178.2376     52.5208   2.6055707579e+02  -5.8528014624e+01   0.05796539   0.01835028  41.89  0.001483782    3.271    0.694
        86 -10.4804    161.0506     47.4602   2.5984127169e+02  -5.8005042558e+01    0.0484773   0.03021571  41.26 0.0006984193    1.617    0.382
        87 -10.9284    201.1759    200.1794   2.7031122899e+02  -5.7171512182e+01   0.06422254   0.05371838 -65.44  0.001208362    1.205    0.170
        88 -11.8732    197.0213    196.5437   2.6997130941e+02  -5.7099614272e+01    0.1228181   0.05280147 -38.71  0.003362351    3.091    0.677
        89 -11.0816    189.5202    186.5205   2.6915774507e+02  -5.7022943876e+01   0.08220947   0.04181894  12.68  0.001841828    2.575    0.612
        90  -9.3835    248.7978     29.9414   2.6074360645e+02  -6.1176184158e+01   0.03036519   0.02559007 -72.91 0.0004369256    1.197    0.165
        91 -10.1713    201.6412     24.9730   2.5927457785e+02  -5.9638594292e+01   0.04250411   0.03384285   6.50 0.0004326851    1.294    0.227
        92  -8.1641      3.5738    249.4835   2.6760582393e+02  -5.0092266322e+01   0.01809721   0.01708857  53.86 0.0002065633    1.096    0.087
        93 -10.5347    198.1228    246.8577   2.7287530014e+02  -5.6277885730e+01   0.02910082   0.02499218 -24.07 0.0008049681    1.255    0.203
        94 -12.1101    212.3358    242.7412   2.7310631549e+02  -5.6790308807e+01   0.07704233    0.0584568 -40.58  0.003115583    1.368    0.269
        95  -8.8770    195.1416    206.8178   2.7051085130e+02  -5.6870510404e+01   0.02877283   0.02376678 -30.09 0.0007170496    1.294    0.227
        96 -11.5153    241.9093     22.3640   2.6004264566e+02  -6.1032595596e+01   0.06994445   0.03126611  44.06   0.00213509    2.360    0.576
        97  -8.3630     88.5580     24.2033   2.5692599881e+02  -5.5780142733e+01   0.02606613   0.01549448  34.36 0.0005496653    1.637    0.389
        98 -10.6874    241.6563     16.8981   2.5965383122e+02  -6.1086423336e+01   0.03139555   0.02510219 -89.85  0.000675288    1.330    0.248
        99 -10.7132    229.7858    221.5095   2.7246794127e+02  -5.7705543545e+01   0.05295392   0.03191054 -46.30  0.001019121    1.687    0.407
       100 -10.1264    114.7846    168.6198   2.6605315529e+02  -5.4878168218e+01   0.03768919   0.02676527  52.94 0.0009516366    1.534    0.348
       101  -9.1609    203.4478    188.0045   2.6966553709e+02  -5.7443320119e+01   0.03794655   0.02300978 -40.88  0.001335734    1.782    0.439
       102  -9.3336    230.0294    214.3320   2.7205781943e+02  -5.7838326654e+01   0.03288328   0.02631849  11.81 0.0006644218    1.357    0.263
       103 -10.0196    192.9821    213.4770   2.7082769766e+02  -5.6691216317e+01   0.03265589   0.02938825 -11.60 0.0004759536    1.177    0.151
       104  -8.2295    109.7149     11.3207   2.5651642600e+02  -5.6635691919e+01   0.01933571    0.0129308 -33.88 0.0002426328    1.594    0.373
       105  -9.4734     97.2221    211.4218   2.6797643142e+02  -5.3670410865e+01   0.03028689   0.02388709  29.95 0.0004088676    1.260    0.206
       106  -8.7254    162.4676    199.9482   2.6914087368e+02  -5.5943362204e+01   0.02666631    0.0156625  -8.06 0.0008094741    2.611    0.617
