#   1 NUMBER                 Running object number                                     
#   2 MAG_AUTO               Kron-like elliptical aperture magnitude                    [mag]
#   3 X_IMAGE                Object position along x                                    [pixel]
#   4 Y_IMAGE                Object position along y                                    [pixel]
#   5 X_WORLD                Barycenter position along world x axis                     [deg]
#   6 Y_WORLD                Barycenter position along world y axis                     [deg]
#   7 A_WORLD                Profile RMS along major axis (world units)                 [deg]
#   8 B_WORLD                Profile RMS along minor axis (world units)                 [deg]
#   9 THETA_WORLD            Position angle (CCW/world-x)                               [deg]
#  10 FWHM_WORLD             FWHM assuming a gaussian core                              [deg]
#  11 ELONGATION             A_IMAGE/B_IMAGE                                           
#  12 ELLIPTICITY            1 - B_IMAGE/A_IMAGE                                       
         1 -12.6424      2.9474     65.8829   1.2018825582e+02   6.1680219273e+01     0.583312    0.1981785 -64.26  0.002835426    2.024    0.506
         2 -13.4993    206.5211     35.3166   5.2272272692e+01   2.8956948786e+01     1.514939     1.166879  15.63  0.007009185    1.588    0.370
         3 -11.9333      3.6478     20.4941   1.0928833322e+02   7.1482785084e+01    0.3610904    0.1800608 -63.14  0.002048832    1.726    0.421
         4 -13.9300    226.8880     17.0497   4.4870955421e+01   2.6015872177e+01     1.121657    0.9574901  21.80  0.001296001    1.410    0.291
         5 -13.4585      3.5594      6.8719   1.0403174736e+02   7.4124277139e+01     1.826145    0.3449207 -53.80   0.00732683    3.398    0.706
         6 -10.3578    198.0318    245.4745   1.0015101046e+02  -3.4717540482e-01    0.1755832   0.08316508  38.46 0.0005561218    1.590    0.371
         7 -11.1474    161.5085    249.9735   1.0679736688e+02   4.4898136548e+00    0.3268705    0.1039011  36.68  0.001507082    2.695    0.629
         8 -11.7530    132.8032    249.2524   1.1156730638e+02   8.7487453809e+00    0.8997478    0.1738853  46.26  0.003374359    4.126    0.758
         9 -13.1641    125.7888    240.9143   1.1194130705e+02   1.0911584391e+01    0.6914287    0.3514235  39.68  0.004150927    1.577    0.366
        10 -12.2514    114.4359    249.0431   1.1465212804e+02   1.1370948250e+01      0.79215     0.310046  45.21  0.004436149    1.867    0.464
        11 -13.0817    103.4220    238.1607   1.1557008697e+02   1.4490870449e+01    0.5937474    0.5121627 -75.78  0.004369651    1.413    0.292
        12 -12.0118     87.7190    248.4399   1.1908078101e+02   1.5056040389e+01    0.5968379    0.3601251  41.75  0.003572673    1.387    0.279
        13 -10.6696     90.7597    242.0082   1.1807432673e+02   1.5623431048e+01    0.2242173    0.1794557  48.10 0.0009476827    1.204    0.170
        14 -11.6402     88.9309    237.9265   1.1806152905e+02   1.6494980741e+01    0.5222844    0.2131521  50.34  0.002413153    1.886    0.470
        15 -13.9318     68.1957    237.2682   1.2156180246e+02   1.9260252890e+01     1.786973     1.251415  24.91   0.01221231    2.101    0.524
        16 -13.7496      3.3828    192.1999   1.3043523067e+02   3.4146012267e+01     2.802631    0.6838819 -88.98   0.01160745    4.235    0.764
        17 -12.6605    134.9319    244.2523   1.1070070350e+02   9.1181902291e+00    0.5782481    0.2633569  37.79  0.003267715    1.809    0.447
        18 -14.8180      9.9081    245.0390   1.3130758925e+02   2.4372233722e+01      2.64144    0.9120618  35.21   0.01581215    2.868    0.651
        19 -11.0061    122.6430    248.9058   1.1325329708e+02   1.0240877209e+01    0.3192357    0.2994473 -84.12  0.001776168    1.368    0.269
        20 -11.2045     97.4025    239.6581   1.1674284159e+02   1.5089348230e+01    0.2396855    0.1820807 -76.43  0.001285969    1.533    0.348
        21 -10.4315     99.5408    250.4813   1.1727100831e+02   1.3197970986e+01    0.3209067    0.1336789  36.74  0.001308631    2.193    0.544
        22 -12.9132      2.8103    224.4793   1.3173699676e+02   2.8389110374e+01    0.7528989    0.3233885 -83.59  0.002742622    2.029    0.507
        23  -9.7839     52.1563    231.7222   1.2392510752e+02   2.2089214115e+01    0.1614683    0.1300634  82.30 0.0006761834    1.247    0.198
        24 -11.0218     84.0532    230.1737   1.1828445249e+02   1.8376564191e+01    0.4535498    0.1742842 -73.98  0.002238345    3.450    0.710
        25 -10.9649    113.4342    229.9320   1.1302367617e+02   1.4334571659e+01    0.1777447    0.1526892 -49.70  0.001326034    1.557    0.358
        26 -10.0357     56.6604    228.0021   1.2291888884e+02   2.2182141695e+01    0.2497064    0.2158561 -60.16  0.001432622    1.673    0.402
        27 -10.9995     98.8105    246.8613   1.1710087892e+02   1.3821919715e+01    0.3003707    0.1341067  50.54  0.001791596    1.709    0.415
        28 -11.9649     90.4816    224.7593   1.1667349218e+02   1.8399975518e+01    0.4036443    0.1963373  53.58   0.00232998    1.701    0.412
        29  -9.8899     90.9741    220.0125   1.1615379601e+02   1.9125818695e+01    0.1962136    0.1294084  82.69 0.0005564441    1.619    0.382
        30 -10.2147     81.6231    248.4748   1.2009402562e+02   1.5835839890e+01    0.2711414    0.1170262 -76.71  0.001550827    3.005    0.667
        31 -12.2689     21.7454    226.7860   1.2875372147e+02   2.6205785972e+01    0.2634611    0.1791456  68.67  0.000445591    1.033    0.032
        32 -11.1019     71.9046    219.2479   1.1957932480e+02   2.1796320303e+01    0.3417842    0.1341841  58.66  0.001698964    2.481    0.597
        33  -9.5035     60.1467    220.2267   1.2177474860e+02   2.3093757070e+01     0.149982      0.12325  59.57 0.0003823402    1.184    0.155
        34 -10.2040     51.0452    218.8833   1.2330587240e+02   2.4410449297e+01    0.2195018    0.1081881  63.66  0.001041583    1.732    0.422
        35 -11.4390    180.1617    243.5010   1.0288558028e+02   2.5119006957e+00    0.3033523    0.1237964  33.98  0.001363013    2.129    0.530
        36  -9.5338     88.0683    213.1731   1.1605591066e+02   2.0703007832e+01    0.2197484    0.1236112  75.87  0.001180229    2.084    0.520
        37  -9.1086     45.9734    214.2404   1.2390978287e+02   2.5816365912e+01    0.2444955   0.07056143  52.35  0.001171468    2.705    0.630
        38  -9.7009     56.2200    208.0032   1.2159834744e+02   2.5750955889e+01    0.2123818    0.1413907 -82.25  0.001254431    1.445    0.308
        39 -11.2398    116.3746    239.3789   1.1342781016e+02   1.2486719181e+01    0.2565076     0.183461 -39.55   0.00157015    2.122    0.529
        40  -9.7531     64.3576    209.3158   1.2017788982e+02   2.4514603697e+01    0.1482269    0.1365025 -33.16  0.001107234    1.710    0.415
        41  -7.9651     61.6892    208.3161   1.2059882093e+02   2.5028105538e+01    0.1675103   0.08542268  53.87 0.0002568121    1.586    0.369
        42  -9.6662     65.9939    205.7255   1.1957474091e+02   2.4966001678e+01     0.376404   0.07618168  45.29  0.001510158    3.451    0.710
        43  -9.7814    106.8378    203.4538   1.1142433518e+02   1.9709208174e+01    0.1999695    0.1669379 -64.96 0.0005013029    1.376    0.273
        44  -9.6913     88.3820    202.4610   1.1494027545e+02   2.2577673912e+01     0.286867    0.1412323 -76.80  0.001456269    2.482    0.597
        45  -9.7736    250.4974    200.8741   8.4660944614e+01  -3.2867495710e+00    0.1649185    0.1021685 -19.99  0.001020871    1.560    0.359
        46  -9.7824     74.1317    201.1058   1.1759790688e+02   2.4772202187e+01    0.1646106     0.110428  69.09 0.0004735945    1.319    0.242
        47 -10.1985     45.7579    198.2194   1.2285442402e+02   2.8803425713e+01    0.3454241    0.1523468  40.14  0.001842849    2.017    0.504
        48 -12.0429     82.8757    242.2081   1.1942812887e+02   1.6625984212e+01    0.4661212    0.3718444  47.78  0.003698101    1.240    0.194
        49 -10.2686     36.0821    192.3428   1.2430361520e+02   3.0999851302e+01    0.3884242    0.1638497  54.80  0.001210087    1.964    0.491
        50  -9.8242     30.5236    193.9024   1.2547193389e+02   3.1279080930e+01    0.1582747   0.09005396 -82.06   0.00101905    1.555    0.357
        51 -11.9751     48.7356    191.5753   1.2177291658e+02   2.9746455034e+01    0.2750193    0.2474571 -50.28 0.0006933432    1.602    0.376
        52 -10.5578    245.5141    241.5115   9.1973521676e+01  -6.6416060196e+00    0.1088293   0.07674212  19.39 0.0007182501    1.001    0.001
        53  -8.9501    191.5361    191.5039   9.3216170566e+01   7.5297356555e+00    0.1286764    0.1088972  26.03 6.549207e-05    1.007    0.007
        54  -9.0304    109.2062    191.3796   1.0948967576e+02   2.1542340530e+01    0.1726227   0.09903163  50.27 0.0002161197    1.526    0.345
        55  -9.2423     19.6234    190.7676   1.2735481856e+02   3.2963317077e+01    0.2051273    0.1092039  86.68  0.001307331    1.564    0.360
        56  -9.4946     57.4207    190.4316   1.1994833639e+02   2.8941757593e+01    0.1178902   0.09037787  70.43 0.0002262942    1.037    0.035
        57  -9.1431     15.4816    189.9459   1.2809162916e+02   3.3509900179e+01    0.1580006   0.08492357 -83.42   0.00102409    1.571    0.364
        58  -8.9859     67.4515    188.0509   1.1769642269e+02   2.8154170768e+01     0.212766    0.1479993 -18.73  0.001050171    3.462    0.711
        59 -12.1340     55.8982    184.0463   1.1969397965e+02   3.0394858162e+01    0.2712005     0.205512  56.15 0.0005732389    1.166    0.143
        60  -9.9322     37.1670    180.3483   1.2322722086e+02   3.3267893984e+01    0.2842776      0.14441  69.92  0.001601118    1.823    0.452
        61  -9.2985     45.3024    177.9573   1.2135736732e+02   3.2866555202e+01    0.1596132    0.1266969  81.85 0.0005468157    1.056    0.053
        62  -8.7428     59.7882    177.3687   1.1825194645e+02   3.1277572322e+01    0.1498819    0.1100762  32.25 0.0003709688    1.616    0.381
        63 -11.1239    249.0835    172.6675   7.9666214571e+01   2.1022389046e-01    0.3531043    0.2257686  -5.62  0.002004949    1.550    0.355
        64 -10.8000     68.5127    172.1095   1.1581873875e+02   3.1256595415e+01    0.2262354    0.1944092 -85.52 0.0003804561    1.143    0.125
        65 -11.2112     12.4827    172.0084   1.2768727329e+02   3.7348036067e+01    0.3111911      0.14448  79.38  0.001778661    1.867    0.464
        66 -10.3639      2.8795    172.9988   1.2965814295e+02   3.7946065485e+01     0.200001     0.125725  48.25  0.000736194    1.477    0.323
        67 -10.7428     53.1313    170.9147   1.1905027072e+02   3.3426045422e+01    0.2680764    0.2371519 -82.01  0.001060838    1.229    0.186
        68 -10.2072     27.0985    171.7281   1.2466658545e+02   3.6062218408e+01     0.222847    0.1829506  30.18 0.0005507214    1.596    0.374
        69  -9.1156     18.3344    172.3159   1.2651577190e+02   3.6766099244e+01    0.1482329    0.1405747  87.48  0.001190569    1.409    0.290
        70 -10.9126     19.8511    168.3090   1.2594161243e+02   3.7455856421e+01    0.2288113    0.1775955 -66.13 0.0003463685    1.457    0.314
        71 -10.3025     40.3630    168.1083   1.2156050353e+02   3.5460585154e+01    0.2529063    0.2257524 -55.05  0.001312958    1.481    0.325
        72 -11.6262     13.1378    167.1257   1.2726244986e+02   3.8295997633e+01    0.3436267    0.1470628  34.92  0.001955235    2.361    0.576
        73 -11.6187      7.8165    165.6008   1.2827248747e+02   3.9057114487e+01     0.420682    0.2684979 -30.06  0.002455825    3.144    0.682
        74 -12.0563     76.6539    164.1667   1.1305943542e+02   3.1836476178e+01    0.5043503    0.4259519 -84.35  0.002039238    1.112    0.101
        75 -11.2382    243.5099    155.1793   7.7039002901e+01   3.4030831221e+00    0.2641146     0.218956  62.58  0.001568564    1.752    0.429
        76 -10.6584    247.9774    157.5632   7.6811196055e+01   2.3102825976e+00    0.5013798    0.1166704  45.90  0.001704853    4.271    0.766
        77 -10.2300     23.9520    161.9324   1.2461691598e+02   3.8418413537e+01    0.1737313    0.1367043  80.32 0.0005652651    1.040    0.039
        78  -8.8055     49.5351    161.4162   1.1890037648e+02   3.5870590079e+01    0.1220872   0.09863837  78.34  6.41508e-05    1.016    0.016
        79  -8.9575     43.0698    161.1552   1.2032994732e+02   3.6651635687e+01    0.1690397    0.1135471  69.69 0.0004142784    1.308    0.236
        80 -10.9079     26.1672    155.7894   1.2364795961e+02   3.9528815375e+01    0.2794413    0.1866148  49.44 0.0008007433    1.436    0.304
        81 -10.0395     21.5007    156.0594   1.2471063434e+02   3.9899423647e+01    0.2248056   0.08899885 -72.46  0.001151813    2.091    0.522
        82 -11.2034      9.4544    156.4529   1.2737819741e+02   4.0840843728e+01    0.2806245    0.1092663  66.58  0.001396307    2.476    0.596
        83 -12.8641     34.8249    205.6513   1.2539304510e+02   2.8607501780e+01    0.9422358    0.5789281  81.33  0.006536736    1.356    0.262
        84 -11.3937    245.1398    162.0893   7.8196318658e+01   2.2095323092e+00    0.3005787    0.1968715 -31.14  0.001702624    1.515    0.340
        85  -8.4159    228.4540    155.4567   7.9620642775e+01   6.0794027051e+00    0.1332283    0.1163386   5.21 0.0001842488    1.030    0.029
        86  -8.9250     73.7015    154.3029   1.1245897313e+02   3.4381847453e+01    0.1337121   0.08742094  71.86 0.0002880973    1.584    0.369
        87 -10.7780     12.8513    153.1543   1.2641730694e+02   4.1268872706e+01    0.1803811     0.121672  74.13 0.0005561179    1.198    0.165
        88 -10.8417    249.5984    150.8382   7.5150242121e+01   2.9101608921e+00    0.3198166    0.2338116 -19.68  0.001891746    1.229    0.186
        89 -11.0381     91.7657    149.6857   1.0746050242e+02   3.2759697731e+01    0.2974772    0.2765665  81.81  0.001035276    1.070    0.065
        90 -11.0864     23.2137    149.9216   1.2383614160e+02   4.1077933413e+01    0.2707819    0.1925348 -33.04  0.001570015    2.232    0.552
        91 -10.4322     79.7584    148.5700   1.1019707843e+02   3.4799383361e+01     0.230092    0.2031889  85.08 0.0004368127    1.016    0.015
        92  -9.7872     38.9925    148.8819   1.2006019352e+02   3.9776372322e+01    0.2000319    0.1521592 -69.26 0.0003685295    1.269    0.212
        93 -12.9485      7.6743    127.6276   1.2572778465e+02   4.7278571964e+01    0.6083426    0.4431406  11.37  0.004107087    1.984    0.496
        94 -12.8094      4.2870    142.9116   1.2765355519e+02   4.4144120682e+01    0.5664833    0.3191136 -68.36  0.002647667    1.568    0.362
        95 -12.8570      9.5598    142.9040   1.2644063996e+02   4.3753131536e+01    0.6288541    0.2135126 -79.60  0.003002906    2.392    0.582
        96 -12.4801    241.6100    120.3270   6.9637739384e+01   8.6250100172e+00    0.7079691    0.4722058  56.09  0.003633697    1.795    0.443
        97 -12.7777    248.0789    113.6635   6.7089930924e+01   8.3060208446e+00    0.9898189    0.5246741 -38.67  0.004636551    1.807    0.447
        98 -13.3107    248.2721    101.9454   6.4275936840e+01   9.9299634721e+00     1.590817     0.599831 -26.37   0.00600276    2.610    0.617
        99 -12.6243    248.1610    134.9298   7.1935166042e+01   5.3144736799e+00     1.061401    0.4478673 -21.28  0.004198868    2.720    0.632
       100  -9.3938    235.9733    146.0355   7.6338904820e+01   6.0231857961e+00    0.2134881    0.1445919   9.69 0.0005064876    1.606    0.377
       101 -11.4379     68.3192    143.5504   1.1228172791e+02   3.7508211518e+01     0.598672    0.3176749  68.55  0.002086092    2.392    0.582
       102  -9.4196     45.0118    139.7422   1.1759347449e+02   4.1191474997e+01    0.1691667    0.1439347  81.06 0.0003093783    1.063    0.059
       103  -9.5353     95.2204    145.5935   1.0595685512e+02   3.3118158252e+01    0.2204618    0.1739431 -79.10 0.0007687408    1.252    0.201
       104 -10.0249    105.8869    135.4221   1.0149029811e+02   3.3603659281e+01    0.4218094    0.2939609  -7.07   0.00179656    2.769    0.639
       105 -11.3216     15.9395    132.9663   1.2412467977e+02   4.5460638927e+01    0.2522063    0.1487098  44.35 0.0009760928    1.735    0.424
       106  -9.0962     44.4616    130.4361   1.1658458361e+02   4.3386403430e+01    0.1279046    0.1042206  87.56 0.0001216735    1.053    0.051
       107 -12.9817      4.4165    121.6404   1.2606550738e+02   4.8845667689e+01     0.618991    0.3890054 -53.96  0.003949315    1.692    0.409
       108 -12.8810      6.0181    112.4395   1.2484308542e+02   5.0828201527e+01    0.5915537    0.4355619  52.46  0.004093806    1.450    0.310
       109 -12.9748      3.2695    100.3659   1.2444544868e+02   5.3757570647e+01     0.798117    0.2340225 -74.11  0.003531148    2.517    0.603
       110 -10.4662    232.0466    116.3241   7.0216713295e+01   1.1139477260e+01    0.1953103    0.1818286  19.42 0.0007632346    1.113    0.102
       111  -9.5475     25.3183    109.3162   1.1910337328e+02   5.0137740675e+01    0.1237463    0.0798129 -48.39 0.0007039353    1.654    0.395
       112 -12.1740     12.6281    101.9017   1.2187893634e+02   5.2820121402e+01    0.3056771    0.2543346  19.56  0.002152728    1.576    0.366
       113 -12.0391     15.6946    120.6441   1.2303837549e+02   4.8276618761e+01    0.3496833    0.1917796  70.80 0.0007602381    1.820    0.450
       114 -11.9854    248.0374    142.4684   7.3607901109e+01   4.3069220206e+00    0.5301003    0.3837856 -13.48    0.0030449    1.254    0.203
       115  -9.5949    162.4705     80.5067   7.3723194404e+01   3.3180333764e+01    0.1551853    0.1515149 -21.72 0.0002349496    1.002    0.002
       116 -11.0362    142.9506    249.2181   1.0984637799e+02   7.2906074885e+00     0.361151    0.1768307  57.11  0.001979125    2.352    0.575
       117 -11.3986    154.6258    247.1294   1.0764266568e+02   5.8534969987e+00    0.2591515     0.216584 -41.99   0.00202796    1.595    0.373
       118 -11.7063    150.2209    247.6566   1.0844834144e+02   6.4328585032e+00    0.2814874    0.2630617 -38.68  0.002338504    1.430    0.300
       119 -14.9843     20.6405    219.4661   1.2861182090e+02   2.7576193740e+01     1.130683    0.9139764  70.08  0.009634724    1.232    0.188
