#   1 NUMBER                 Running object number                                     
#   2 MAG_AUTO               Kron-like elliptical aperture magnitude                    [mag]
#   3 X_IMAGE                Object position along x                                    [pixel]
#   4 Y_IMAGE                Object position along y                                    [pixel]
#   5 X_WORLD                Barycenter position along world x axis                     [deg]
#   6 Y_WORLD                Barycenter position along world y axis                     [deg]
#   7 A_WORLD                Profile RMS along major axis (world units)                 [deg]
#   8 B_WORLD                Profile RMS along minor axis (world units)                 [deg]
#   9 THETA_WORLD            Position angle (CCW/world-x)                               [deg]
#  10 FWHM_WORLD             FWHM assuming a gaussian core                              [deg]
#  11 ELONGATION             A_IMAGE/B_IMAGE                                           
#  12 ELLIPTICITY            1 - B_IMAGE/A_IMAGE                                       
         1 -14.4937    151.9657     60.2061   8.3404070145e+01   3.9410525497e+01      1.25221     1.101149  10.00 0.0009053757    1.300    0.231
         2 -14.9254    163.5659     45.7540   7.6876743706e+01   3.8729324393e+01     1.311062     1.082593 -22.28    0.0038366    1.382    0.276
         3 -15.1701    181.2882     12.1064   6.4893573090e+01   3.8418984495e+01     2.498656     1.158274  65.39  0.008054558    1.818    0.450
         4 -12.7496    125.2993    238.0960   1.2850944274e+02   7.9081052567e+00    0.3648895    0.2054331 -60.43  0.001407182    2.029    0.507
         5 -20.3275     72.8131    179.0096   1.3158270701e+02   2.9030391918e+01     17.28392     6.605404 -64.62   0.06932128    2.469    0.595
         6 -11.7821    135.2082    240.9361   1.2694853433e+02   5.6958094169e+00    0.4936273    0.2803357  38.41  0.001394855    1.640    0.390
         7 -12.4870    189.6680    177.8001   1.0486094190e+02   7.4622423191e+00    0.8478166    0.4712863 -66.94  0.002829796    3.745    0.733
         8 -12.6701    204.3575    175.2149   1.0131665560e+02   4.9913678518e+00    0.4847452    0.4512245 -66.83  0.001414093    1.217    0.178
         9 -12.1275    196.6742    176.0292   1.0304450665e+02   6.3846116380e+00     0.542912    0.4086401 -67.94  0.002203932    1.748    0.428
        10 -12.6058    189.7452    155.6205   1.0007106139e+02   1.1924102301e+01    0.5254697    0.4794061  33.10  0.001612557    1.119    0.106
        11 -12.7434    192.9773    165.3656   1.0154029691e+02   9.2572354340e+00    0.4634733    0.3349912 -44.59    0.0010007    1.389    0.280
        12 -12.4002    189.9573    160.9960   1.0121777586e+02   1.0779610635e+01    0.4112095    0.3610234  58.23  0.000978754    1.195    0.163
        13 -10.1667     17.6195    173.8193   1.4320574932e+02   3.6799345843e+01    0.1586737    0.1481139 -77.26 0.0005707783    1.329    0.248
        14 -11.9981    177.0383    169.2329   1.0575266421e+02   1.1818158276e+01    0.2741003    0.1963745 -60.70 0.0007727426    1.609    0.379
        15 -12.2160    230.4252    167.5223   9.4679430761e+01   1.3015139443e+00     0.456553    0.2226674 -52.87  0.001758164    2.737    0.635
        16 -11.4869    134.9989    236.4999   1.2639169204e+02   6.5338092565e+00    0.2535109    0.1889164  63.94 0.0009611598    1.306    0.234
        17 -12.5453     13.0603    239.3414   1.4899813694e+02   2.3492068479e+01    0.3260588     0.173662 -80.31  0.002004656    1.559    0.359
        18 -10.7580    151.0522    239.0503   1.2358887817e+02   3.2764760414e+00    0.2182422    0.1907528  25.01 0.0009880933    1.252    0.201
        19 -10.9040     22.9478    156.0748   1.4014426275e+02   4.0351330625e+01    0.2001659    0.1626025  63.54 0.0004057976    1.287    0.223
        20 -10.6031     17.6916    158.7091   1.4164523270e+02   4.0222970795e+01    0.2889473    0.2485261  20.20   0.00151998    1.604    0.376
        21 -11.1202     18.3715    155.2425   1.4110772653e+02   4.0956530777e+01     0.270689    0.1880996  85.14  0.001333847    1.298    0.230
        22 -11.6295    167.0564    155.8010   1.0504201167e+02   1.6804991554e+01    0.2446909    0.2107843  82.17 0.0008576646    1.303    0.233
        23 -10.9422    160.9059    236.0210   1.2120549897e+02   2.0653100405e+00    0.4002447    0.2417603 -22.63  0.001735944    3.042    0.671
        24 -10.7664      5.3261    232.8000   1.4987035927e+02   2.5556116597e+01    0.2059745    0.1293388  41.08  0.001320764    1.814    0.449
        25 -11.1605    174.2406    148.5694   1.0181083595e+02   1.6791198420e+01    0.4270218    0.2915629 -65.12  0.001531508    1.818    0.450
        26 -11.1166     27.1420    145.7278   1.3786500241e+02   4.2358385037e+01    0.2385477    0.2205376  79.18 0.0007530952    1.205    0.170
        27 -12.3769    152.8263    139.3409   1.0455848140e+02   2.3539027966e+01     0.388807    0.3057762  81.41  0.001110649    1.546    0.353
        28 -11.6847    139.9416    227.9622   1.2420067284e+02   7.2465922485e+00    0.4636006     0.333878  52.71  0.001594181    1.234    0.190
        29 -11.3832    218.3584    220.7787   1.0745452420e+02  -5.5267164090e+00    0.3796636    0.1798526 -49.19  0.001648296    2.832    0.647
        30 -12.5287    160.3929    128.0108   1.0005392083e+02   2.4341911389e+01    0.4904839    0.3745252 -60.14  0.001646425    1.395    0.283
        31 -10.5690    119.4333    212.5052   1.2617611496e+02   1.3946391692e+01    0.2020738    0.1783416  -1.68 0.0005032825    1.589    0.371
        32 -10.6726    139.6843    249.5932   1.2722347305e+02   3.4222170026e+00    0.9417331    0.2077112 -56.52  0.002795132    6.974    0.857
        33 -11.1069    167.4059    112.6468   9.4575968277e+01   2.5979657955e+01    0.3459793    0.2552787 -82.13  0.001335385    1.801    0.445
        34 -13.7970     11.9409    205.9568   1.4701109625e+02   3.0331035641e+01    0.5079767    0.3745833  32.82  0.003070503    1.830    0.454
        35 -10.9938    205.0389    110.3834   8.6328084156e+01   1.7560074192e+01    0.3632568    0.2405994  41.91  0.001003057    1.686    0.407
        36 -10.8312    140.1038    200.6131   1.1986825344e+02   1.2646174991e+01    0.3206879    0.2985295 -46.37  0.001864647    1.204    0.169
        37 -10.8897    135.1071    198.4842   1.2059830951e+02   1.4036036861e+01    0.2535318    0.2061521 -49.62 0.0005413079    1.341    0.254
        38 -11.0735     13.2392    100.9042   1.3491463857e+02   5.3679602827e+01    0.2811089    0.1691838  28.15  0.001700718    2.047    0.512
        39 -10.9307    121.7486    198.1586   1.2347698835e+02   1.6575930028e+01    0.2701121    0.2239897 -50.91 0.0008519055    1.335    0.251
        40 -10.6551      1.3430    197.0283   1.4832010971e+02   3.3205143113e+01    0.1583596   0.07868791 -73.98 0.0007351359    1.587    0.370
        41 -13.1186    164.5173    187.3027   1.1213405046e+02   1.0643856128e+01    0.7636685    0.3177378  51.06   0.00223875    2.606    0.616
        42 -11.7402    164.5200    183.0327   1.1130310612e+02   1.1527960384e+01    0.3557116    0.2250926 -72.21  0.001083168    2.428    0.588
        43 -10.7949    144.9063     81.6610   9.1286884235e+01   3.7399860540e+01    0.2160219     0.192106  57.10 0.0005252917    1.117    0.105
        44 -10.4035    127.1491    249.0476   1.2953589201e+02   5.6260916364e+00    0.1565692    0.1427692  57.13 0.0003183794    1.150    0.130
        45 -10.9870    163.5031    247.5907   1.2239497095e+02  -3.1708853842e-01    0.2242651    0.1286401 -48.65   0.00118819    2.086    0.521
        46 -13.2253    167.7674     37.3077   7.3727928899e+01   3.8827272183e+01    0.4138908    0.3862935  57.71 0.0008775967    1.086    0.079
        47 -11.6002     13.4954     59.9682   1.2619062373e+02   6.2123212098e+01    0.2045172    0.1758995 -48.31 0.0005575581    1.186    0.157
