#   1 NUMBER                 Running object number                                     
#   2 MAG_AUTO               Kron-like elliptical aperture magnitude                    [mag]
#   3 X_IMAGE                Object position along x                                    [pixel]
#   4 Y_IMAGE                Object position along y                                    [pixel]
#   5 X_WORLD                Barycenter position along world x axis                     [deg]
#   6 Y_WORLD                Barycenter position along world y axis                     [deg]
#   7 A_WORLD                Profile RMS along major axis (world units)                 [deg]
#   8 B_WORLD                Profile RMS along minor axis (world units)                 [deg]
#   9 THETA_WORLD            Position angle (CCW/world-x)                               [deg]
#  10 FWHM_WORLD             FWHM assuming a gaussian core                              [deg]
#  11 ELONGATION             A_IMAGE/B_IMAGE                                           
#  12 ELLIPTICITY            1 - B_IMAGE/A_IMAGE                                       
         1 -15.0337     10.1210    152.6003   1.4323106881e+02   4.1946054385e+01     9.191496     3.223458  87.65   0.03576524    3.657    0.727
         2 -13.1585    196.0317     29.7795   6.7565449082e+01   3.2436649758e+01     1.329385     1.218647  60.29  0.006177638    1.135    0.119
         3 -13.3575    211.7439     10.1115   6.0606689738e+01   3.0787457555e+01     1.289462    0.9347698  36.87  0.007136451    1.769    0.435
         4 -12.6803      3.6531     11.0171   1.1707762372e+02   7.2513930353e+01      1.46506    0.2624331 -47.08  0.005969869    3.627    0.724
         5  -9.8290     81.8544    249.1075   1.3723854385e+02   1.4225060375e+01    0.1820878    0.1195736  62.78 0.0007109451    1.260    0.206
         6 -10.6121    138.7163    249.7229   1.2715333360e+02   5.8012223554e+00    0.2921322    0.1190402  40.99  0.001462078    1.951    0.488
         7 -10.2264    122.7236    250.1412   1.3008022246e+02   8.1731278351e+00    0.2366592    0.1227345  34.47  0.001022547    1.880    0.468
         8 -10.0258    112.4039    250.5164   1.3196720186e+02   9.6522992914e+00    0.2506679   0.09258226  40.86  0.001215613    2.185    0.542
         9 -11.0640     99.9021    247.8432   1.3393716594e+02   1.1904747000e+01    0.3035256    0.2726854 -62.62  0.002308638    1.439    0.305
        10 -10.9867     35.1711    244.1748   1.4484722608e+02   2.0905434938e+01    0.3487846    0.3262885  73.04  0.002899546    1.512    0.338
        11 -10.5878     29.2650    249.9268   1.4612721883e+02   2.0570473133e+01    0.3305901    0.1144096  45.55  0.001913548    2.126    0.530
        12  -9.8138     29.7966    246.4011   1.4585316489e+02   2.1117533878e+01    0.1638655    0.1390573  64.72 0.0005470998    1.334    0.250
        13  -9.8436     12.0141    249.9977   1.4884614520e+02   2.2375179496e+01    0.1768788   0.07677703  63.94  0.001142919    1.729    0.422
        14 -10.1325      2.2249    249.5970   1.5032702662e+02   2.3405511109e+01    0.1736897    0.1412467  73.88  0.001546634    1.329    0.247
        15  -9.8661     46.9076    249.2304   1.4320838036e+02   1.8670573275e+01    0.1716051    0.1058151  63.42  0.000502171    1.224    0.183
        16  -8.5947     66.9824    250.0287   1.3988103812e+02   1.6043494839e+01    0.1346198   0.09778491  59.73 0.0003726302    1.035    0.034
        17 -10.1486    248.9991    243.1693   1.0691381976e+02  -9.9358837328e+00    0.1626851    0.1251917  50.21  0.001095415    2.054    0.513
        18  -9.6435     18.9574    242.1852   1.4738924340e+02   2.3011859012e+01     0.169682   0.09637746  64.83 0.0009470141    1.289    0.224
        19 -10.4448     12.3645    240.2498   1.4835594425e+02   2.4024923470e+01    0.2464364    0.1117822  53.33  0.001062655    1.632    0.387
        20  -9.8952      5.8216    240.9248   1.4942394770e+02   2.4550708009e+01    0.1392196    0.1091731  82.70 0.0004873252    1.268    0.211
        21 -10.6322    229.7600    230.5939   1.0810539318e+02  -5.7803960854e+00     0.377757    0.2296225 -56.88  0.001716727    4.318    0.768
        22 -10.4321     50.7215    234.4479   1.4156119139e+02   2.0814045155e+01    0.2777276    0.2066436 -38.75  0.001797641    2.464    0.594
        23  -9.7085     54.7943    229.6874   1.4048130145e+02   2.1184637889e+01    0.2573797    0.1360504  64.97  0.001519052    1.681    0.405
        24 -14.0870    103.9826    229.1924   1.3127838347e+02   1.4481201914e+01     5.812329          nan  44.51   0.01129794   12.676    0.921
        25  -9.9190     55.0265    224.0776   1.3999911211e+02   2.2203923842e+01    0.2526018    0.1374436  65.59   0.00148586    1.646    0.392
        26  -9.9399    172.7019    222.5797   1.1718720875e+02   4.4498450337e+00    0.2558692    0.1061382  37.43  0.001142365    2.136    0.532
        27 -12.5597     33.4081    232.0919   1.4442092999e+02   2.3264052872e+01    0.2703326    0.2233536 -80.79 0.0007485506    1.390    0.281
        28  -8.5821    152.4748    212.9257   1.1965689880e+02   9.4630789482e+00    0.1627295    0.1302404 -51.24 0.0003948884    1.442    0.306
        29 -12.4386      9.9559    206.7782   1.4705912165e+02   3.0505261682e+01    0.6312986    0.3983454  36.72  0.002904329    1.781    0.439
        30 -11.4278     60.2983    198.2407   1.3665628498e+02   2.6659046817e+01    0.2628021    0.2258277 -61.85 0.0005514953    1.396    0.284
        31  -9.6557    192.8302    194.7892   1.0864861689e+02   5.3553176798e+00    0.6594675    0.3275203 -62.18  0.001627041    9.377    0.893
        32 -11.7762     14.6648    196.6700   1.4557735067e+02   3.2085671296e+01    0.2908222    0.1655958  61.19  0.000996154    1.467    0.318
        33 -10.9926      6.0476    188.6476   1.4672312630e+02   3.4517170939e+01    0.3053202    0.2082569 -75.23  0.002161599    1.341    0.254
        34 -11.1484      1.7398    191.8538   1.4773191284e+02   3.4231078680e+01     0.656545    0.1225254 -79.40  0.002386341    4.781    0.791
        35 -10.9447      2.5271    183.8159   1.4711104999e+02   3.5818521039e+01    0.4118141    0.1807409 -79.32  0.002362903    1.819    0.450
        36 -11.7461     66.6549    189.9780   1.3444890706e+02   2.7560803717e+01    0.2740566    0.2255223 -65.57 0.0005058938    1.309    0.236
        37 -13.6605     38.9166    224.7415   1.4297489322e+02   2.4006198116e+01    0.7294021    0.5499541  68.51   0.00241789    1.037    0.036
        38 -10.5997     76.8554    177.2943   1.3065634050e+02   2.8896757891e+01     0.225398    0.1958961 -86.30  0.000273916    1.073    0.068
        39 -13.1031     63.6444    175.1505   1.3337229241e+02   3.1188272818e+01    0.4893825    0.2736149 -46.53  0.001788516    2.296    0.564
        40  -8.7457     97.1217    173.4150   1.2546377715e+02   2.6670203936e+01    0.2304354    0.1749833 -54.59 0.0006011042    1.383    0.277
        41 -11.6344     84.5976    167.9653   1.2755481643e+02   2.9833927080e+01    0.6232208    0.6044205  45.92   0.00397167    1.217    0.178
        42 -11.7205    238.1987    247.1827   1.0931809189e+02  -8.8900352784e+00     0.360019    0.2878787 -41.51  0.002586654    1.902    0.474
        43  -9.6628     97.4235    152.2401   1.2186399510e+02   3.1374952980e+01    0.2652634     0.250235  83.40 0.0008162627    1.039    0.037
        44 -11.9210     85.8613    151.2482   1.2457544489e+02   3.3456407223e+01    0.2906282    0.2463561 -45.57 0.0005696638    1.310    0.237
        45  -8.8900    100.2932    147.9952   1.2036594593e+02   3.1866553692e+01    0.1961213     0.173127 -63.63 0.0003369302    1.102    0.093
        46 -12.1517     67.3017    143.6611   1.2803834253e+02   3.7926184664e+01    0.6926983    0.4418337  66.92  0.003140772    1.808    0.447
        47  -8.9770     59.6841    227.3391   1.3940616496e+02   2.1005071689e+01    0.1869523    0.0996329  65.78 0.0009133185    1.727    0.421
        48  -9.5632    109.1024    137.2616   1.1598801343e+02   3.2783249381e+01    0.4353043    0.2722062 -26.05   0.00173758    2.593    0.614
        49 -10.1759     96.3616    134.3966   1.1871034054e+02   3.5675873652e+01    0.2551971    0.2250344 -30.12  0.001286941    1.304    0.233
        50 -10.3076     55.4049    129.7813   1.2891346570e+02   4.2740924298e+01    0.3083505    0.1443349 -57.46  0.001406717    1.854    0.461
        51  -8.8618     78.9607    131.2181   1.2273823368e+02   3.9197634363e+01    0.2384894    0.1472657  66.04  0.001060373    2.112    0.526
        52  -9.0442     87.6972    128.9870   1.1992105210e+02   3.8366846780e+01     0.230648      0.17949  73.44 0.0003930658    1.449    0.310
        53 -11.4218     22.5594    126.7169   1.3739586240e+02   4.6846255633e+01    0.3707888    0.2198982  51.66  0.001197559    1.848    0.459
        54  -8.5860    106.4740    123.8590   1.1373317092e+02   3.6331984004e+01    0.2007262    0.1410987 -52.78 0.0002638228    1.368    0.269
        55 -10.6336     31.6179    131.7637   1.3564046144e+02   4.4852721035e+01    0.2840344    0.2015257  50.74  0.001148117    1.514    0.339
        56  -9.9224    167.8953    112.9593   9.5896933474e+01   2.5752892067e+01    0.3316135    0.2784503 -79.44 0.0009024892    1.429    0.300
        57  -9.2947    203.7655    111.1968   8.8239220452e+01   1.7881029905e+01    0.2109834    0.1760167   6.32  0.001066839    1.371    0.271
        58 -10.8099    242.3736     93.2100   7.7586199769e+01   1.2432859341e+01    0.2748953    0.1657051 -41.41  0.001335169    1.488    0.328
        59  -9.2906     44.0100     68.0246   1.1903783859e+02   5.8204595042e+01    0.3023341    0.1360469  50.56   0.00114139    4.097    0.756
        60  -8.8910     31.8397     62.0919   1.2195593786e+02   6.0696098681e+01    0.1754729    0.1611335 -75.05 0.0006943681    1.289    0.224
        61 -11.5473     13.0514     54.6544   1.2740218111e+02   6.3743717006e+01    0.3258784    0.1985653  38.62  0.001501325    2.145    0.534
        62 -10.4588      2.0151     45.8018   1.2972772915e+02   6.6203735963e+01    0.2043362    0.1306078 -72.01   0.00127515    1.632    0.387
        63 -11.6900      3.3712     38.8749   1.2723300445e+02   6.7506375624e+01    0.4517798    0.2752627 -83.71  0.002466248    2.640    0.621
        64 -11.2404    198.4498    247.5511   1.1617047483e+02  -3.1462756777e+00     0.321714    0.2349785 -21.01  0.002177381    1.573    0.364
        65 -10.2047    157.0006    249.5101   1.2382912824e+02   3.0002211503e+00    0.1891097   0.09438182  39.91 0.0006630362    1.594    0.373
