#   1 NUMBER                 Running object number                                     
#   2 MAG_AUTO               Kron-like elliptical aperture magnitude                    [mag]
#   3 X_IMAGE                Object position along x                                    [pixel]
#   4 Y_IMAGE                Object position along y                                    [pixel]
#   5 X_WORLD                Barycenter position along world x axis                     [deg]
#   6 Y_WORLD                Barycenter position along world y axis                     [deg]
#   7 A_WORLD                Profile RMS along major axis (world units)                 [deg]
#   8 B_WORLD                Profile RMS along minor axis (world units)                 [deg]
#   9 THETA_WORLD            Position angle (CCW/world-x)                               [deg]
#  10 FWHM_WORLD             FWHM assuming a gaussian core                              [deg]
#  11 ELONGATION             A_IMAGE/B_IMAGE                                           
#  12 ELLIPTICITY            1 - B_IMAGE/A_IMAGE                                       
         1 -17.7005     70.0872    199.7346   1.0913956446e+02   2.3670269573e+01     3.728867     2.592561  68.82   0.01913917    1.420    0.296
         2 -15.2551    121.3560     91.7822   7.3041374575e+01   4.0546675264e+01     2.051156     1.038233 -56.48  0.007256319    2.620    0.618
         3 -15.5441    136.2530     94.1103   6.9735306260e+01   3.6743143876e+01     1.463436      1.18888  70.72  0.007020708    1.418    0.295
         4 -14.5801    186.5227     12.4005   3.7151598867e+01   3.6946965012e+01    0.9571334      0.33867  60.24  0.004067567    2.484    0.597
         5 -14.3472    193.7334      4.4619   3.4460960155e+01   3.6044923506e+01     1.125328     0.525613  81.26  0.005435155    1.994    0.499
         6 -14.4274    165.2241      6.4640   3.7998614124e+01   4.2654159518e+01     0.801975    0.5325695  66.18  0.004546827    1.311    0.237
         7 -11.7938    201.4418    236.7243   8.5950599354e+01  -4.2325952110e+00    0.2858828    0.1144948 -37.45   0.00130151    2.668    0.625
         8 -12.1251    186.4393    249.1820   9.0803867007e+01  -3.8700717061e+00    0.2890639     0.182511  33.41  0.001692459    1.342    0.255
         9 -11.6605     59.4893    237.9837   1.1525466032e+02   1.6873592005e+01    0.4037058    0.1822127  38.65  0.002062218    1.926    0.481
        10 -11.3722     57.4961    234.4906   1.1536175982e+02   1.7830669807e+01    0.2303756    0.1806545  63.23  0.001203535    1.027    0.027
        11 -16.3165     93.7761    189.6963   1.0212698833e+02   2.2480176990e+01     2.495379     1.537959  88.23    0.0108685    2.221    0.550
        12 -10.7941    173.1258    249.3537   9.3440783887e+01  -1.9252814675e+00    0.2578849   0.09946145  29.91  0.001088704    2.538    0.606
        13 -12.0631    206.2477    229.2179   8.3781739358e+01  -3.8161790027e+00     0.260489    0.1626005  38.71  0.001449689    1.596    0.373
        14 -11.5978    146.0276    209.0022   9.2920908239e+01   9.5066633327e+00     0.223159    0.1652038  64.90 0.0007261657    1.697    0.411
        15 -11.3606    169.3197    206.3377   8.7358327067e+01   6.0016446626e+00    0.1443176    0.1038695  -2.15 0.0007049711    1.708    0.415
        16 -11.3000    113.6438    228.3664   1.0289781373e+02   1.1011681111e+01    0.2387059     0.202858  59.67  0.001118612    1.120    0.107
        17 -11.4061     14.6307    236.4334   1.2377156033e+02   2.2362203523e+01    0.2483461    0.1098233 -75.50  0.001397031    2.075    0.518
        18 -13.0009    147.9896    202.7443   9.1433412184e+01   1.0416896493e+01      0.49991    0.3490052  58.99  0.002446862    1.722    0.419
        19 -12.4782     50.9340    226.4214   1.1602074751e+02   2.0318380083e+01    0.6247774    0.2060161  58.71  0.002301289    3.756    0.734
        20 -11.1165    139.6415    196.1664   9.2208656915e+01   1.3246194834e+01    0.2042513    0.1692218  45.05 0.0004205574    1.155    0.134
        21 -12.3771    124.0587    195.0307   9.5664866346e+01   1.6226923546e+01    0.4446143    0.2812462  50.77    0.0017609    1.596    0.374
        22 -12.6891    191.9083    191.3679   7.9805933474e+01   4.8570518976e+00    0.4305573    0.3248337 -83.84  0.002005583    2.483    0.597
        23 -12.9258     35.6613    192.6945   1.1637147882e+02   2.9596472484e+01    0.4760789    0.3050681  15.09  0.002039533    2.282    0.562
        24 -11.0005      7.3394    187.8283   1.2232223735e+02   3.3489740919e+01    0.1987548    0.1390996  56.53 0.0006950907    1.315    0.239
        25 -10.7691    128.6655    184.0873   9.2679960219e+01   1.7837073934e+01    0.1998502    0.1939488 -52.91 0.0005675055    1.074    0.069
        26 -10.9315      9.3512    183.4879   1.2157342472e+02   3.4317000887e+01    0.2135148    0.0955538 -78.74  0.001068615    1.863    0.463
        27 -11.7624     19.8341    179.1934   1.1883479965e+02   3.4384849170e+01    0.2275524    0.1429795  55.02 0.0007571781    1.506    0.336
        28 -11.0758    180.2921    178.6553   7.9739392296e+01   9.3851969629e+00    0.1403878    0.1184516 -87.63 0.0003998434    1.660    0.398
        29 -15.6968     71.6149    181.9732   1.0651376848e+02   2.7640990707e+01     1.189426    0.8809562  75.40  0.005749819    1.372    0.271
        30 -12.8307    106.3411    170.8172   9.5879113429e+01   2.4875593498e+01    0.4240599    0.3639943  17.56  0.002221362    1.335    0.251
        31 -11.4247     19.6283    233.0197   1.2265487988e+02   2.2531267692e+01    0.2602512    0.1644813  73.48  0.001069165    1.272    0.214
        32 -11.2889     21.2596    224.5829   1.2183830739e+02   2.4092502678e+01    0.1387166    0.1077105  34.11 0.0006554594    1.524    0.344
        33 -12.7580    132.7917    168.5274   8.8732334858e+01   2.0608828755e+01    0.4724713    0.2392978  42.59  0.001081796    1.934    0.483
        34 -12.4553     10.0945    229.0581   1.2422291158e+02   2.4298238864e+01    0.3644386    0.1925331  79.51  0.001417792    1.598    0.374
        35 -13.2403     66.4791    163.1621   1.0514403143e+02   3.2987602003e+01    0.3808634    0.2591324 -42.07  0.001862908    1.709    0.415
        36 -12.6178     16.2016    226.8405   1.2294899966e+02   2.4144414197e+01    0.4065312    0.2056766  66.11  0.002252076    1.676    0.403
        37 -12.9841     18.5318    153.0752   1.1668670550e+02   4.0827201431e+01    0.6964547    0.3274716 -79.65   0.00328887    1.892    0.471
        38 -13.5411     25.2050    153.3834   1.1495039197e+02   4.0163563828e+01    0.7655239    0.4272951  73.57  0.003709492    1.989    0.497
        39 -11.7732    100.4872    156.1104   9.4694103100e+01   2.9468810042e+01    0.2572518    0.2089295  67.31   0.00128027    1.327    0.247
        40 -10.5670    117.7592    213.3788   9.9950925609e+01   1.3374900582e+01    0.1780349    0.1229764  30.40 9.884569e-05    1.452    0.312
        41 -12.9650    152.7276    209.7188   9.1554917007e+01   8.2148942893e+00    0.5087463    0.3428766 -29.19  0.002529508    1.785    0.440
        42 -13.4587    108.6980    147.9720   9.0816866151e+01   3.0011246289e+01    0.4529431    0.3237274  27.65  0.002070253    1.570    0.363
        43 -14.6371    106.0404    141.8396   9.0243683415e+01   3.2001132897e+01    0.8922632    0.7539885  36.03  0.004184729    1.227    0.185
        44 -10.4531     13.9557    211.4494   1.2246938430e+02   2.7618679080e+01    0.1718983   0.06185317  53.55 0.0006873225    2.396    0.583
        45 -11.0212    180.4201    244.4875   9.1280813958e+01  -2.2765860226e+00    0.1251827    0.1035989  18.70 0.0001237824    1.014    0.014
        46 -13.5176     45.2324    110.8483   1.0238000093e+02   4.8841562884e+01    0.5085018    0.3306614 -79.34  0.002464319    1.736    0.424
        47 -11.7374     31.5091    117.9756   1.0821226786e+02   4.8452201737e+01    0.2475708    0.1858504 -17.71 0.0008370256    1.629    0.386
        48 -13.2566     33.6936    113.2608   1.0668418807e+02   4.9421955395e+01    0.5703719    0.3353796  42.50  0.002849084    1.949    0.487
        49 -13.0374    190.9494    114.0607   6.2831052322e+01   2.0202223415e+01    0.5378858    0.2983358  30.25  0.001986154    2.756    0.637
        50 -12.1994     54.2800    109.6418   9.9086050660e+01   4.8080773211e+01    0.5450019    0.1926877 -43.24  0.001861908    3.082    0.676
        51 -11.0474     75.5500    110.9994   9.2357933313e+01   4.4784672895e+01    0.2270819    0.1390226 -55.88 0.0004839005    1.542    0.352
        52 -13.1087    184.9429    108.8823   6.2717062466e+01   2.2553345730e+01    0.3798894    0.2826386  21.68  0.001735384    1.767    0.434
        53 -13.0809     51.6535    102.4401   9.8374360889e+01   5.0160038261e+01    0.5136021    0.1523408 -54.66  0.001796378    2.758    0.637
        54 -12.9825    118.5417    102.6157   7.6941184908e+01   3.8816662370e+01    0.4247174    0.3171374  49.21  0.001923066    1.390    0.281
        55 -12.0162     20.2303     98.3978   1.0859752510e+02   5.4186167602e+01    0.3395026    0.2811051 -18.27  0.002132958    1.345    0.257
        56 -13.1908     57.4251     98.9722   9.5539664933e+01   5.0270586426e+01    0.6642015    0.2477371 -60.34   0.00236945    2.758    0.637
        57 -13.7556     50.4515     83.1166   9.3982384060e+01   5.4838316817e+01     0.713403    0.6634402  86.86  0.003459735    1.305    0.234
        58 -11.2416     48.7800    122.9712   1.0357243052e+02   4.5413092452e+01    0.2134834    0.2040453  30.86 0.0005570494    1.180    0.153
        59 -10.6928     75.4784     75.5313   8.2513099460e+01   5.2870509218e+01    0.1437253    0.1325893 -19.22 0.0001097891    1.012    0.012
        60 -11.4639     16.2932    242.1100   1.2376637711e+02   2.1074417983e+01    0.1652252    0.1468938  43.19  0.000716257    1.454    0.312
        61 -11.9182    125.0695     73.0305   6.6304594739e+01   4.3413237376e+01    0.2321716    0.2287268  55.44  0.001013549    1.041    0.039
        62 -13.0832     22.7869     65.9411   1.0041744960e+02   6.1439423852e+01     1.179517    0.5749689  -5.09  0.005204306    2.956    0.662
        63 -13.1555     99.5873     69.2696   7.2410161892e+01   4.9636832422e+01    0.4136519    0.3398061 -48.41  0.001728091    1.303    0.233
        64 -12.5596     46.5449    117.4216   1.0324187620e+02   4.7060348381e+01     0.416787    0.2730323 -31.80  0.002038613    1.775    0.437
        65 -16.6655    153.0478    128.8187   7.4808705550e+01   2.5524033371e+01     3.313339     1.810763  55.16   0.01260571    2.148    0.534
        66 -10.9802    195.6869     67.7026   5.0200148297e+01   2.7420749277e+01    0.1375492    0.1130415  23.61 0.0004939217    1.602    0.376
        67 -10.8533     74.6442     66.2963   7.9785943274e+01   5.4873394743e+01    0.1353883    0.1150806  79.27 0.0007033792    1.696    0.410
        68 -11.2943    150.3382     59.3035   5.6050926543e+01   3.9760623590e+01    0.1518908    0.1126518  26.35 0.0004412634    1.671    0.402
        69 -10.7737     65.2909     52.3968   7.8351424607e+01   5.9016651543e+01    0.1760408    0.1258526  41.87 0.0009359596    1.533    0.348
        70 -16.5666    147.8293    106.4801   7.0288620940e+01   3.1527253224e+01     2.299262     1.871635  46.08   0.01114243    1.248    0.199
        71 -11.1194     11.4239     36.2207   9.6625833808e+01   6.8277275781e+01    0.1587282    0.1041731 -58.77 0.0009536192    1.679    0.405
        72 -11.8368     70.4736     35.0132   6.9582079186e+01   6.0955419565e+01    0.1889402    0.1070518  -8.62 0.0007293242    2.513    0.602
        73 -10.3951      7.2690    241.7144   1.2535859944e+02   2.2060983205e+01    0.1127696   0.05843363  64.64 0.0003591623    1.499    0.333
        74 -10.9291    116.3230    239.1259   1.0367669319e+02   8.5452167922e+00    0.1652009    0.1501392  67.38 0.0002933945    1.138    0.121
