#   1 NUMBER                 Running object number                                     
#   2 MAG_AUTO               Kron-like elliptical aperture magnitude                    [mag]
#   3 X_IMAGE                Object position along x                                    [pixel]
#   4 Y_IMAGE                Object position along y                                    [pixel]
#   5 X_WORLD                Barycenter position along world x axis                     [deg]
#   6 Y_WORLD                Barycenter position along world y axis                     [deg]
#   7 A_WORLD                Profile RMS along major axis (world units)                 [deg]
#   8 B_WORLD                Profile RMS along minor axis (world units)                 [deg]
#   9 THETA_WORLD            Position angle (CCW/world-x)                               [deg]
#  10 FWHM_WORLD             FWHM assuming a gaussian core                              [deg]
#  11 ELONGATION             A_IMAGE/B_IMAGE                                           
#  12 ELLIPTICITY            1 - B_IMAGE/A_IMAGE                                       
         1 -14.4463    167.9820     52.1960   7.0048284396e+01   3.6704411680e+01     2.240783     1.464935  21.08  0.006510284    2.078    0.519
         2 -14.1077    182.1899     36.2498   6.2326556107e+01   3.5258158043e+01     1.003463    0.9430461 -40.26  0.002979638    1.051    0.048
         3 -13.5804    186.5851     29.8430   5.9565370769e+01   3.4906592939e+01    0.6053251    0.5951752 -44.22  0.001158426    1.003    0.003
         4 -13.4606    190.9668     15.0811   5.4180185068e+01   3.5427103962e+01     2.126363    0.9028925 -61.88  0.006620478    3.880    0.742
         5 -14.3923    203.0298      5.7385   4.9880541571e+01   3.3166782018e+01     1.240882     1.120682   9.88  0.005986071    1.216    0.177
         6 -12.0601     84.0723     12.0098   7.4395563736e+01   6.2166767201e+01    0.6376964    0.3059529  64.84  0.002476048    3.450    0.710
         7 -10.5298     75.1803      9.8024   7.6192377110e+01   6.4165780223e+01    0.2001996    0.1787302  53.64 0.0005307093    1.363    0.267
         8 -11.9205     66.7525      7.8736   7.8158451500e+01   6.5945989659e+01    0.4744107    0.2421656  56.04  0.001403502    2.629    0.620
         9 -12.7251     57.2407      5.7959   8.0674374146e+01   6.7828745030e+01    0.5398864    0.3217821  31.50   0.00156712    1.814    0.449
        10  -9.4257    163.6764    203.3087   1.0546240384e+02   1.2058071593e+01    0.1171721   0.08444927  67.26 0.0003373905    1.649    0.394
        11 -11.2748    248.9873    249.3384   9.8261651216e+01  -5.9952348970e+00    0.2304539    0.1287263  17.52  0.001620128    1.635    0.388
        12 -18.2169     52.8468    240.2256   1.2770387500e+02   2.2355857282e+01     7.007736     5.562351  76.22   0.06261902    1.262    0.208
        13 -10.6642    202.0159    169.7301   9.3167899874e+01   9.9994935706e+00    0.3711735    0.2318403 -45.70  0.001521575    1.951    0.487
        14 -10.6811    204.3161    165.9635   9.2055391785e+01   1.0096447359e+01    0.5070934    0.2412027 -46.30  0.002263757    2.712    0.631
        15 -11.9752    194.4444    167.6680   9.4135487519e+01   1.1712758416e+01    0.3425061    0.3262096 -67.72 0.0008062621    1.296    0.229
        16 -11.0490    190.1766    160.7103   9.3599719659e+01   1.3561149685e+01    0.3174168     0.259342 -52.54  0.001079926    1.474    0.322
        17 -11.5244    189.4826    155.2035   9.2655850461e+01   1.4540602227e+01    0.3902855    0.3788021   8.13  0.001383284    1.098    0.089
        18 -10.0198    206.5810    178.4791   9.3962911849e+01   7.9716316935e+00    0.2411679   0.09694082  36.78  0.001031182    2.430    0.589
        19  -9.9437    161.9280    167.4837   1.0018570661e+02   1.7862919128e+01    0.1956216    0.1165574  47.06  0.000550548    1.501    0.334
        20 -10.6233      3.6790    162.0961   1.3190146991e+02   4.0955846620e+01    0.1533589    0.1280001  77.80 0.0006780744    1.250    0.200
        21  -9.3305    113.2975    160.3057   1.0886342633e+02   2.7821443740e+01    0.1160459    0.1035569  -4.91 0.0006098896    1.588    0.370
        22 -10.8693    164.5393    152.4694   9.6920317838e+01   1.9894583098e+01     0.295161    0.2043428  85.25  0.001367965    2.350    0.574
        23 -12.3260    133.8268    145.4512   1.0195142852e+02   2.7068008376e+01     1.142616    0.3174812 -56.02  0.003241766    5.486    0.818
        24 -10.5721    129.3627    140.2239   1.0193940675e+02   2.8915292635e+01    0.2283585    0.2107111 -67.59 0.0006415227    1.111    0.100
        25 -11.7997    149.3309    149.7155   9.9478811469e+01   2.3333739396e+01    0.4892241    0.2358212  58.65  0.001954892    2.609    0.617
        26 -11.6022    143.8222    145.7242   9.9869957499e+01   2.5127044439e+01    0.3553895    0.1983525 -61.85  0.001564174    2.314    0.568
        27 -10.7366    167.5958    175.7472   1.0051854840e+02   1.5487028507e+01     0.339593    0.2205306 -72.06  0.001423612    2.616    0.618
        28 -10.4881    174.5984    149.1784   9.4291315606e+01   1.8462986703e+01    0.2580928    0.1837058  47.62 0.0006678742    1.311    0.237
        29 -12.6610     99.4698    138.7408   1.0843604313e+02   3.4436712659e+01    0.3193575    0.2449843  51.37 0.0005294735    1.264    0.209
        30 -11.3306    116.7957    129.7619   1.0275693757e+02   3.3332694124e+01    0.2913119    0.2633025 -37.18 0.0008374814    1.284    0.221
        31 -11.8000    135.6205    127.3600   9.7945389076e+01   3.0263350961e+01    0.5461758    0.1961427 -51.02  0.001949371    2.974    0.664
        32 -11.8983    193.0674    194.8141   9.9054630604e+01   8.2037230944e+00    0.7470461    0.4076624 -62.90  0.002852825    5.348    0.813
        33 -11.1435    160.3184    127.4077   9.2573598380e+01   2.5221245227e+01    0.3647123    0.2751208 -75.07  0.001375399    1.740    0.425
        34 -10.8771    120.8662    123.9166   1.0061341781e+02   3.3791806221e+01    0.2088159    0.1946335 -14.38 0.0007106798    1.298    0.230
        35 -10.2850    111.8957    118.9612   1.0171576109e+02   3.6476371474e+01    0.2096806    0.1952385  85.69 0.0005394159    1.016    0.016
        36 -10.9813    167.8746    112.8509   8.7568014018e+01   2.6256871386e+01      0.36412      0.28696 -82.15   0.00129399    1.659    0.397
        37 -10.9946    134.6120    105.5064   9.3134079956e+01   3.4849504703e+01    0.5145373    0.1367772 -46.89  0.001526254    3.789    0.736
        38 -10.7821    205.3452    110.2759   7.9699601596e+01   1.8286058310e+01    0.3439386    0.2374519  39.42  0.001026724    1.458    0.314
        39 -19.0716     30.7339    101.6353   1.2008279695e+02   5.1492270080e+01     15.14311     0.783475 -68.53   0.02650286   15.581    0.936
        40  -9.9772     77.5408    104.5443   1.0755897495e+02   4.5280247745e+01    0.1341703    0.1182819 -76.42 7.133547e-05    1.003    0.003
        41 -10.2790     64.1793     98.5304   1.1006046569e+02   4.8488811972e+01    0.2775196    0.1820123 -88.16 0.0009548404    1.757    0.431
        42  -9.8644    127.0562     94.4917   9.2126475234e+01   3.8648304265e+01    0.2101782    0.1452053  49.30  0.000328258    1.485    0.326
        43 -10.3134    151.1273     80.1593   8.2363706068e+01   3.6116306051e+01    0.2272866    0.2088182  11.12 0.0004857178    1.173    0.148
        44 -10.2334     77.6328     74.7213   1.0041558923e+02   5.1865646956e+01     0.322353    0.1791428  53.65  0.001265185    2.244    0.554
        45 -12.7411    172.6556     71.6046   7.5252749964e+01   3.2412015143e+01     1.082988    0.6123193 -73.92  0.003225876    4.331    0.769
        46 -10.2627    168.9283    234.9780   1.0864466049e+02   7.0997938844e+00    0.1599244    0.1249003  42.33 0.0003952332    1.039    0.037
        47 -11.2963    151.9265    184.2868   1.0483116570e+02   1.6933728534e+01    0.1941276    0.1684481 -87.23 0.0004780529    1.323    0.244
        48 -10.3814     18.6511    200.8024   1.3115618847e+02   3.2428710306e+01   0.07863016   0.07051823  56.56 0.0006737348    1.526    0.345
        49 -10.5647     13.6504     59.9366   1.1856845568e+02   6.2165598033e+01    0.1802935    0.1606352  78.72 0.0004390699    1.274    0.215
        50 -11.5837     90.2632    183.9044   1.1666533393e+02   2.6939482145e+01    0.2590522    0.1661063  81.61 0.0007890221    1.637    0.389
        51 -10.9904    184.4537    211.2857   1.0300591404e+02   7.5392902675e+00    0.2459505    0.1156006 -43.98  0.001318728    2.686    0.628
        52 -11.7824     10.7481    206.3347   1.3272410544e+02   3.2217185477e+01    0.3858241    0.1991803  37.81  0.002740831    2.010    0.503
        53 -12.3908    158.0160    201.6707   1.0623702136e+02   1.3239958180e+01    0.6138627    0.3664901  84.25  0.002497595    4.542    0.780
        54 -11.9634    153.0875    194.1324   1.0606521610e+02   1.5194410994e+01    0.3284691    0.2088685  60.54  0.001064516    1.671    0.401
