#   1 NUMBER                 Running object number                                     
#   2 MAG_AUTO               Kron-like elliptical aperture magnitude                    [mag]
#   3 X_IMAGE                Object position along x                                    [pixel]
#   4 Y_IMAGE                Object position along y                                    [pixel]
#   5 X_WORLD                Barycenter position along world x axis                     [deg]
#   6 Y_WORLD                Barycenter position along world y axis                     [deg]
#   7 A_WORLD                Profile RMS along major axis (world units)                 [deg]
#   8 B_WORLD                Profile RMS along minor axis (world units)                 [deg]
#   9 THETA_WORLD            Position angle (CCW/world-x)                               [deg]
#  10 FWHM_WORLD             FWHM assuming a gaussian core                              [deg]
#  11 ELONGATION             A_IMAGE/B_IMAGE                                           
#  12 ELLIPTICITY            1 - B_IMAGE/A_IMAGE                                       
         1 -15.3910      6.4745     67.4965   1.1583319944e+02   6.2670251909e+01     2.286685     1.260797 -73.40   0.01200816    1.502    0.334
         2 -13.9095    188.9606     25.8469   4.3936259924e+01   3.4646435491e+01     1.965435    0.7644042 -50.95  0.007244763    2.777    0.640
         3 -13.4670    187.3729     11.4605   3.9763896143e+01   3.6604203770e+01     1.113468    0.5458558 -43.69  0.005032778    1.850    0.459
         4 -13.2556    131.8922     32.6466   5.5172018530e+01   4.8558701184e+01     1.160253    0.4651882 -37.48  0.004235786    2.393    0.582
         5 -13.4791      2.6813     10.7603   1.0463898626e+02   7.6268759264e+01    0.8748569    0.4893335 -69.11  0.004819101    1.758    0.431
         6 -12.8781      8.1218      2.7260   9.5812098159e+01   7.7571684590e+01    0.5938189    0.4370815  55.26  0.002539682    2.071    0.517
         7 -15.9532     11.6045     22.2807   1.0230728434e+02   7.3226670646e+01     2.020975     1.188877 -35.42  0.009463832    1.577    0.366
         8 -14.4961    166.4823     30.2501   4.8215907399e+01   3.9835900054e+01     1.136901    0.9757534  81.79  0.003637079    1.162    0.139
         9 -12.3217    224.5451     20.8660   3.9190948583e+01   2.6806231651e+01    0.4352716    0.3253222 -87.17  0.001905335    1.392    0.282
        10 -13.7899    215.1656     24.1688   4.0841304831e+01   2.8562540048e+01     1.184601    0.4637085 -33.39  0.005103526    2.106    0.525
        11 -14.0800    216.6565     11.5009   3.7339689896e+01   2.9561574040e+01     1.067869    0.8781285  55.45  0.001615322    1.409    0.291
        12 -14.6121    147.1927     29.5654   5.1067860117e+01   4.4967379459e+01     1.424486    0.9474837  63.42  0.005117505    1.468    0.319
        13 -12.1733     47.0220     20.9542   7.8963957455e+01   6.9365788898e+01    0.4256838    0.3407659  16.31   0.00146612    1.281    0.220
        14 -12.2125     71.7646     17.9505   6.5776679389e+01   6.5187840071e+01    0.4915273    0.3167264 -47.85  0.001621672    1.808    0.447
        15 -15.2757     97.7400     12.3454   5.4428732171e+01   5.9890679814e+01      1.76485    0.8564827  56.87  0.005171794    1.903    0.474
        16 -11.4020     59.8811     16.9356   7.0275176163e+01   6.7756388281e+01    0.3722876    0.2213239 -39.06  0.001813283    1.675    0.403
        17 -11.8389     39.2618     13.9120   7.9396276988e+01   7.1837621687e+01    0.5256012    0.3820291   8.05  0.002938221    1.511    0.338
        18 -11.9429     45.8152     12.4117   7.4706335833e+01   7.1034565266e+01    0.5132589    0.3653748  71.75  0.002468344    2.606    0.616
        19 -14.0281     42.2715      4.1557   7.1353552781e+01   7.2916595709e+01     0.846404    0.5855163  25.72  0.003629507    1.459    0.315
        20 -12.5786    119.8778     26.6041   5.5406245246e+01   5.2493732735e+01     0.729551    0.4713126  45.90  0.003247507    1.556    0.357
        21 -11.4828    153.2142      8.6950   4.2604837375e+01   4.5736075733e+01    0.2428832    0.2369881  -8.73 0.0005813716    1.118    0.106
        22 -10.7956     58.5293      7.3867   6.5209971160e+01   6.9415605020e+01    0.2615775    0.1755054 -55.52  0.001272914    2.144    0.534
        23 -11.0067     68.2779      5.0526   5.9746521462e+01   6.7659042583e+01    0.3252228    0.1370526 -41.26  0.001291712    2.731    0.634
        24 -12.0048    118.8942      3.0646   4.5505002415e+01   5.5399564257e+01    0.5281471    0.3024271 -81.64   0.00223054    2.241    0.554
        25 -11.9753     79.2858      2.1809   5.4294004406e+01   6.5470164019e+01    0.6304965    0.2225575  53.42  0.002456979    2.444    0.591
        26 -10.7590    193.4669      2.9862   3.6720702756e+01   3.5907786324e+01    0.2139257    0.1647506  86.28 0.0008568913    1.260    0.206
        27 -11.7418     61.7222      1.9365   6.0378446481e+01   6.9438180330e+01    0.3275961    0.2264387  62.07  0.001160722    1.631    0.387
        28 -11.2401    232.5762      1.7669   3.3842760472e+01   2.6964410207e+01    0.2151646    0.1636754 -88.25 0.0008088909    1.332    0.249
        29 -14.2516     24.3926     13.9564   8.9194251091e+01   7.3811361246e+01     0.980422    0.4253551  36.40  0.004529075    2.558    0.609
        30 -11.0297    177.4990    167.5054   8.2065256519e+01   1.4630767728e+01    0.1324979    0.1161869  13.64 0.0008106733    1.002    0.002
        31 -12.6264    109.8887    248.7886   1.0655321389e+02   1.1909157126e+01    0.3814178    0.2375606  87.44  0.002352251    2.673    0.626
        32 -12.3664     58.5187    246.0162   1.1606778970e+02   1.8381710794e+01    0.3991218    0.2650686  24.68  0.002789253    1.610    0.379
        33 -12.5198     28.4788    246.0783   1.2165715708e+02   2.1472014200e+01    0.4077291    0.2373909  55.30  0.002993448    1.252    0.201
        34 -11.9130      2.9065    249.8679   1.2632202888e+02   2.3186375062e+01    0.3177374    0.1565552  38.56  0.001744871    1.480    0.324
        35 -13.4981      9.0371    245.5565   1.2515293885e+02   2.3348644989e+01    0.7049881     0.299435  49.61  0.003364724    1.535    0.349
        36 -11.6313     77.3920    156.9231   1.0394252039e+02   3.3207204348e+01    0.3827341    0.2525536  26.63  0.001403399    1.639    0.390
        37 -12.8237     73.8390    153.4761   1.0443361508e+02   3.4486329324e+01    0.7143908    0.4365735  34.83  0.003503101    1.572    0.364
        38 -11.5917    111.2904    156.1273   9.4995881060e+01   2.8164254552e+01    0.4274164    0.2470739  77.63  0.001534384    3.665    0.727
        39 -11.5156    188.4055    156.2234   7.7756648050e+01   1.4571932854e+01    0.1806067    0.1229185 -44.86 0.0009536709    1.659    0.397
        40 -11.1079    103.2420    150.3516   9.6089456641e+01   3.0736587550e+01    0.2921426     0.226868 -18.73  0.001497177    1.737    0.424
        41 -11.3772     60.9471    148.3019   1.0731852489e+02   3.7397830176e+01    0.3504994    0.2543687  -7.67  0.001634492    2.105    0.525
        42 -11.3265    156.0111    213.9487   9.3779111876e+01   1.0771957135e+01    0.2596123    0.1833529  38.59  0.001659133    1.241    0.194
        43 -10.8484     38.0431    146.0194   1.1353569105e+02   4.0567391995e+01    0.1597753    0.1367156  74.47 0.0005176085    1.004    0.004
        44 -11.5361    149.1346    141.1471   8.2955778120e+01   2.4442958284e+01    0.2918738    0.1989097  70.25  0.001277797    2.289    0.563
        45 -10.5521     88.4927    140.4813   9.8412426860e+01   3.5330472250e+01    0.1414431    0.1313549  65.80 8.830283e-05    1.003    0.003
        46 -11.9781     45.3323    134.5507   1.1017172407e+02   4.2561735175e+01    0.3967336    0.2457947 -82.87  0.002026374    1.565    0.361
        47 -10.7563     10.7408    134.3927   1.2047744271e+02   4.5735447009e+01    0.2092379    0.1066426  30.43 0.0005685074    1.964    0.491
        48 -11.3791    133.2149    132.3853   8.4905907657e+01   2.9249901582e+01     0.212965     0.132248  50.21 0.0005760578    1.663    0.399
        49 -13.7308    105.4776    121.9446   9.0029439185e+01   3.6750808017e+01      1.22045    0.9857663  33.55  0.006301239    1.273    0.214
        50 -14.7366    106.6881    105.0687   8.5744836940e+01   4.0393770740e+01     1.596755      1.24548  21.07  0.006728549    1.523    0.343
        51 -10.8565     60.0420    125.3631   1.0437961769e+02   4.3060889692e+01    0.2669623    0.1392519  20.38  0.001105726    2.491    0.599
        52 -12.2194    180.6814    121.4091   7.1743499541e+01   2.1869935049e+01    0.3080413    0.2292703  45.52  0.001387346    1.380    0.275
        53 -13.0853    120.0080    102.4101   8.1247690521e+01   3.8320934822e+01     0.602745    0.3347805  36.02  0.002321023    1.973    0.493
        54 -11.3578     65.4573    126.3296   1.0284631449e+02   4.2102827411e+01    0.2777223    0.2255581  61.02  0.001132784    1.195    0.163
        55 -12.2583     77.1902    117.4795   9.7593856708e+01   4.2576326332e+01    0.5319588    0.3656282  64.80   0.00252986    1.652    0.395
        56 -12.7955     85.0444    115.3971   9.4713238963e+01   4.1835120501e+01    0.7751876    0.3303658  33.78  0.002334823    2.476    0.596
        57 -12.2590      5.1560    119.2447   1.2120791450e+02   4.9781558289e+01    0.5609721    0.3896535  -7.92  0.003279228    1.967    0.492
        58 -14.7061     15.6759    108.7827   1.1690851304e+02   5.1696673153e+01     1.545145    0.8553176  67.08  0.006109864    1.808    0.447
        59 -13.3659      2.1909     97.1970   1.2065984929e+02   5.5410658070e+01    0.8370755    0.2353401 -82.55  0.003135224    3.079    0.675
        60 -14.3904     24.8404     94.4194   1.1191035436e+02   5.4653422614e+01     1.478593     1.148362  -4.04  0.008512124    1.617    0.381
        61 -11.5114     40.5887    243.1148   1.1929503659e+02   2.0748029756e+01    0.2556713    0.1597594  79.19  0.001849511    1.606    0.378
        62 -13.3346      5.9179     43.7531   1.1210276584e+02   6.8550319004e+01     1.520105    0.3579381  18.06  0.005614066    4.366    0.771
        63 -10.9190    121.1178    112.1156   8.3401081529e+01   3.5969581746e+01    0.2462731    0.1870352  80.40  0.001127011    1.738    0.425
        64 -11.6583     78.1934    111.1573   9.5996978980e+01   4.3967416984e+01    0.2580849    0.2489813 -75.35  0.001132528    1.049    0.047
        65 -10.8830     62.8160    111.4066   1.0110333981e+02   4.6168073797e+01    0.3866951    0.1605352  54.55  0.001312405    3.321    0.699
        66 -12.5400     31.7109    104.6015   1.1079035339e+02   5.1459529894e+01    0.3672818    0.2019536  67.17  0.001678334    2.064    0.516
        67 -12.1660    136.4555    103.3441   7.7136032134e+01   3.4648119571e+01    0.6188839    0.2710026  48.74  0.002258529    2.337    0.572
        68 -12.1730     62.4669     99.3885   9.8840372635e+01   4.9229231476e+01    0.6526346    0.3670366  70.77  0.002505398    2.764    0.638
        69 -11.4154     43.1640     91.4468   1.0437695623e+02   5.3661203830e+01    0.4732321    0.2803206  87.25  0.001674383    2.061    0.515
        70 -11.4649     47.7043    100.4106   1.0434886085e+02   5.0862758100e+01    0.5222173    0.2977991  59.34  0.002328198    2.060    0.514
        71 -11.7554     52.3122     98.0166   1.0221933024e+02   5.0915953136e+01    0.3717479    0.2500018 -20.76  0.001669143    2.139    0.533
        72 -12.0733     49.4224     94.5647   1.0260833422e+02   5.2145093640e+01    0.4792022    0.2945777  65.10  0.001620266    1.987    0.497
        73 -12.1010    137.0474     95.6006   7.4891706138e+01   3.6105897650e+01    0.4694116    0.3253768  63.82  0.001453861    1.719    0.418
        74 -11.5070    125.3548     92.6536   7.7120432154e+01   3.9283482905e+01    0.3484873    0.2449629 -87.64  0.001417222    2.242    0.554
        75 -13.0288     28.7206    122.4584   1.1396675109e+02   4.7221739611e+01    0.4821827    0.3042928 -69.09  0.002594573    1.441    0.306
        76 -11.7748     90.0572     88.5094   8.6598160795e+01   4.7387096941e+01    0.4815236    0.3268229  49.37  0.002217555    1.541    0.351
        77 -13.0866    188.0957     84.4825   6.0993211619e+01   2.6541633205e+01    0.6831343    0.3039683  42.03  0.002350679    2.640    0.621
        78 -12.2102    237.3790     80.4662   5.2772703020e+01   1.6773801170e+01    0.3346249    0.2445629 -64.49  0.001876657    1.710    0.415
        79 -13.2230    163.6922     71.6342   6.1870552842e+01   3.4380088538e+01     1.528621    0.4381436  48.52  0.004622188    3.574    0.720
        80 -12.6702    160.0220     68.2848   6.1587014494e+01   3.5837673214e+01    0.7679424    0.3077002 -45.05  0.002662761    2.591    0.614
        81 -13.4895    161.0943     80.6756   6.5074013783e+01   3.3429929781e+01      1.05459    0.6232168  30.47  0.003103296    2.329    0.571
        82 -14.2670    169.4282     77.3383   6.2427009681e+01   3.2041019141e+01     1.528264    0.5899317  53.84  0.005440946    2.636    0.621
        83 -13.3351     65.6610     48.9869   8.2849748721e+01   6.0702427113e+01    0.7311705    0.5455769 -41.85  0.001370717    1.274    0.215
        84 -12.8430     59.8066     60.9297   8.9683401087e+01   5.9000554614e+01     1.120713    0.5329036 -34.90  0.003675286    2.849    0.649
        85 -12.7528     52.5269     69.8572   9.5527127750e+01   5.7924052753e+01    0.8544968    0.6304675  66.98  0.004296497    1.672    0.402
        86 -13.1466     55.1838     81.8250   9.7571137329e+01   5.4620552285e+01    0.5747178     0.523572 -33.67  0.002577618    1.166    0.142
        87 -13.7818     60.9940     75.6021   9.3631059261e+01   5.5335308446e+01    0.8084959    0.4258748 -51.26  0.001104837    1.760    0.432
        88 -12.8565    216.3224     80.9214   5.5638754346e+01   2.0943356244e+01    0.4701913    0.3430529 -50.47  0.002335459    1.418    0.295
        89 -12.0006    114.1014     80.3229   7.6644401361e+01   4.4343816454e+01    0.4202988    0.3517763 -60.19  0.000896289    1.254    0.203
        90 -12.6747    135.3404     79.9275   7.0758295482e+01   3.9624526144e+01    0.7560405    0.3940809  51.09  0.002986169    1.948    0.487
        91 -12.0163    150.1252     84.9042   6.8701665452e+01   3.5228111369e+01    0.5484992    0.3467862  33.30  0.002308796    1.906    0.475
        92 -10.6862     32.5186     81.0108   1.0664232526e+02   5.7407887681e+01    0.2145138    0.1209731 -67.56  0.001023135    1.565    0.361
        93 -12.7093     91.7444     58.5085   7.6409403882e+01   5.3699889546e+01    0.7638242    0.5515749 -64.95  0.003506234    1.703    0.413
        94 -12.2008     81.2190     69.9058   8.4118217921e+01   5.3311097715e+01    0.5405262    0.3613524  45.93  0.002510809    1.564    0.361
        95 -12.8342     87.7055     65.2878   8.0232918249e+01   5.3091268240e+01    0.5425925    0.4300071  14.65  0.001273355    1.538    0.350
        96 -12.8681     70.0919     75.9669   9.0169174385e+01   5.3837488136e+01    0.4989641    0.4839658 -33.75  0.001245103    1.061    0.057
        97 -12.2312     77.1219     73.8420   8.6876163645e+01   5.3147628621e+01     0.411108    0.3701871   8.62  0.001265526    1.237    0.192
        98 -11.2872     41.9926     76.7678   1.0176789052e+02   5.7508013446e+01    0.2970877     0.217567 -73.64  0.001120446    1.314    0.239
        99 -10.9231     27.2856     77.0785   1.0811694867e+02   5.8873993660e+01    0.2585631    0.1736367  89.61  0.001099581    1.545    0.353
       100 -10.6799     22.9786     75.4794   1.0969259150e+02   5.9628259283e+01    0.1754814    0.1350838  15.39 0.0003816431    1.513    0.339
       101 -12.4875    210.2165     77.4096   5.5610698003e+01   2.2749193413e+01    0.5366945    0.3151486 -54.52  0.002434136    2.019    0.505
       102 -13.3873    199.4096     69.9892   5.5230381096e+01   2.6231117031e+01    0.7143744    0.4220252  46.99  0.002181967    1.853    0.460
       103 -13.0895    134.0314     65.6613   6.6542661045e+01   4.2641528057e+01    0.7366728    0.6792831 -28.36  0.002602934    1.099    0.090
       104 -12.1449     38.2180     68.2612   1.0138381707e+02   6.0044843471e+01    0.7715832    0.2795585  27.39  0.002980626    2.961    0.662
       105 -11.3106     99.9025     64.6381   7.5872034172e+01   5.0708423527e+01    0.4250059    0.3068524 -37.09  0.001993448    1.399    0.285
       106 -11.0885    199.1599     62.0237   5.3083024128e+01   2.7450224024e+01     0.273382    0.1809481 -37.94  0.001348197    1.373    0.272
       107 -12.3500     79.4440     61.1461   8.1814769167e+01   5.5587482702e+01     0.653108    0.4512911 -57.01  0.002826701    1.525    0.344
       108 -12.4992     82.2406     54.7134   7.8409023566e+01   5.6416206149e+01    0.4869365    0.3852364 -29.94  0.001640597    1.309    0.236
       109 -13.6389    177.8135     58.0730   5.5224270942e+01   3.3111614602e+01    0.8262187    0.6275113 -44.45  0.002348582    1.262    0.207
       110 -11.9147     24.3998     59.9901   1.0589732850e+02   6.3400617998e+01    0.3386531    0.2444421 -58.83 0.0008192623    1.195    0.163
       111 -10.7642     38.6750     60.0993   9.9014503219e+01   6.1998342242e+01    0.2229575    0.1672125 -84.11  0.001175686    1.502    0.334
       112 -14.4160    119.4294     54.9222   6.6584278038e+01   4.8124272119e+01     1.022869    0.6806359  36.58  0.003603172    1.687    0.407
       113 -12.7746    135.6972     50.2334   6.0843940680e+01   4.4911282881e+01    0.5532779    0.3548882  33.55  0.002339426    1.915    0.478
       114 -10.9537    248.0220     55.5208   4.5699999117e+01   1.7900567754e+01    0.1738039   0.09751999 -71.61 0.0008103275    2.615    0.618
       115 -11.4765    109.4127     54.1647   6.9136604848e+01   5.0636480214e+01    0.3640399    0.3034165 -32.54  0.001836441    1.209    0.173
       116 -13.3652    103.1090     50.5178   6.9659321756e+01   5.2769427601e+01    0.9226201    0.5512534 -60.96  0.001155132    2.390    0.582
       117 -12.3382     97.8581     50.4964   7.1319987025e+01   5.3960122230e+01    0.6800165    0.3731115 -52.90  0.002682202    2.155    0.536
       118 -11.3548     77.9641     54.0000   7.9764523794e+01   5.7397077126e+01    0.3019934     0.227115  42.13 0.0008207805    1.375    0.273
       119 -10.3213     33.4082     49.5474   9.8497955925e+01   6.5094234954e+01    0.1363121     0.117583 -47.28 4.658733e-05    1.035    0.034
       120 -10.8113    249.2522     48.6196   4.3960540520e+01   1.8489050686e+01    0.1558536    0.1158303  54.75 0.0008485403    1.607    0.378
       121 -12.9800    158.0077     44.3026   5.4271938302e+01   4.0127367459e+01    0.7878403    0.5053385  39.78  0.003496563    1.795    0.443
       122 -13.1906    171.4631    242.3643   9.4515872728e+01   4.8706886805e+00     0.354927    0.2400614  27.77  0.002526501    1.107    0.097
       123 -13.6928     97.5881    238.6096   1.0803665731e+02   1.4949963243e+01    0.6876243    0.3224798  35.17  0.003620308    1.628    0.386
       124 -13.1507    205.2981     40.3322   4.6262386278e+01   2.8942583883e+01    0.7714188    0.4149803 -81.74  0.003175298    2.677    0.627
       125 -13.8928     91.6756    231.3125   1.0858548066e+02   1.6841629601e+01      0.47273    0.3834677  66.56  0.003496079    1.281    0.219
       126 -12.5845    109.6510     42.1685   6.4418746274e+01   5.2702238974e+01    0.5407175    0.2667323  53.51  0.001418247    2.004    0.501
       127 -14.1534    121.9278     37.4627   5.9313959422e+01   5.0414068664e+01    0.9821795    0.5589602  39.87  0.002519214    1.979    0.495
       128 -12.8718    113.7600     38.1381   6.1663069744e+01   5.2353564243e+01    0.3886587    0.3828049   3.19  0.001065058    1.020    0.019
       129 -10.3343     55.5039     41.0750   8.4238607714e+01   6.4065036711e+01    0.1996262    0.1303812 -45.47 0.0003811736    1.433    0.302
       130 -11.2818    104.5681     36.8063   6.3673270653e+01   5.4807271901e+01    0.3702956    0.1377985 -36.58  0.001290515    2.618    0.618
       131 -12.5306     75.8658     37.4105   7.3739216292e+01   6.1091474496e+01    0.3909413    0.2715408  48.84 0.0009329659    1.506    0.336
       132 -12.1415     69.6460     36.5925   7.5911907775e+01   6.2467761783e+01    0.4428839    0.2594848  34.58 0.0009498995    1.857    0.461
       133 -12.6415    241.7436     36.0849   4.1609153191e+01   2.1445713798e+01    0.5233903    0.2932589  76.45  0.002089046    2.089    0.521
       134 -11.4660    147.2122    239.1955   9.8580399167e+01   8.4394526540e+00    0.1537229     0.110781  44.48  0.001069133    1.344    0.256
       135 -12.0169     24.5091    217.2173   1.2132078456e+02   2.6828954030e+01    0.6411752    0.4929143  33.59  0.004788701    1.349    0.259
       136 -13.3611     25.8829    227.2064   1.2144505738e+02   2.4902829307e+01     0.554068     0.354813 -58.11  0.003795731    2.137    0.532
       137 -11.5231     57.8875     35.3022   8.0581611799e+01   6.4846365136e+01    0.4028695    0.2513532  23.78  0.001578818    1.930    0.482
       138 -12.1032     46.0838     33.9008   8.5855058604e+01   6.6996616853e+01     0.499532    0.3414707 -28.77   0.00257763    1.519    0.342
       139 -11.6356     27.6153     32.9753   9.5941487846e+01   6.9491476628e+01    0.3771669    0.2341669 -62.90  0.001956427    1.612    0.380
       140 -10.8914     31.4613     31.2569   9.2931697985e+01   6.9453427379e+01    0.2673479    0.1767672  26.51 0.0007940936    1.638    0.389
       141 -13.2331     20.6872    225.3345   1.2239048601e+02   2.5724446972e+01    0.7665594    0.2613212  36.00    0.0042357    2.105    0.525
       142 -13.1387    139.2137     22.1952   4.9737908794e+01   4.7992593605e+01    0.7981538    0.3487147  65.08  0.001960694    2.193    0.544
       143  -9.9715     91.3150     34.3239   6.6727345782e+01   5.8312816373e+01    0.2219054    0.1350341  -7.36 0.0008419441    2.641    0.621
       144 -10.6816     94.4833     31.6887   6.4514775814e+01   5.8012230302e+01    0.2550679    0.1730242  55.28  0.000164595    1.491    0.330
       145 -10.9220     37.8193     34.0141   9.0412249669e+01   6.8098260836e+01    0.3514158     0.168269  31.07  0.001583847    2.241    0.554
       146 -13.1162     65.5073    223.5408   1.1328647067e+02   2.1329331909e+01    0.7258535    0.4323524  33.94  0.004566301    1.431    0.301
       147 -13.7336     63.2421    214.6021   1.1311688230e+02   2.3191282264e+01    0.6962233     0.351593  52.31   0.00396327    1.664    0.399
       148 -11.9114     94.4696    218.3298   1.0684805611e+02   1.8644080831e+01     0.227968    0.1621397  36.10  0.001350384    1.170    0.145
       149 -10.1658     89.4228     30.3808   6.5570047823e+01   5.9385536907e+01     0.141927    0.1364258  22.48            0    1.018    0.017
       150 -11.3984     38.1735     29.9843   8.8440699024e+01   6.8903057987e+01       0.2017    0.1815903  -5.56            0    1.105    0.095
       151 -11.3626     37.4869     25.8331   8.6888409127e+01   6.9842756014e+01    0.2564434    0.2223768  63.62 0.0003847042    1.528    0.346
       152 -12.7828     56.1441     27.4623   7.7672344616e+01   6.6643761932e+01    0.7128974    0.3398781  45.35  0.002108104    2.267    0.559
       153 -12.4421     68.2025     24.4736   7.0669701009e+01   6.4902198025e+01    0.7247856    0.3570821  43.93  0.003129079    2.037    0.509
       154 -10.0420    124.3280    221.2823   1.0101093264e+02   1.4134499345e+01    0.1140831   0.08350675  10.18      0.00021    1.603    0.376
       155 -10.8095     97.8782     27.1335   6.1403164513e+01   5.7906694544e+01    0.2264999    0.2037915 -79.45  0.001227684    1.266    0.210
       156 -11.3541    200.5039    215.0007   8.5652795315e+01   4.3679483363e+00    0.1587757    0.1055806 -28.75  0.001040953    1.614    0.380
       157 -10.9686     54.2724     19.9707   7.4656466150e+01   6.8303015589e+01    0.2177099    0.1749599  16.87 0.0006698136    1.272    0.214
       158 -13.4229      8.3642    211.1073   1.2437747530e+02   2.9419587606e+01    0.7042289    0.5401221  27.40  0.005311169    1.489    0.328
       159 -12.7114     16.9551    195.3033   1.2201198137e+02   3.1733568145e+01    0.5754554     0.302024 -74.67  0.003069737    1.938    0.484
       160 -13.6022     29.9167    169.0053   1.1756255302e+02   3.6084490532e+01    0.6862422    0.4779019 -42.91  0.001863932    1.966    0.491
       161 -13.3664     22.3244    181.1411   1.2013195421e+02   3.4166681782e+01    0.6328086    0.3861151 -66.42  0.002943238    1.772    0.436
       162 -15.4831      6.9250    182.6884   1.2376551342e+02   3.5159889118e+01     2.355355    0.9917312 -80.30   0.01264168    2.209    0.547
       163 -12.2398     41.9660    206.7550   1.1714715579e+02   2.7040771559e+01    0.3121749    0.1483749  74.09  0.001652552    2.233    0.552
       164 -11.3154     72.6735    207.4749   1.1052327195e+02   2.3370302651e+01    0.2248464    0.1771689  61.10  0.001524656    1.133    0.118
       165 -11.0304    149.6448    207.0860   9.4108253011e+01   1.2734429928e+01    0.2518973    0.1543714  29.69  0.001078826    1.405    0.288
       166 -12.0419     57.3078    203.6346   1.1358952895e+02   2.5941555087e+01    0.3941205    0.2041844  78.74  0.002068659    2.255    0.557
       167 -14.2697     16.1507    175.7798   1.2132597193e+02   3.5857563963e+01     1.209526    0.4337443  61.63  0.003772296    2.513    0.602
       168 -13.8644    217.6969     42.2594   4.5423002217e+01   2.5863091854e+01      1.01493    0.4665598  63.97  0.003987084    2.321    0.569
       169 -13.0271     40.4775    195.3137   1.1677200518e+02   2.9445607287e+01    0.3965116    0.2139544  68.31  0.002236045    1.749    0.428
       170 -12.1152    201.0185    191.7894   8.1888712710e+01   7.2906087233e+00     0.295651    0.2240872  10.67  0.001260001    1.135    0.119
       171 -11.3872     49.0313    181.8226   1.1380896920e+02   3.1301630648e+01    0.2681959    0.2088446 -47.98  0.001681516    1.653    0.395
       172 -11.6588    198.5542    181.7064   8.0605880790e+01   9.0585442772e+00    0.2511658    0.2057016  16.74  0.001254187    1.051    0.049
       173 -12.2314    123.8282    166.9688   9.3729661275e+01   2.3863681453e+01    0.5152543    0.3409949  85.28  0.002313934    2.577    0.612
