#   1 NUMBER                 Running object number                                     
#   2 MAG_AUTO               Kron-like elliptical aperture magnitude                    [mag]
#   3 X_IMAGE                Object position along x                                    [pixel]
#   4 Y_IMAGE                Object position along y                                    [pixel]
#   5 X_WORLD                Barycenter position along world x axis                     [deg]
#   6 Y_WORLD                Barycenter position along world y axis                     [deg]
#   7 A_WORLD                Profile RMS along major axis (world units)                 [deg]
#   8 B_WORLD                Profile RMS along minor axis (world units)                 [deg]
#   9 THETA_WORLD            Position angle (CCW/world-x)                               [deg]
#  10 FWHM_WORLD             FWHM assuming a gaussian core                              [deg]
#  11 ELONGATION             A_IMAGE/B_IMAGE                                           
#  12 ELLIPTICITY            1 - B_IMAGE/A_IMAGE                                       
         1 -15.1860     84.6608    151.4002   9.9617468551e+01   3.3414302120e+01     7.271689     2.800738 -39.96   0.02103435    4.543    0.780
         2 -11.1348     97.7984     12.1335   5.3671122911e+01   5.8329560338e+01    0.3415969    0.2246128  17.36  0.001234472    1.695    0.410
         3  -9.9019     41.0037     13.9447   7.4780860186e+01   6.8607486025e+01    0.2389434    0.1554202  17.73   0.00034376    1.400    0.286
         4 -10.5932     79.9340     12.6660   5.9017083567e+01   6.2043676384e+01    0.2915731    0.1887354  47.17  0.001635526    1.376    0.273
         5  -9.0705     36.4170      8.5226   7.4286044742e+01   6.9936941806e+01     0.120277   0.09161048   1.28 -0.0001146021    1.039    0.038
         6 -11.5915    125.1742    221.8750   1.0072459095e+02   1.0945761723e+01    0.7124094    0.5103611 -49.80  0.001250274    1.604    0.377
         7 -10.7377    195.1053    248.9235   9.0285975115e+01  -4.6320452388e+00    0.3705937    0.2300362  17.42  0.002118751    1.544    0.352
         8 -10.3298    160.1937    244.7340   9.6551602298e+01   1.2964105865e+00    0.4084409      0.29752 -43.42  0.001739825    1.644    0.392
         9 -12.3654    174.6793    245.9097   9.3824426923e+01  -1.1286194208e+00      1.30007    0.7023963  47.33  0.006680452    1.962    0.490
        10 -11.4055    166.5608    248.6506   9.5823339392e+01  -2.9835939263e-01    0.6271326    0.3932769  34.50  0.003307665    1.299    0.230
        11 -10.2301    167.9471    242.6641   9.4698965176e+01   4.1208558414e-01    0.2957054    0.2137774  36.14 0.0008808866    1.168    0.144
        12  -9.6947    127.7309    233.5042   1.0173244453e+02   8.3541795034e+00    0.3859455    0.2528668 -34.21  0.002039363    2.093    0.522
        13  -9.9371    130.2843    227.7769   1.0042839764e+02   8.9974634087e+00    0.4173301    0.2761072  32.98  0.002126453    1.382    0.277
        14 -10.5992    132.4326    221.1383   9.9039708443e+01   9.8947552712e+00    0.3645909    0.3315104 -33.34   0.00227655    1.277    0.217
        15 -10.9924    131.2701    214.8821   9.8388278423e+01   1.1297157578e+01    0.6175988    0.3324533  32.42  0.002179381    1.802    0.445
        16  -9.9900    135.9842    209.0034   9.6447918813e+01   1.1657737742e+01    0.3573823    0.2265608 -64.66  0.001194689    1.983    0.496
        17  -8.5809    107.3202    236.6427   1.0639659108e+02   1.0955921552e+01    0.1355325   0.08514011  64.11 0.0003932697    1.761    0.432
        18  -9.5372    101.5566    234.3511   1.0733881188e+02   1.2260066312e+01    0.3505175    0.2161728  23.52  0.001789404    2.016    0.504
        19 -10.0272    169.3793    232.9509   9.2971915657e+01   1.7391620672e+00    0.3184237    0.2070359  31.63  0.001191086    1.320    0.242
        20  -9.2878    236.8146    231.7532   7.9767308399e+01  -8.2109975452e+00    0.2183195    0.1549591 -35.27  0.001395306    1.605    0.377
        21  -8.1781    110.3062    231.3207   1.0514292126e+02   1.1500413286e+01    0.1208201    0.1003116  -1.37 0.0007031791    1.637    0.389
        22 -10.7395    237.4404    240.6544   8.1137389889e+01  -9.4452649723e+00    0.3915066    0.2355567  31.67  0.001565126    1.520    0.342
        23 -10.4865     99.3325    226.3086   1.0688777238e+02   1.4157026682e+01    0.3749358    0.3101674  21.92   0.00117602    1.416    0.294
        24  -8.9390     73.2631    229.0539   1.1269182000e+02   1.7383348640e+01    0.2375977    0.1274249  49.65  0.001260643    1.573    0.364
        25 -10.4816    185.3503    227.0624   8.8798028286e+01   1.2843134278e-01    0.5177627    0.2563408 -31.70  0.002405042    2.437    0.590
        26  -8.7078    181.0305    226.9903   8.9661556408e+01   8.3388622303e-01    0.2734803    0.1657581  44.17   0.00101606    1.632    0.387
        27  -9.6380    171.1153    225.7941   9.1505725532e+01   2.6436554092e+00    0.2034802    0.1817406 -19.70 0.0004509085    1.215    0.177
        28 -11.0819    164.4900    226.4279   9.2982229171e+01   3.6241274610e+00    0.5961356    0.3429654  26.48  0.002942494    1.734    0.423
        29 -10.2792    160.4933    227.0213   9.3909145980e+01   4.1797115937e+00    0.3479855    0.2549043  20.25  0.001600808    1.356    0.263
        30  -9.7653     84.3663    220.6049   1.0946697792e+02   1.7534291264e+01    0.3692064     0.149062  46.56  0.001628711    2.140    0.533
        31  -9.9403     88.0457    226.8495   1.0935914081e+02   1.5730603889e+01    0.3632472    0.2716783   1.00  0.001963044    2.200    0.545
        32  -9.2963     88.5360    222.4938   1.0877502227e+02   1.6537892974e+01    0.2330176    0.1628898 -66.50 0.0008595739    1.548    0.354
        33  -9.2543     50.5213    227.6556   1.1722975538e+02   2.0630768085e+01    0.2946244    0.1154359  58.23  0.001323881    2.535    0.606
        34  -9.5293    117.1147    226.5267   1.0309060233e+02   1.1348515782e+01    0.2998765    0.2220549 -61.38  0.001229992    1.546    0.353
        35  -9.2043    107.2497    224.3135   1.0494121118e+02   1.3332840414e+01    0.3653259    0.2624421  -4.67  0.001826755    2.379    0.580
        36  -9.2987     39.4722    225.1680   1.1925720411e+02   2.2458658869e+01    0.2538189    0.1090089  50.98  0.001068074    1.927    0.481
        37  -8.8185    250.2796    224.6685   7.6190377509e+01  -9.0740263584e+00   0.09911451   0.09247325 -25.35 0.0003623588    1.605    0.377
        38  -8.9275     19.3652    223.8055   1.2310241581e+02   2.4927376211e+01    0.1577063   0.08785432 -70.22 0.0006602341    1.765    0.433
        39  -9.6827    156.5818    222.1837   9.3991607099e+01   5.6765502318e+00    0.4246258    0.2108922  25.05  0.001397321    2.440    0.590
        40  -9.5875    143.9564    217.4506   9.5983825126e+01   8.6666837338e+00     0.271902    0.1774539  50.79  0.001097946    1.540    0.351
        41  -9.1671     28.7322    219.3830   1.2099381476e+02   2.4854354034e+01    0.2211452    0.1206245  84.69 0.0008832632    1.688    0.408
        42  -9.2378     90.6490    218.4898   1.0785892258e+02   1.7045909399e+01    0.2752103    0.1748353  71.19  0.001182829    1.773    0.436
        43  -9.1590    191.9240    217.4760   8.5872015423e+01   6.1549488516e-01    0.1952382    0.1712198  -9.55 0.0005380256    1.135    0.119
        44  -9.7263     99.3482    217.2137   1.0579066051e+02   1.5988598406e+01    0.4477069    0.2813843  41.01  0.002373795    1.404    0.288
        45  -9.4240     94.4852    214.3014   1.0651120089e+02   1.7337932319e+01    0.2890638    0.1947562  40.01  0.001572656    1.347    0.257
        46  -9.7328     63.0138    217.7265   1.1376780594e+02   2.1095507918e+01    0.2953043     0.119534  50.20  0.001077066    2.194    0.544
        47  -9.9331     42.8673    215.7730   1.1784778160e+02   2.4021083401e+01    0.2421012    0.1310917  54.52  0.001334874    1.590    0.371
        48  -9.0946     78.0487    214.5017   1.1017600594e+02   1.9718145533e+01    0.2688725    0.1815567  49.32  0.001280082    1.289    0.224
        49  -9.5834     79.6934    211.5398   1.0948220738e+02   2.0114222009e+01    0.2540534    0.1954744  53.79 0.0008049933    1.134    0.118
        50  -8.6198    229.3152    214.3174   7.8094571939e+01  -4.7252467114e+00    0.1316058   0.08446932   0.76 0.0007037905    1.650    0.394
        51  -8.1847     19.3150    212.2991   1.2241361773e+02   2.7319542521e+01    0.1034155   0.08526514 -54.05 0.0003534221    1.610    0.379
        52  -9.6102     32.9567    210.5271   1.1950360114e+02   2.6267363870e+01    0.2911728    0.1100903  58.26  0.001296457    2.599    0.615
        53  -8.8312    202.6653    210.0112   8.2413067600e+01   8.0911462540e-02    0.2338866    0.1308458  35.68  0.001084755    1.649    0.394
        54 -10.0746     87.1083    209.9838   1.0763958799e+02   1.9363052071e+01    0.3415156    0.1748023  42.33  0.001214793    1.719    0.418
        55 -10.5365     47.9783    209.5567   1.1624277022e+02   2.4745874715e+01    0.2837695    0.1639692  59.49  0.001367815    1.560    0.359
        56  -9.6778    245.2032    209.3983   7.4360810481e+01  -6.3069711115e+00    0.1613899     0.109454  39.65 0.0009526061    1.705    0.413
        57 -11.3348    102.0421    207.1219   1.0388367724e+02   1.7678765308e+01    0.5970749    0.2567054  37.73  0.002529288    2.108    0.526
        58 -11.4795     57.1083    205.9181   1.1390938293e+02   2.4406656278e+01    0.3626837    0.2449707  53.58   0.00120206    1.304    0.233
        59  -9.0397     25.2159    205.1830   1.2072720545e+02   2.8245558154e+01    0.1774714    0.1111199  69.07 0.0008011452    1.367    0.268
        60  -8.0080    215.7033    204.2925   7.8828228940e+01  -1.1043248046e+00    0.1134418    0.1070904  71.77 0.0002933456    1.560    0.359
        61 -11.1437     66.9407    203.2550   1.1142905852e+02   2.3702189911e+01    0.3078774    0.2099045  31.93  0.001465968    1.573    0.364
        62 -14.6600    130.9878    121.4416   8.0167342615e+01   3.2033491906e+01     2.600224     1.617705  45.85   0.01099772    1.619    0.382
        63 -14.3367    132.2127    109.2215   7.6666969830e+01   3.4498298160e+01     2.822194     1.135029  51.23  0.009190192    2.810    0.644
        64 -11.8757     65.0370    106.9252   9.6551941403e+01   4.7282805884e+01    0.9612121    0.7504752   8.87  0.005050037    1.503    0.335
        65 -13.8743     83.4831    131.3244   9.6074968268e+01   3.8568590828e+01     3.469649    0.8645748 -44.98  0.008660262    5.356    0.813
        66 -14.1394     56.8366    140.6950   1.0569173842e+02   4.0002897715e+01     4.441382    0.5837194 -55.74   0.01203781    4.868    0.795
        67 -14.3254     70.8574    131.7977   9.9954720597e+01   4.0354628822e+01     4.649361    0.7543309 -49.81   0.01134068    5.689    0.824
        68 -15.0813    100.2583    174.2063   9.9402892068e+01   2.5371625129e+01     3.730649     2.807719 -41.34   0.01889233    1.520    0.342
        69 -10.6526    246.2208    248.0705   8.0801947841e+01  -1.1474943668e+01    0.4218437    0.2349638  30.89   0.00262869    1.608    0.378
        70 -11.2952     55.3374    197.7433   1.1348589406e+02   2.6453695067e+01    0.4997299    0.2256877  89.88  0.001998314    3.027    0.670
        71 -11.0560    247.5207    197.9756   7.1851748936e+01  -4.9917274446e+00    0.3793758    0.2535698  -3.43  0.002195831    1.487    0.327
        72 -11.1196     61.5397    199.0853   1.1220909738e+02   2.5353366655e+01    0.3050618    0.2133383  80.08  0.001115345    1.386    0.278
        73 -10.7152    173.6411    195.6184   8.5817452515e+01   7.5955222447e+00    0.5746412    0.4140283 -52.82  0.002958841    1.625    0.385
        74  -9.7529    180.9820    198.0480   8.4690601692e+01   5.8347676908e+00    0.3681123     0.259118  -4.80  0.001319492    1.760    0.432
        75  -9.8996    181.0104    193.7112   8.3879842575e+01   6.6269557147e+00    0.3185138    0.2212579 -23.34   0.00159225    1.617    0.382
        76 -10.5802    128.0581    197.2443   9.6398799553e+01   1.5438230983e+01    0.4788665    0.3518929  18.61   0.00177658    1.608    0.378
        77 -10.1670    114.6071    198.9927   9.9815477884e+01   1.7369052185e+01    0.4644966    0.2128658  47.02  0.001921408    2.080    0.519
        78 -10.1049    118.4907    197.5119   9.8678845823e+01   1.7030763711e+01    0.4324938    0.2705459 -47.31   0.00208513    1.778    0.438
        79 -14.0083    107.8518    148.7923   9.2722169485e+01   3.0132440970e+01     3.412556     1.866142  66.67   0.01132001    3.371    0.703
        80  -9.4722     29.8590    196.5623   1.1908056925e+02   2.9663101643e+01    0.2595392    0.1334717  84.25   0.00131765    1.923    0.480
        81 -10.3039    137.3259    193.3455   9.3591756059e+01   1.4618828593e+01    0.6677983    0.3800382 -26.50  0.002550638    3.024    0.669
        82 -10.1374    143.9671    187.6480   9.1044856274e+01   1.4607993041e+01    0.3831398    0.2221096 -33.72  0.001324532    2.201    0.546
        83  -9.3826     36.4999    196.0871   1.1757584433e+02   2.9054691653e+01     0.189239    0.1088069 -77.46  0.001029742    1.580    0.367
        84 -11.7957     44.0841    192.1631   1.1550433707e+02   2.9086016239e+01    0.5851844    0.2803972 -68.16  0.002650489    1.926    0.481
        85  -9.9706     41.8597    202.5837   1.1695875503e+02   2.6998372309e+01    0.2563348    0.1398326  81.05  0.001166246    1.878    0.468
        86  -9.7593    250.5572    190.2212   6.9867846316e+01  -4.2876202756e+00    0.2345214    0.1079826 -38.68  0.001131381    2.045    0.511
        87 -10.5534    120.9810    187.2115   9.6429568752e+01   1.8843942132e+01    0.2648121    0.2465152 -20.36 0.0009518343    1.222    0.182
        88 -11.2766    125.9858    183.3336   9.4558495360e+01   1.8812016157e+01    0.8496348    0.3641325 -39.80  0.002956594    3.199    0.687
        89 -10.2334    131.4965    178.0295   9.2272236961e+01   1.8982846727e+01    0.4864338    0.3623898 -13.24  0.002264126    1.871    0.466
        90  -8.7226     13.3185    196.8458   1.2265005225e+02   3.1229135860e+01    0.2419705   0.09026564 -87.32  0.001083646    2.603    0.616
        91 -10.7124    240.8934    186.7534   7.0865088397e+01  -2.3086102210e+00     0.433531    0.1240884 -38.63  0.001610718    3.239    0.691
        92  -9.8779    158.8918    186.8531   8.7462192492e+01   1.2009107408e+01    0.7887496    0.4813953   9.25  0.003026265    2.838    0.648
        93  -9.6766    134.3437    188.3700   9.3434414795e+01   1.6209311650e+01    0.5191471    0.2811117 -30.55  0.001946565    2.975    0.664
        94  -8.6960    203.7897    188.5748   7.8184685931e+01   3.5110895095e+00    0.1915328      0.12682  47.41 0.0009502943    1.700    0.412
        95 -10.9614     34.5206    186.0333   1.1712885013e+02   3.1562235411e+01    0.6436843    0.1914671 -68.04  0.002604083    2.862    0.651
        96 -10.2253     37.4065    178.4236   1.1572032930e+02   3.3026446195e+01    0.4134157    0.1252451 -65.14   0.00165058    2.780    0.640
        97  -8.8185    198.0400    186.2223   7.8886893745e+01   4.9418540955e+00    0.2901934    0.1641203 -17.21  0.001170021    2.599    0.615
        98  -9.9257    211.2401    183.4356   7.5702102782e+01   3.1078012393e+00    0.4798272    0.2635644  19.49  0.002014874    2.462    0.594
        99  -9.3453     17.9927    182.0260   1.2057122166e+02   3.4126730250e+01    0.2654001    0.1923849 -20.42  0.001442806    2.238    0.553
       100 -10.1665     13.9179    185.0913   1.2171293974e+02   3.3797384371e+01    0.4301199     0.214404  67.29  0.001454652    1.909    0.476
       101  -8.2973    218.6710    183.2753   7.4239143233e+01   1.8585118539e+00    0.1210382    0.1108794  82.53 0.0006990213    1.592    0.372
       102 -11.0298     44.1379    181.8938   1.1446189695e+02   3.1459353540e+01    0.4168429    0.2309099 -71.16  0.001556145    1.647    0.393
       103 -10.3160     45.3141    177.3332   1.1369042106e+02   3.2400288259e+01     0.233698    0.2253816  19.03  0.001538396    1.308    0.236
       104 -10.9110    154.2248    179.4578   8.7131146262e+01   1.4406876079e+01    0.5182078    0.4165343   3.23  0.002623495    1.462    0.316
       105  -9.3557     26.9822    180.5717   1.1838667869e+02   3.3604253591e+01    0.4042451     0.152287 -73.45  0.001806343    2.318    0.569
       106  -8.7539      9.3108    179.3416   1.2232679660e+02   3.5502196345e+01    0.1173644   0.07974935 -53.37 0.0002531484    1.696    0.410
       107  -9.5849    204.5895    176.1762   7.5557276522e+01   5.5720923744e+00    0.3081343    0.2242122 -27.60 0.0008768476    1.347    0.257
       108  -9.5059     12.6041    175.3016   1.2128132496e+02   3.6150410308e+01    0.3959768   0.09061342 -67.89  0.001538455    3.245    0.692
       109  -9.4795    164.3126    175.8111   8.4098416826e+01   1.3232468286e+01    0.2880529    0.2548533  20.23  0.001558656    1.108    0.097
       110  -9.4028     23.7964    173.0666   1.1847089411e+02   3.5666486000e+01    0.4317244    0.1114032 -66.11  0.001683882    3.025    0.669
       111  -9.7513     34.6363    171.8934   1.1573130285e+02   3.4867570017e+01     0.426457    0.1722232 -62.24  0.001923862    2.187    0.543
       112  -8.2839    193.6289    172.7372   7.7085896148e+01   8.2326875722e+00    0.1488122    0.1069556   8.37 0.0004008576    1.657    0.396
       113 -10.2811     44.9686    170.1428   1.1296882892e+02   3.4158965363e+01    0.4839523    0.2378093 -61.03  0.002302355    1.870    0.465
       114 -10.7591    247.8703    169.7371   6.6315047258e+01  -7.2484185617e-01    0.3445246    0.1261798 -44.47  0.001346968    2.951    0.661
       115  -9.3949    209.1747    168.8248   7.3137214061e+01   6.0631617725e+00    0.4317481    0.2555153 -15.00  0.001804742    2.369    0.578
       116 -10.4525    154.1616    168.4423   8.4966740685e+01   1.6750563119e+01    0.7770064    0.2884131 -36.70  0.002330604    3.852    0.740
       117 -10.0644    228.4875    164.0457   6.8512517752e+01   3.4409724617e+00    0.6633418     0.155412 -34.48  0.001803999    5.206    0.808
       118  -9.5248    218.9700    166.0005   7.0669629986e+01   4.7880952142e+00    0.3172741    0.2702129  78.78   0.00174015    1.729    0.421
       119  -9.4705     28.9831    167.0003   1.1663138358e+02   3.6606253792e+01     0.202811    0.1397447 -45.17   0.00113914    1.741    0.426
       120  -9.9804    147.8757    163.7071   8.5497594504e+01   1.9014707315e+01    0.4860935    0.3649008  35.25  0.001644204    1.316    0.240
       121  -9.8122    144.9736    159.5318   8.5335145747e+01   2.0512189186e+01    0.4368048    0.3441977  13.15  0.001373284    1.512    0.339
       122  -9.7876     39.8439    158.1791   1.1287648106e+02   3.7629864963e+01    0.3961298    0.2182212 -48.61  0.001917441    1.984    0.496
       123  -9.2189     19.7271    164.1284   1.1864509928e+02   3.8150875829e+01    0.3167996    0.1256049 -61.84  0.001467839    2.178    0.541
       124  -9.4916     31.6992    156.7526   1.1484976681e+02   3.8812119524e+01    0.4573718    0.1861739 -62.06    0.0020524    2.091    0.522
       125  -9.5002     23.0908    156.8563   1.1709364438e+02   3.9592897719e+01    0.3888431    0.1520147 -61.24  0.001761776    2.172    0.539
       126 -10.8889    139.2928    151.0860   8.4943401428e+01   2.3547732954e+01    0.4202039    0.3045337 -37.70  0.001935924    1.470    0.320
       127 -14.3944    111.4632    137.5841   8.9350283921e+01   3.2164028553e+01     3.249629     1.387735  41.98    0.0117416    2.333    0.571
       128 -10.8356    134.4345    154.1350   8.6827171689e+01   2.3821543915e+01    0.4505559    0.2720084  48.42  0.001904803    1.690    0.408
       129  -9.7464    249.5911    154.8279   6.3006556492e+01   1.3916545471e+00    0.1961795    0.1085795 -44.51 0.0009554299    1.788    0.441
       130  -9.1960    213.3931    155.1678   6.9425083884e+01   7.7572430540e+00    0.2592622     0.208733  47.75  0.001057219    1.379    0.275
       131  -9.3271     37.4242    164.2095   1.1420796492e+02   3.6419968551e+01    0.3444039    0.1752101 -81.83  0.001518368    1.932    0.482
       132  -9.3951     27.8650    148.2212   1.1489413312e+02   4.1257182829e+01    0.4553595    0.2000616  85.11  0.001742288    3.168    0.684
       133  -9.1667     28.7187    144.2577   1.1418993837e+02   4.2149512799e+01    0.2535492    0.1863147  -1.38  0.001429253    1.882    0.469
       134  -8.3703      2.3477    168.3191   1.2313201942e+02   3.8577963588e+01    0.1179696   0.07794079 -51.29 0.0007048753    1.732    0.423
       135 -10.0849     38.8766    146.8088   1.1170053151e+02   4.0527939657e+01    0.4506628     0.237926  69.81  0.001957581    2.445    0.591
       136 -10.5352     40.4076    141.1355   1.1049547760e+02   4.1773448225e+01    0.5302294    0.3354063 -14.95  0.002481539    2.528    0.604
       137  -8.7876    220.9301    148.2408   6.6519356289e+01   7.5847861197e+00    0.2258764     0.154015  14.64  0.001024516    1.899    0.473
       138 -10.2969    149.7450    146.0767   8.1232541122e+01   2.2532043992e+01    0.4606176    0.3019855  77.62  0.001692217    2.757    0.637
       139 -10.8672    197.1298    143.0209   6.9921644126e+01   1.3250809786e+01    0.3312555    0.2822366 -31.51 0.0005154338    1.126    0.112
       140  -8.7620     13.0188    145.8195   1.1861016471e+02   4.3083591826e+01    0.2614075    0.1316195  76.86  0.001242737    2.193    0.544
       141  -9.2922     14.6959    140.1757   1.1757942980e+02   4.4318233076e+01    0.4600721    0.1779906 -39.97  0.001762582    3.872    0.742
       142 -11.3384    158.6307    141.0804   7.7939129433e+01   2.1758690597e+01    0.8848654    0.2990469 -47.44  0.002767194    3.050    0.672
       143 -10.0653    219.2097    156.0783   6.8528028926e+01   6.5038745951e+00    0.2458854     0.217278 -37.06 0.0003429114    1.143    0.125
       144  -9.4902     23.2235    138.1982   1.1498880206e+02   4.4118269388e+01    0.4900773    0.2206553  75.03   0.00188394    3.349    0.701
       145  -9.9133     23.6249    130.7865   1.1394684732e+02   4.5900246932e+01    0.5196434    0.2710254 -35.55  0.002410939    2.498    0.600
       146  -9.6762     49.2458    136.9047   1.0730045531e+02   4.1857521115e+01    0.3982844    0.2053234 -51.85  0.001815937    1.826    0.452
       147  -9.7220     38.9609    135.9877   1.1017648055e+02   4.3200535939e+01    0.2942825    0.2004058 -89.38  0.001018144    1.501    0.334
       148 -10.3098     40.9758    130.4203   1.0874057808e+02   4.4375931145e+01    0.5425317    0.3141822 -21.64  0.002352338    2.778    0.640
       149  -8.7252      3.6353    135.6623   1.2013849686e+02   4.6169499625e+01     0.130495    0.0739822 -47.70 0.0007032478    1.833    0.454
       150 -10.6949    249.1111    131.4596   5.8191583278e+01   5.3129495373e+00    0.3368663     0.205211 -27.63  0.001702894    1.590    0.371
       151  -8.2414    191.7387    133.6541   6.8854501073e+01   1.6206767630e+01    0.1517263    0.1164408  -7.02 0.0003775881    1.600    0.375
       152 -13.4027    102.2977    121.8007   8.8347208502e+01   3.7657748292e+01     1.349082     1.121559   5.09  0.006662128    1.438    0.305
       153  -9.0418     50.7986    129.8856   1.0568240379e+02   4.3428749565e+01     0.216783    0.1778962 -45.70 0.0009938192    1.233    0.189
       154  -9.0804     12.0431    128.3313   1.1701408962e+02   4.7376657692e+01    0.4030306     0.177423  83.17  0.001645899    2.997    0.666
       155  -9.9279     13.9267    120.7965   1.1554762902e+02   4.9069753527e+01    0.6436367    0.2083822 -45.77  0.002517713    3.252    0.692
       156 -12.3050     59.2873    120.8590   1.0139131865e+02   4.4637699126e+01     1.513175    0.4975817 -59.26  0.005400468    2.684    0.627
       157 -13.6636     77.2013    110.8321   9.3476768134e+01   4.4563433320e+01     2.874851    0.9752675 -40.93  0.008539936    3.902    0.744
       158 -11.0248     43.2965    121.0837   1.0648991370e+02   4.6448379996e+01     1.088771    0.4888648 -83.93  0.003644824    3.870    0.742
       159 -10.4145     27.7852    121.1155   1.1134841861e+02   4.7922934089e+01     0.886025    0.3908079  81.23  0.002776494    5.039    0.802
       160 -11.2293     49.1805    201.7613   1.1526884190e+02   2.6314140759e+01     0.395745    0.2088865 -75.33  0.002034236    1.816    0.449
       161 -13.1133    112.7948    108.3849   8.1874984243e+01   3.8766663045e+01     1.205125     0.891911  12.69  0.005366428    1.756    0.431
       162  -8.9481    248.6822    118.2977   5.5437236998e+01   7.5686876463e+00    0.1319023   0.09771313 -63.59 0.0002768046    1.613    0.380
       163  -9.9125      2.5422    112.5146   1.1800247805e+02   5.1753830198e+01    0.8142396    0.2150206 -70.93  0.003226139    2.838    0.648
       164 -10.8613     92.6391    112.6040   8.9027765194e+01   4.1588563972e+01    0.4888409    0.3243169 -72.21  0.001640534    1.956    0.489
       165 -12.1298     95.4965    103.9470   8.5921105254e+01   4.3104554966e+01     1.047547    0.5473863  25.78  0.003761084    2.559    0.609
       166 -10.3931     14.5848    108.2349   1.1363593904e+02   5.2053539868e+01    0.7545519    0.2722489 -56.28  0.003387993    2.124    0.529
       167 -10.7181     22.2851    101.9537   1.1008559713e+02   5.3013499173e+01    0.7090175    0.3682422  75.82  0.002897162    3.278    0.695
       168 -10.4466     21.5640     92.6123   1.0867483875e+02   5.5281969805e+01    0.6179991    0.2725604 -34.91  0.002705691    2.603    0.616
       169 -11.5500    150.8483    104.7537   7.0698718932e+01   3.1264450893e+01    0.4438727    0.3475477 -56.26  0.001569497    1.363    0.266
       170 -11.2082     45.0739    101.6446   1.0217445851e+02   5.1005591688e+01    0.7471175    0.4176027  75.79  0.002743527    3.741    0.733
       171 -10.9361     45.3426     92.7513   1.0011277007e+02   5.3086005365e+01    0.6920578    0.3967361  16.75  0.002903265    2.101    0.524
       172  -8.6302    249.6744    103.3407   5.2064447086e+01   9.8339979125e+00    0.1391445   0.09359602 -62.76 0.0005221842    1.731    0.422
       173  -8.9205      6.3823    102.5827   1.1551345452e+02   5.3898994661e+01    0.3216662     0.107278 -77.42  0.001247516    3.037    0.671
       174  -9.2937      8.0484     97.1055   1.1416601495e+02   5.5097233742e+01    0.3312082    0.1382874 -44.93  0.001577568    2.171    0.539
       175 -11.5933    129.7804     83.5804   7.0046037191e+01   4.0393870277e+01    0.9722323    0.4186138  39.22  0.003340258    2.619    0.618
       176 -12.2767    132.3323     97.2171   7.3333334766e+01   3.7047580484e+01     0.993634    0.4452625  39.33   0.00348226    2.435    0.589
       177 -11.7929    111.6260     91.5030   7.7517190251e+01   4.2725732960e+01    0.9482158    0.4343921  40.02  0.003520315    2.242    0.554
       178 -11.1896    170.6871     99.9335   6.4855799936e+01   2.7605670058e+01    0.4394088    0.2559716 -63.88  0.001597007    2.603    0.616
       179 -12.1932    143.9998     99.3469   7.0911030749e+01   3.3957391038e+01    0.6126462    0.5014704  54.58  0.002975811    1.244    0.196
       180 -13.1566    154.4066     95.5815   6.7338234748e+01   3.2297172854e+01    0.8192518     0.662833  71.86  0.003928629    1.396    0.283
       181 -10.1519     95.1621     97.1439   8.4183319879e+01   4.4715184261e+01    0.3418947    0.2267694 -63.21  0.001077035    1.815    0.449
       182 -11.4357     98.0875     90.0039   8.1227068042e+01   4.5743227603e+01    0.7064472    0.4896864  -8.53  0.003026323    2.064    0.515
       183 -10.6444     63.2588     95.4503   9.4396409863e+01   5.0248293482e+01    0.5425879    0.3530293 -89.08  0.002074061    2.646    0.622
       184 -11.6157     66.9437     86.8354   9.0824906458e+01   5.1701191863e+01    0.8937567    0.3922942  24.23  0.003324907    2.976    0.664
       185 -12.0634    142.3983     87.4890   6.7947699240e+01   3.6713214196e+01    0.8242677    0.3818919  55.82  0.002943391    2.388    0.581
       186 -11.8069    142.9466     79.5628   6.5486559833e+01   3.8099572969e+01     0.682945    0.3566156  44.84  0.002661495    1.918    0.479
       187 -11.0067    108.1320     98.3844   8.0527252623e+01   4.1944432952e+01    0.3794614    0.3273324  85.00  0.001076712    1.408    0.290
       188 -10.0066     34.5533     88.8691   1.0317725696e+02   5.5081355001e+01    0.4632118    0.2355766 -73.81  0.002008239    2.409    0.585
       189 -10.3660     36.2226     81.8551   1.0093382406e+02   5.6536971728e+01    0.5852377    0.3124337 -22.78  0.002416243    2.480    0.597
       190 -10.6365      6.8030     85.4866   1.1275845696e+02   5.7865835583e+01    0.8595035    0.1552427 -51.24  0.003033824    3.341    0.701
       191 -10.6505     85.4903     86.9472   8.4436427086e+01   4.8709598224e+01    0.3837767    0.2932864  -9.58  0.001476994    1.554    0.357
       192 -12.2738    154.7282     85.2908   6.4370837409e+01   3.4212777931e+01    0.6182184    0.3905092  29.19  0.002489119    2.118    0.528
       193 -10.8953     50.2558     77.3321   9.4370692488e+01   5.6032430633e+01    0.6774825    0.3259646  15.24  0.002747338    2.901    0.655
       194 -10.3992    104.3007     82.7299   7.7112771466e+01   4.6059777327e+01    0.3823726    0.2714795 -72.69   0.00164483    2.122    0.529
       195 -11.4753    107.5860     76.4745   7.4166132465e+01   4.6644278326e+01    0.8667226    0.3487812  42.29  0.003108391    2.487    0.598
       196 -11.5954     90.4836     79.7179   8.0603243885e+01   4.9354768812e+01     1.016766    0.3733867  32.36  0.003205955    3.586    0.721
       197  -9.6534     24.1201     80.5011   1.0527632602e+02   5.7891988111e+01    0.3593002    0.2090438 -84.56  0.001322075    2.419    0.587
       198 -10.7347     27.9637     71.4503   1.0163172881e+02   5.9607062149e+01    0.8926992     0.351649 -26.59  0.003053806    4.404    0.773
       199 -12.4008    121.8849     92.7508   7.4917046379e+01   4.0286809346e+01    0.8910423    0.5950079 -23.91  0.003770052    1.868    0.465
       200 -11.1668    183.6201     78.1130   5.6425440204e+01   2.8523538557e+01    0.3066475    0.2619362  54.83  0.001433288    1.185    0.156
       201 -11.0229    152.5572     76.8809   6.2436875861e+01   3.6287303034e+01    0.3684794    0.2143924  50.83   0.00155355    1.674    0.403
       202 -10.7718    121.0884     76.2703   7.0180868244e+01   4.3767831482e+01    0.4413119    0.2530112  37.94  0.001467302    1.836    0.455
       203 -11.2585    166.0179     74.5197   5.8854744828e+01   3.3426426471e+01    0.3273171     0.225148  62.87   0.00126975    1.489    0.328
       204  -9.5866     75.9659     74.2321   8.3885125489e+01   5.3028591369e+01    0.3749768    0.2349411  25.09  0.001406962    1.763    0.433
       205  -9.6598     11.0008     74.8232   1.0919802683e+02   6.0056102629e+01    0.3348207     0.171149   5.16  0.001327495    2.406    0.584
       206 -10.8570    142.2875     72.4318   6.3505561019e+01   3.9558618616e+01    0.4789747    0.3063791  24.88  0.001935482    2.206    0.547
       207 -10.1772    160.0016     73.5143   5.9822927242e+01   3.5072804772e+01    0.2401266    0.1467626  55.33  0.001036742    1.602    0.376
       208  -9.7955     82.1807     72.5793   8.1174011616e+01   5.2311409167e+01    0.2875542    0.2270329 -74.58 0.0009127093    1.791    0.442
       209  -9.5130     43.6534     68.7635   9.4539197314e+01   5.8653272137e+01    0.4863054    0.2300965 -35.28  0.002135038    2.195    0.544
       210 -11.1000    130.8351     69.4165   6.5419744556e+01   4.2806452190e+01    0.6597289    0.2789156  44.13  0.002381746    2.375    0.579
       211  -8.3499     95.3182     71.6528   7.6462540234e+01   5.0064127509e+01    0.1457429    0.1197616 -86.35 0.0007048615    1.729    0.422
       212  -9.6653     51.4760     69.5797   9.1659349147e+01   5.7554150883e+01    0.5056604    0.2356399 -65.60  0.001780877    3.783    0.736
       213  -9.9183     52.0123     62.1125   8.9120792156e+01   5.9027461809e+01     0.417708    0.2372403 -21.20   0.00188304    2.225    0.551
       214  -9.5998      5.8410     69.2504   1.1013476452e+02   6.1571072086e+01    0.4328954   0.09223957 -53.27  0.001752993    2.789    0.641
       215 -10.0110    153.2334     70.5901   6.0434490870e+01   3.7233900448e+01     0.224541     0.135861  45.22 0.0009567402    1.668    0.400
       216  -9.0839     16.2928     69.4746   1.0592087762e+02   6.0916806934e+01    0.3864235    0.1544872 -70.79  0.001588204    2.956    0.662
       217  -9.5275     18.0315     62.7197   1.0356831159e+02   6.2263590992e+01     0.371548    0.1388806 -43.58  0.001433814    2.180    0.541
       218 -11.1626    165.4967     68.8304   5.7340385863e+01   3.4524867378e+01         0.38    0.2071893  61.68  0.001560527    1.892    0.472
       219  -9.7190    117.0160     68.8255   6.8958935319e+01   4.6063226648e+01    0.3715402    0.1824025  29.86  0.001242772    3.121    0.680
       220  -8.7653      1.4584     69.4834   1.1194710186e+02   6.1725628928e+01    0.1222647    0.0932515 -52.01 7.491337e-05    1.025    0.024
       221 -10.1767    107.2610     67.2546   7.1287902196e+01   4.8467570683e+01    0.4459181    0.2450031  40.14  0.001577176    1.814    0.449
       222 -10.8449     84.2044     64.5386   7.7823603926e+01   5.3528062675e+01    0.5943113    0.3641554  11.60  0.002353866    2.442    0.591
       223 -10.8157    159.4844     65.4690   5.7590928495e+01   3.6565287743e+01    0.3314317    0.2105394 -47.30  0.001387485    1.646    0.392
       224 -10.4678     96.3428     64.0504   7.3609234103e+01   5.1303715131e+01     0.504555    0.2390816  34.53  0.001954504    2.353    0.575
       225  -9.7567     65.0279     62.5060   8.4126232684e+01   5.7122256022e+01    0.5519618    0.3009175 -12.42  0.001986115    3.543    0.718
       226 -10.5665    149.1732     63.4098   5.9178749410e+01   3.9439637398e+01    0.3555653     0.220835  46.65  0.001433548    1.584    0.369
       227 -10.2106     47.8774     83.7513   9.6986085098e+01   5.4878023640e+01    0.4555777    0.2847306 -76.03  0.001771847    2.216    0.549
       228 -10.2797     38.8319     58.7792   9.3531510309e+01   6.1257384005e+01    0.4402107    0.2172484 -24.02  0.001873993    2.676    0.626
       229  -9.8449    124.0922     61.1990   6.4541764275e+01   4.5800320504e+01    0.4599948    0.2032495  41.84  0.001704162    2.347    0.574
       230 -10.3159    170.3127     60.9714   5.4166732150e+01   3.4613404991e+01    0.2104534    0.1893285 -44.17 0.0005851518    1.138    0.121
       231  -9.8849     73.1476     60.1589   8.0273855583e+01   5.6283218401e+01    0.3259928    0.2261586 -47.73  0.001094802    1.524    0.344
       232  -9.9857    165.2128     59.5831   5.4734241188e+01   3.6095889270e+01    0.2182018    0.1289516  48.42 0.0009503065    1.692    0.409
       233  -9.9320    112.4304     58.3375   6.6785946349e+01   4.8921400932e+01     0.455458    0.2236984  36.13  0.001759121    2.308    0.567
       234  -9.8081     25.6351     55.6652   9.8323270725e+01   6.3155519616e+01    0.4087497    0.1978915 -34.71  0.001951889    1.937    0.484
       235  -9.9741      7.0320     57.6734   1.0709520830e+02   6.4008821098e+01    0.2250804    0.2020009  65.78  0.001597125    1.483    0.326
       236  -9.3265     34.5074    203.0683   1.1859516916e+02   2.7719680964e+01    0.1858876    0.1064516 -79.42  0.001031949    1.589    0.371
       237 -10.3750    100.7045     54.5187   6.8938504047e+01   5.2087103349e+01    0.2891248    0.2486564  31.23 0.0003449333    1.100    0.091
       238  -9.0664     90.6911     55.5825   7.2513735946e+01   5.3932717618e+01    0.2719269    0.1295392  39.19  0.001118987    2.080    0.519
       239  -8.7855     62.6517     54.8279   8.2401814557e+01   5.8950532317e+01    0.1885179    0.1211847 -50.47 0.0006292538    1.717    0.418
       240 -10.7164    140.2101     62.2878   6.0875087155e+01   4.1804811126e+01    0.4859858    0.1859047  41.48  0.001572626    3.109    0.678
       241 -10.3857     75.8161     50.9237   7.5995128218e+01   5.7500290840e+01     0.531142    0.2811996  21.98  0.002099346    2.566    0.610
       242  -8.7049     30.9518     51.9305   9.4804626283e+01   6.3428992425e+01    0.1774894    0.1552887  75.92 0.0006577059    1.707    0.414
       243  -9.8026      8.3949     50.2879   1.0462375025e+02   6.5469698007e+01    0.4110946   0.07303707 -44.16  0.001506624    3.662    0.727
       244  -9.8365    121.6878     51.3560   6.1893721366e+01   4.7952832736e+01    0.3880857    0.1148233  48.40  0.001251789    3.077    0.675
       245  -9.0408     92.5305     51.0177   7.0270002088e+01   5.4341956884e+01    0.1937277    0.1208914 -58.77 0.0008095367    2.542    0.607
       246  -9.7004     45.8712     49.4115   8.7383319681e+01   6.2275582156e+01    0.3103992     0.210505   5.92   0.00120253    1.574    0.365
       247  -8.9083    106.9517     48.8505   6.5064317764e+01   5.1666437504e+01    0.2501164    0.1496755  27.81   0.00107773    2.008    0.502
       248  -9.7813     64.5682     47.3958   7.8933995878e+01   5.9991369928e+01    0.3825324    0.2492364  -0.63  0.001878643    1.898    0.473
       249  -9.7899     22.2090     47.3450   9.7338148201e+01   6.5108477487e+01    0.3881052    0.2101083  -8.02  0.001981514    2.219    0.549
       250  -9.7496     54.2521     46.8597   8.2902658123e+01   6.1631613538e+01    0.3149077    0.1781888 -16.01  0.001414031    2.342    0.573
       251 -10.3355     95.1507     42.9944   6.6476133781e+01   5.5076547633e+01    0.5819755    0.2056676  53.40  0.002013493    3.222    0.690
       252 -10.0192    144.3893    201.4424   9.3336195507e+01   1.1702222063e+01    0.4207542    0.3144701  13.58    0.0021495    1.581    0.367
       253  -9.2636      5.1226     42.0333   1.0389850263e+02   6.7306700387e+01    0.3257513     0.182848 -79.00  0.001623128    2.881    0.653
       254  -9.5937    114.0944     41.6452   6.0518887106e+01   5.1142779030e+01    0.2864448    0.2149132  38.90 0.0005792463    1.258    0.205
       255  -9.0545    123.4922     40.6409   5.7776806269e+01   4.9101317171e+01    0.2617883    0.1510095  38.74 0.0009158901    1.792    0.442
       256  -8.3942     69.2912     41.6507   7.4901805148e+01   6.0178010920e+01    0.1225856    0.1093489 -74.63 0.0007028108    1.669    0.401
       257  -9.1797     74.3091     45.4139   7.4480798437e+01   5.8696589508e+01     0.272853    0.1210663  35.60  0.001137914    2.282    0.562
       258 -10.5040    154.1135    198.6441   9.0668059857e+01   1.0526339730e+01    0.7107821    0.4636865   7.78  0.003101835    2.294    0.564
       259  -9.7502     84.4510     39.9817   6.8805169931e+01   5.7675985874e+01    0.2869178    0.1865634  40.48 0.0005469815    1.448    0.309
       260  -9.2948     31.6587     45.0730   9.2195467189e+01   6.4687251209e+01    0.3533915    0.1664848 -13.38  0.001352782    3.751    0.733
       261  -8.7851     46.9310     39.0392   8.3045513521e+01   6.3998458963e+01    0.2161562    0.1372209  -7.59   0.00113065    1.772    0.436
       262  -8.9837    207.6743     37.6694   4.2323497520e+01   2.8859265279e+01    0.1308919    0.1023957  34.60 0.0007050764    1.706    0.414
       263 -10.2475    106.7635     36.9098   6.0791684761e+01   5.3453028608e+01    0.3805323    0.1765255  48.73 0.0008358619    1.945    0.486
       264  -9.9545     70.7814     35.9472   7.2066559872e+01   6.0810656655e+01    0.3719262     0.187904  27.40  0.001633454    2.269    0.559
       265  -9.9736     58.6827     37.2021   7.7316819666e+01   6.2615000930e+01    0.3465459    0.1652792  37.99  0.001630173    2.084    0.520
       266  -9.1844    130.6386     45.9933   5.7875468616e+01   4.6643800119e+01     0.193624    0.1863315  11.32 0.0005076563    1.079    0.073
       267  -9.0467     38.2043     35.6228   8.5644806425e+01   6.5676527085e+01    0.1729829    0.1064826  13.17 0.0008914609    1.687    0.407
       268  -8.9056      6.6985     33.9660   1.0063943984e+02   6.8771629914e+01    0.1663598    0.1231735 -37.61 0.0004903792    1.054    0.051
       269  -8.9955    119.4715     33.5134   5.6266742364e+01   5.0994400932e+01    0.1412137    0.1267411  40.71 3.327206e-06    1.020    0.020
       270  -9.6072     97.2412     33.4621   6.2221751172e+01   5.5993031243e+01    0.2735818     0.116633  46.26  0.001133901    2.110    0.526
       271  -9.0398     81.6443     32.6731   6.6863899559e+01   5.9277664543e+01    0.1454945   0.09433022  15.69 0.0006235277    1.775    0.437
       272  -8.3938     12.7259     31.6828   9.6737326053e+01   6.8797890001e+01    0.1231831   0.06774458 -29.21 0.0002270941    1.566    0.361
       273  -9.1585    112.9986     30.4856   5.6782624784e+01   5.2878430310e+01    0.2142265   0.09290434  38.20 0.0008102484    2.580    0.612
       274  -9.4474    147.9617     28.5041   4.8593060838e+01   4.4688948753e+01    0.2262619    0.1252989  61.87  0.001040649    1.616    0.381
       275 -10.8726     75.4231     26.2690   6.6370964881e+01   6.1328170953e+01     0.524879    0.2006327  37.10  0.002108553    2.644    0.622
       276  -9.3890     61.8277     27.3931   7.1942623419e+01   6.3587630462e+01    0.1880289    0.1055612  28.94 0.0008678625    1.745    0.427
       277  -9.1134     51.3972     26.7602   7.5994027066e+01   6.5323604041e+01     0.178002     0.104656 -22.44 0.0005536815    1.697    0.411
       278  -9.5242    222.1801     32.9023   3.9576181168e+01   2.6127695785e+01    0.2094293    0.1498993 -67.20  0.000549885    1.275    0.216
       279  -9.0204     43.9888     25.8024   7.8867560467e+01   6.6522438688e+01    0.1953169    0.1385282   1.26 0.0005597308    1.317    0.241
       280  -8.8580    118.4268     24.7529   5.3392215705e+01   5.2297947805e+01     0.171091      0.13118  -1.17 0.0003354889    1.502    0.334
       281  -9.7360    110.4878     24.7283   5.5293701139e+01   5.4143255437e+01    0.2537825    0.1711585  53.95  0.000621227    1.336    0.251
       282 -10.3206     84.5851     21.7431   6.1411113347e+01   6.0099636743e+01    0.2433352    0.1650313  46.62 0.0005588818    1.353    0.261
       283  -9.3470     58.7422     22.0692   7.0839795860e+01   6.4827596738e+01      0.17693    0.1429412  -0.20 0.0003364929    1.078    0.073
       284  -9.5502     13.1542     21.3264   9.2534279008e+01   7.0574591773e+01    0.2141385    0.1723158   0.21 0.0008203065    1.220    0.180
       285  -9.7887    188.7867     20.7318   4.0323590520e+01   3.5458875738e+01    0.2049423    0.1889431 -13.44 0.0009174108    1.348    0.258
       286  -9.8275     66.9974     23.7427   6.8355073573e+01   6.3196143422e+01    0.1801061     0.151255  19.94 0.0004277433    1.057    0.054
       287  -8.5499     63.6255     21.3179   6.8573038764e+01   6.4100647736e+01    0.1157375    0.1043504 -89.32 0.0001786349    1.802    0.445
       288  -9.7264     41.0711     21.1638   7.8142237788e+01   6.7601845682e+01    0.1908973    0.1348521  -2.54 0.0004725521    1.287    0.223
       289  -8.5453     73.3156     19.6404   6.4265428289e+01   6.2554775125e+01    0.1188015    0.1037208 -68.85 0.0007043222    1.755    0.430
       290 -10.4379     28.9199     18.3781   8.2827251933e+01   6.9518931681e+01    0.2911732    0.1852888  37.21 0.0009927704    1.906    0.475
       291 -11.0400    249.8223    240.3505   7.8923215623e+01  -1.0995444039e+01    0.5208972    0.2110655 -38.08  0.002676685    2.675    0.626
       292  -9.6655     50.6687     15.6414   7.1250280679e+01   6.6957079854e+01    0.2474279    0.1520748   8.47  0.001008722    1.750    0.429
       293  -8.6915     64.3297     14.3446   6.5147281569e+01   6.4825606386e+01    0.1362172   0.08310509  15.89 0.0007050561    1.752    0.429
       294  -8.2110    149.6204    239.6976   9.8005380747e+01   3.7827851872e+00    0.1314951   0.09244629   9.40 0.0007024771    1.772    0.436
       295 -10.6457     88.3189     13.2624   5.6735693968e+01   6.0259096943e+01    0.3579147    0.1457007  56.21  0.001539289    2.319    0.569
       296  -9.9562    134.3161    203.9006   9.6023512289e+01   1.2970707818e+01    0.4535721    0.3134308  21.08  0.002238811    1.672    0.402
