#   1 NUMBER                 Running object number                                     
#   2 MAG_AUTO               Kron-like elliptical aperture magnitude                    [mag]
#   3 X_IMAGE                Object position along x                                    [pixel]
#   4 Y_IMAGE                Object position along y                                    [pixel]
#   5 X_WORLD                Barycenter position along world x axis                     [deg]
#   6 Y_WORLD                Barycenter position along world y axis                     [deg]
#   7 A_WORLD                Profile RMS along major axis (world units)                 [deg]
#   8 B_WORLD                Profile RMS along minor axis (world units)                 [deg]
#   9 THETA_WORLD            Position angle (CCW/world-x)                               [deg]
#  10 FWHM_WORLD             FWHM assuming a gaussian core                              [deg]
#  11 ELONGATION             A_IMAGE/B_IMAGE                                           
#  12 ELLIPTICITY            1 - B_IMAGE/A_IMAGE                                       
         1 -14.2827     44.1969     73.6002   7.2510183144e+01   5.9441325766e+01     1.877697     1.393588 -39.49  0.007658079    1.450    0.310
         2 -14.3250     10.5331     69.7554   8.9574933605e+01   6.3983415914e+01     2.417485     1.654464  -6.09     0.012194    1.702    0.412
         3 -11.9962     40.2617     21.5389   5.2276886661e+01   7.1860120753e+01     1.235922    0.8063956 -22.69  0.005961111    1.887    0.470
         4 -13.6699     54.7954     58.1977   6.2214443002e+01   6.1585474840e+01     2.925376     1.628369  72.62  0.008595012    4.689    0.787
         5 -12.9676    189.3624     35.5458   2.1566980670e+01   3.3938799496e+01     1.236044    0.6673468 -36.43  0.006202923    1.569    0.363
         6 -12.6724    199.2803     30.7972   1.9425129953e+01   3.2374238591e+01     1.291917    0.5750831 -35.74  0.005150515    1.811    0.448
         7 -11.2396    193.1292     19.1507   1.6817262499e+01   3.5074611816e+01    0.4453543     0.407189  31.66   0.00205314    1.493    0.330
         8 -12.3552     51.0344     34.7143   5.3694750270e+01   6.7355734598e+01     1.168393     1.067712  30.56  0.005492774    1.103    0.093
         9 -13.4010     63.3421     36.1167   4.8529116031e+01   6.4560900673e+01     1.789665    0.9398271 -46.38  0.007578543    1.959    0.490
        10 -14.3145     66.2477     18.0389   3.7584849127e+01   6.6821801118e+01     2.348804     1.832986  81.17     0.010141    1.431    0.301
        11 -13.7927     37.7576     56.1001   7.0332153338e+01   6.4813604581e+01     1.382831    0.9767523  29.54  0.004451767    1.480    0.324
        12 -14.0544     12.0771     35.0486   7.9883724822e+01   7.2872406831e+01     1.956914     1.548654 -64.78   0.01129005    1.219    0.180
        13 -12.2164    178.0732     38.1237   2.3440690731e+01   3.6147226810e+01    0.9520004    0.5589672   5.52  0.003435534    4.301    0.767
        14 -13.4808     79.5171     41.3805   4.4638679201e+01   5.9963752163e+01     1.382635    0.5836852  46.72  0.005072359    2.414    0.586
        15  99.0000    229.6953     14.7470   1.3559161486e+01   2.8059952522e+01    0.6453263    0.4344742  -8.23   0.00383342    2.127    0.530
        16 -11.9672    226.0291     22.6019   1.5563935523e+01   2.7903315145e+01     0.520189    0.4248551 -84.78  0.001939568    1.325    0.246
        17 -11.2976    222.3866     11.8542   1.3243161919e+01   2.9774568252e+01    0.5108303    0.3085203  84.19  0.003139558    1.779    0.438
        18 -10.2114    220.8191      7.7385   1.2347007386e+01   3.0508628199e+01    0.2185484    0.1323837 -52.70 0.0008345573    1.241    0.194
        19  -9.7501    104.5144     29.2235   3.1982433258e+01   5.5726269686e+01    0.3266804    0.1218264 -38.21  0.001190211    2.526    0.604
        20 -11.8814    209.2988     21.4693   1.6311844035e+01   3.1362618290e+01     0.381683    0.2486884  45.77 0.0001961983    2.240    0.554
        21  -8.8687    138.4350     17.5754   2.1535737389e+01   4.8395791908e+01    0.4904874    0.3626278  -5.96  0.002341309    1.763    0.433
        22 -12.9144     25.4888     39.6744   7.1693602991e+01   7.0386563689e+01     1.864344    0.3520615 -51.94   0.00554689    4.115    0.757
        23 -13.7187     91.9090     67.4495   5.0781529126e+01   5.1928455606e+01      2.13073     1.382369 -70.73  0.008658125    2.052    0.513
        24 -11.6009    160.0303     14.4218   1.8138291772e+01   4.3318396216e+01    0.2633388    0.1750818 -36.90 0.0001275403    1.387    0.279
        25 -11.3032    150.3515     13.1998   1.8674516737e+01   4.5850740547e+01    0.4857759    0.2335222 -64.36   0.00151159    2.141    0.533
        26  -9.7480    154.3481     13.3114   1.8317230772e+01   4.4840710040e+01    0.2418525    0.1822638 -19.67 0.0008125274    1.519    0.342
        27  99.0000    231.9294      1.6975   1.0511069915e+01   2.8968370072e+01      1.05046    0.4362687 -80.95  0.005524103    2.509    0.601
        28 -11.4199    247.4784     13.5541   1.2502027830e+01   2.4944681704e+01    0.2802906    0.1587886 -59.23 0.0009896276    1.437    0.304
        29 -12.7453    249.6058      9.8512   1.1634784657e+01   2.4954640044e+01    0.4081735    0.1830333 -42.67  0.002063073    1.483    0.326
        30 -13.6649    243.8712      8.7249   1.1612505168e+01   2.6077975377e+01    0.6126528    0.3029251 -71.44  0.003240957    1.945    0.486
        31 -11.8471    115.9669      9.9998   2.1661602465e+01   5.5053507807e+01    0.5016915    0.3124821  -8.09   0.00146998    2.095    0.523
        32 -10.3208    118.0172      3.6430   1.8744836825e+01   5.5123392192e+01    0.3939083    0.1586234 -40.69 0.0008970959    2.273    0.560
        33 -11.6024    173.1799      7.1979   1.4866619021e+01   4.0906599864e+01    0.4962339     0.200282 -25.67  0.001228223    2.427    0.588
        34 -10.8330    131.2147     11.6086   2.0244323257e+01   5.0906197608e+01    0.3896994    0.2212206 -88.17  0.001243382    1.779    0.438
        35 -11.1341    123.9328     10.7780   2.0860041226e+01   5.2887466582e+01     0.379101    0.2749436  21.53  0.001474759    1.879    0.468
        36 -11.0859     93.8415     11.5843   2.6288449800e+01   6.0686920139e+01    0.2963699    0.2188821  76.49 0.0003881943    1.279    0.218
        37  -9.8061    110.4868      9.7991   2.2413093385e+01   5.6513491902e+01    0.1915554    0.1378871 -27.45 0.0006017922    1.474    0.321
        38  99.0000     31.2235     20.4427   5.7548576187e+01   7.3657342387e+01    0.9077864    0.5953927 -61.55  0.004448617    1.989    0.497
        39 -11.7238    193.9747      7.6370   1.3682066998e+01   3.6121511568e+01    0.2787571    0.2457164 -69.61  0.001490777    1.163    0.140
        40 -11.0463    145.3788      7.5797   1.7250478801e+01   4.7680948179e+01    0.4018176    0.2829388 -34.41  0.002197971    1.385    0.278
        41 -10.2902     84.7301      8.2810   2.6633856925e+01   6.3390434293e+01    0.2848173    0.2148644  -6.19  0.001503243    1.578    0.366
        42 -10.5225     27.3717      9.2569   5.2474356975e+01   7.6269526830e+01    0.2306931     0.173019  32.35   0.00105731    1.296    0.229
        43 -10.8188      3.0505      6.2343   7.4580874228e+01   8.0079448604e+01    0.2771412    0.2011822  15.66  0.001003301    1.373    0.272
        44 -10.0423    211.5320      6.0346   1.2363726974e+01   3.2551721423e+01    0.1939243    0.1517607  76.25  0.001240723    1.484    0.326
        45 -10.1452    100.8423      4.7109   2.1683618111e+01   5.9539466439e+01    0.4020139    0.1917149  54.74  0.001102879    2.021    0.505
        46 -12.6058     73.3594      4.5873   2.7409437265e+01   6.6654857732e+01     1.165028    0.5068313  83.04  0.003907999    3.231    0.690
        47 -11.0247    183.7963      3.2857   1.3075258286e+01   3.8832026232e+01    0.2619443    0.1889368 -74.05 0.0005494184    1.214    0.177
        48  -9.8810    111.9290      4.1266   1.9746859172e+01   5.6678151158e+01    0.2284809    0.1615205 -73.06  0.001193065    1.366    0.268
        49 -12.1433     86.1102      1.7099   2.2854347401e+01   6.3654848495e+01    0.5238733    0.1675665  64.54  0.001962216    2.586    0.613
        50 -10.5445    217.5262      1.9981   1.1126272236e+01   3.1737174743e+01    0.2128412    0.1636216 -81.35  0.001467664    1.298    0.229
        51 -10.4811    142.0528      1.9721   1.5598672288e+01   4.9054106030e+01    0.2104888    0.1761215 -70.98 0.0004990223    1.019    0.019
        52 -11.6459     48.9629      1.4972   3.3600116809e+01   7.2865771093e+01     0.481817     0.127036  58.73  0.001196258    3.228    0.690
        53  -9.8395      1.2484      1.2178   7.3249397599e+01   8.1245797864e+01    0.1133086   0.08016381 -21.45 0.0006594291    1.373    0.271
        54 -13.2480     78.6440     59.2485   5.2429167910e+01   5.6616353729e+01     1.014221    0.5082676  41.78  0.003926913    2.118    0.528
        55 -13.5301     80.1093     50.2440   4.8271001618e+01   5.8148728738e+01     1.372258     0.671311  34.77  0.004727166    3.006    0.667
        56 -11.5874     12.0555     97.2136   9.2560503404e+01   5.6248855813e+01     0.300693    0.2565482 -57.45  0.001026216    1.182    0.154
        57 -10.3015    225.2122     97.2148   3.2663454933e+01   1.8219067129e+01    0.1783361     0.119982 -48.21  0.001058664    1.353    0.261
        58 -11.3417     73.4942     96.2235   6.6264795574e+01   4.8769058200e+01    0.3488702    0.2630056  42.15  0.001004115    1.342    0.255
        59 -12.4363     48.5583     95.1738   7.5969109903e+01   5.3034692038e+01    0.5010245    0.3601278  37.24 0.0009242172    1.412    0.292
        60  -9.7006    232.8910     94.8622   3.1268609457e+01   1.7300635679e+01    0.1776753    0.1314478 -27.73 0.0005332718    1.197    0.165
        61 -10.9129    206.3938     94.1040   3.4352494015e+01   2.1963682304e+01    0.3190272   0.08457593 -42.83  0.001122409    3.147    0.682
        62 -10.2946     89.4490     93.9440   5.9999825878e+01   4.6319656939e+01    0.2328735    0.1513463 -52.68 0.0002884851    1.502    0.334
        63 -11.5052     96.6568     90.9099   5.6773427789e+01   4.5578940528e+01    0.5809035    0.4116742  62.07  0.002582802    1.571    0.363
        64 -11.6106     79.7769     90.8352   6.2491133132e+01   4.8977699423e+01    0.2831137    0.2557392 -42.31 0.0003691134    1.175    0.149
        65 -10.1279    172.5475     91.1015   3.8769664414e+01   2.9072397127e+01    0.2470826    0.1945211  86.62 0.0007027578    1.532    0.347
        66 -12.1373    223.4370     88.7907   3.1021155038e+01   1.9745159284e+01    0.3106113    0.2436601 -43.58  0.002013316    1.071    0.066
        67 -10.0632    167.6589     90.0522   3.9352303216e+01   3.0282552730e+01    0.2392955    0.1979544  86.22 0.0008313052    1.384    0.277
        68  -9.5002     85.9832     90.0733   6.0077114490e+01   4.7955720596e+01    0.1909137    0.1793113 -74.74   0.00064675    1.021    0.021
        69 -12.0132    182.6764     62.3051   2.9599872819e+01   3.1657167447e+01     1.210328    0.3947867 -53.68  0.003625947    4.431    0.774
        70 -13.8627    189.9193     56.9943   2.7267457138e+01   3.0884387319e+01     1.450143    0.6394597 -39.41  0.006483471    1.854    0.461
        71  -9.1208    223.3201    124.7198   3.8709948248e+01   1.4447950803e+01    0.1146579   0.08734477 -56.71 0.0006990874    1.583    0.368
        72 -13.7161    193.0385     84.8960   3.3998890651e+01   2.5956837822e+01     1.280484    0.5835803 -50.01  0.005477385    2.183    0.542
        73 -11.4249    187.5855     45.5872   2.4477249493e+01   3.3001721880e+01    0.4984471     0.366532  70.48  0.002575097    1.489    0.328
        74 -12.7239    210.1909     46.6143   2.2494631029e+01   2.8108863742e+01     1.325464    0.5114013 -65.77  0.004497435    4.610    0.783
        75 -13.0046    202.6712     80.4830   3.1622467592e+01   2.4767751236e+01    0.5306742    0.3211857  36.08   0.00219573    2.442    0.590
        76 -13.1128    199.3737     76.0977   3.0974938063e+01   2.6081776176e+01    0.8431664    0.2686258  63.92   0.00302595    4.184    0.761
        77 -10.6308    200.9484     20.0206   1.6498565454e+01   3.3280060812e+01    0.3291785    0.1948349 -55.90  0.001843613    1.395    0.283
        78  -9.7300    220.2780    124.6446   3.9112550503e+01   1.4923631667e+01    0.1225618   0.08473089 -53.32   0.00050409    1.654    0.395
        79 -10.2146    152.9476    124.0590   5.0685469743e+01   2.6764048737e+01    0.2081745    0.1951021 -47.17  0.001192075    1.043    0.041
        80 -13.6486    201.9956     68.7839   2.8844433573e+01   2.6660093599e+01    0.7501317    0.5409369 -51.06  0.004350123    1.203    0.168
        81 -13.1058    203.7045     61.0959   2.6739029712e+01   2.7433147550e+01    0.7705551    0.4261404 -67.61  0.002289683    2.248    0.555
        82 -13.5385    218.2442     57.0872   2.4280764132e+01   2.5143536079e+01    0.8093083    0.7356168 -69.41  0.003468667    1.200    0.166
        83 -11.6963    209.6762     58.5883   2.5485423706e+01   2.6597076833e+01    0.2865851    0.2106671 -52.90  0.000328608    1.162    0.139
        84 -12.6032     50.6704     86.3070   7.2937933842e+01   5.5133014470e+01    0.7180353    0.3161089  36.40  0.001154222    2.244    0.554
        85  -9.4185    220.5284    121.4787   3.8424474643e+01   1.5362543336e+01    0.1255041    0.1010387 -28.71 0.0001328505    1.032    0.031
        86 -12.1637    236.3347     85.8041   2.8959503061e+01   1.8008216332e+01    0.4529927    0.2814207  82.32     0.001635    2.506    0.601
        87 -11.6959    175.6054     85.8351   3.6894768554e+01   2.9350647003e+01     0.498247    0.3050349  31.83  0.001589593    2.498    0.600
        88 -11.8659    161.5462     84.6106   3.9003051873e+01   3.2572664614e+01    0.8188559    0.3897548  48.62  0.003359104    2.340    0.573
        89 -12.1778    168.8639     80.5709   3.6622388482e+01   3.1693504943e+01     0.427947    0.3355531 -80.28  0.001438618    1.442    0.307
        90 -11.2900    167.9505     76.4816   3.5663410232e+01   3.2595102767e+01     0.372236    0.2305682  58.51 0.0008793853    1.764    0.433
        91 -10.5260    250.3370     81.9457   2.6785806267e+01   1.6307986425e+01    0.4527461    0.2657537   3.77  0.001939539    4.458    0.776
        92 -10.9575    247.6010     80.2430   2.6683567004e+01   1.6956256231e+01    0.3810649    0.1920352 -26.60  0.001814649    1.852    0.460
        93 -11.7197    250.0125     75.3677   2.5451970951e+01   1.7214542608e+01    0.2829415    0.1567146 -30.94 0.0002956205    1.456    0.313
        94 -13.3446    214.7682     83.3742   3.0811093015e+01   2.2069627667e+01    0.4732744     0.449848  30.83  0.003260038    1.308    0.235
        95 -12.2000     27.2774     81.4910   8.2852572748e+01   5.9372184195e+01     0.538042    0.2910367  39.03   0.00233438    1.871    0.465
        96 -10.4249     83.3153     82.9559   5.8890428286e+01   5.0216950199e+01    0.3077063    0.2356198  29.54 0.0008047587    1.511    0.338
        97 -10.9620     55.2358     81.8441   6.9735553969e+01   5.5613272310e+01    0.2548087    0.2454816  32.97 0.0002169253    1.108    0.098
        98  -9.3815    241.4489     81.5965   2.7549454050e+01   1.7753098010e+01    0.1193157   0.09175439 -38.54 5.423887e-05    1.019    0.019
        99 -12.5034    213.6681     67.4778   2.7209582722e+01   2.4578377741e+01    0.4040999     0.241887 -22.33  0.002076879    1.871    0.465
       100 -13.0451    221.0783     69.9501   2.7009519284e+01   2.2850120398e+01    0.4613466    0.3539903 -68.40  0.002105337    1.383    0.277
       101 -12.8049    221.6632     78.8489   2.8986355653e+01   2.1487329886e+01      0.65633    0.3193818 -57.68  0.002235807    2.528    0.604
       102 -13.0249    196.9881     49.2128   2.4436794106e+01   3.0478773863e+01    0.7052289    0.5849813  48.92  0.003903359    1.528    0.346
       103 -10.4720    232.0737     78.6908   2.7852135030e+01   1.9698896952e+01    0.1974168     0.154003  63.95  0.001311367    1.620    0.383
       104 -11.3641    225.9413     76.2700   2.7945159177e+01   2.1094775755e+01    0.2953523    0.1273296 -41.56   0.00136092    1.787    0.440
       105 -10.9986    155.1521     76.4398   3.7904286552e+01   3.5462106644e+01    0.3435535    0.2706333  85.00 0.0008515712    1.417    0.294
       106 -10.5902    151.0462     73.2349   3.7747968623e+01   3.6973223530e+01    0.2787769    0.1893052 -39.93 0.0005074172    1.378    0.274
       107 -10.4503    241.8688     73.3692   2.5755605473e+01   1.8782384572e+01    0.3645428    0.2637717 -35.79  0.002435168    1.093    0.085
       108 -10.2241    240.4719     69.5476   2.5059427755e+01   1.9517206876e+01    0.3266755     0.166161 -19.80  0.001568019    2.541    0.606
       109 -10.0707    141.0030    119.7389   5.2338689928e+01   2.9965494143e+01    0.1998557    0.1905319  46.91  0.000354238    1.098    0.089
       110  -9.6343     57.6717    119.6688   7.7316511271e+01   4.5038755804e+01    0.1583247    0.1158431 -32.14 0.0007051553    1.714    0.416
       111 -11.9111    176.5473     70.2057   3.2598843994e+01   3.1753283884e+01    0.5867618    0.2921109 -56.40  0.002422435    2.270    0.560
       112 -12.9181    234.2478     57.8197   2.3023452955e+01   2.2115072678e+01    0.7952362    0.5663727  10.86   0.00454712    2.375    0.579
       113 -11.7226    241.4776     62.1634   2.3374957496e+01   2.0308317233e+01    0.5677774    0.3717533 -50.41  0.003648013    1.272    0.214
       114 -10.8997    226.1148     51.2998   2.2225722655e+01   2.4427233427e+01    0.7548326    0.1450322 -42.60  0.002769064    3.316    0.698
       115 -11.2896    230.0042     50.5179   2.1726645793e+01   2.3812360992e+01    0.5140638    0.1823342 -30.82  0.001795314    2.396    0.583
       116 -11.7541    235.2446     51.0024   2.1420746351e+01   2.2808033497e+01    0.2354528    0.2100481  41.00 0.0006697846    1.553    0.356
       117 -12.7163    234.6277     46.3712   2.0431005021e+01   2.3496012717e+01    0.2944206    0.2040921 -65.76  0.000397769    1.408    0.290
       118 -11.8604    166.0929     65.7937   3.2977414409e+01   3.4796283869e+01    0.6957533    0.5959649  56.11  0.003924773    1.312    0.238
       119 -10.0702    249.9203     69.3140   2.4196545450e+01   1.8007608915e+01    0.2251219     0.116216 -41.45  0.001319948    1.414    0.293
       120 -10.9793    183.2811     69.0924   3.1331683828e+01   3.0477190648e+01    0.2310774    0.2174105 -89.69 0.0004153941    1.165    0.142
       121 -10.3641    204.1562    116.2584   3.9659432766e+01   1.8839378609e+01    0.2668841    0.1811871  68.75  0.001158424    2.186    0.542
       122 -12.5833    233.1990     64.7693   2.4663853046e+01   2.1389394787e+01     0.569204    0.3015067 -43.22  0.001691834    1.441    0.306
       123 -11.0903    248.5228     60.5518   2.2464150800e+01   1.9342648847e+01    0.2825354    0.1725348 -62.03  0.001334529    1.705    0.413
       124 -11.5944    248.2955     56.2245   2.1563641240e+01   1.9919403158e+01    0.3152996    0.2747489 -31.16  0.002368274    1.258    0.205
       125 -11.9085    127.1183     58.8691   3.8131698232e+01   4.5248500195e+01    0.5264087    0.3050172  40.37  0.002134693    2.227    0.551
       126  -9.7132    162.4718     59.5188   3.1732001540e+01   3.6641494319e+01    0.2173092    0.1415969  68.66 0.0005523324    1.646    0.393
       127 -11.4783    162.0289     55.0731   3.0485015880e+01   3.7444518765e+01    0.5097437    0.3445981 -55.82  0.001942027    1.391    0.281
       128 -10.0229    181.4178    115.2264   4.3107221563e+01   2.3053611828e+01    0.2000455     0.116173 -47.49 0.0009481609    1.638    0.389
       129 -11.0258    144.7892     53.4872   3.2828660647e+01   4.1828840195e+01    0.5934031    0.3487431  34.15  0.002340083    2.753    0.637
       130 -10.8180    164.3745     48.0489   2.8045538032e+01   3.7953665592e+01     0.699437    0.3739098  76.94  0.001878124    2.136    0.532
       131 -12.2567    160.7845     38.2662   2.5550826819e+01   4.0203064413e+01     0.552509    0.4044254 -54.11  0.002346654    1.211    0.174
       132 -11.0508    173.7173     53.5625   2.8376774770e+01   3.4969741608e+01    0.4313624    0.2458605 -57.75  0.001600784    1.765    0.434
       133 -11.8782    172.8329     44.5787   2.5910292944e+01   3.6473693560e+01    0.5973147       0.4735  30.43  0.002861862    1.749    0.428
       134 -10.2724    167.5171     42.5148   2.5972481076e+01   3.8006083006e+01    0.2534162    0.1979759 -43.80 0.0007422361    1.152    0.132
       135 -10.5053    174.1666     39.7967   2.4362991073e+01   3.6824399937e+01    0.2301159    0.1825326 -34.76 0.0003403926    1.241    0.194
       136  -9.9710    172.1098    113.1464   4.4295322860e+01   2.5182571840e+01     0.391043    0.2426321   0.08  0.001436483    3.596    0.722
       137 -11.1236    100.7764     53.7793   4.2971970804e+01   5.2618034785e+01     0.639281     0.297854  53.65  0.002439576    2.132    0.531
       138 -10.8465    207.5660     52.7682   2.4265495017e+01   2.7815264594e+01    0.4446851    0.2071736 -62.26   0.00193587    2.599    0.615
       139 -10.8092    132.9926     53.5253   3.5076736626e+01   4.4723736393e+01    0.3235742     0.283328 -35.85  0.001217023    1.198    0.165
       140 -10.5553    137.4433     52.8252   3.3967675024e+01   4.3739957729e+01    0.3547539    0.2520686 -87.18 0.0007824216    1.579    0.367
       141 -10.7916    179.8701     52.1891   2.7193538543e+01   3.3782646391e+01    0.4342156    0.2218844  71.78 0.0009145457    2.207    0.547
       142 -10.8852    133.9135    113.8305   5.2585611266e+01   3.2636112607e+01    0.2257408     0.208012  -2.75 0.0004307513    1.219    0.180
       143 -11.4531     90.5625     51.1527   4.5058484978e+01   5.5554892286e+01    0.2542776    0.2369753  64.84 0.0002834313    1.065    0.061
       144 -11.7011    248.3633     47.0174   1.9598868410e+01   2.1031955008e+01    0.2898857    0.1937922 -51.13 0.0002242846    1.197    0.165
       145 -11.1586    247.3347     42.9817   1.8804480793e+01   2.1687582629e+01    0.3223482    0.2045296 -55.56  0.001394264    1.338    0.253
       146 -11.0273     99.0476     47.8200   4.1135827662e+01   5.4129611916e+01    0.3735314    0.2879013 -14.14  0.001759326    1.702    0.413
       147  -9.7274    240.5959     47.5364   2.0252861060e+01   2.2297065042e+01    0.1212922   0.08738716 -44.49 5.349429e-05    1.024    0.024
       148 -10.2101    181.2548     46.6642   2.5488784240e+01   3.4259927679e+01    0.3373064    0.2040493  43.12  0.001594345    2.297    0.565
       149 -10.2355    142.5285     46.3261   3.0882665397e+01   4.3512680996e+01    0.3303893     0.239451  37.02  0.001587434    1.805    0.446
       150 -10.0418    150.4625     45.5519   2.9328023838e+01   4.1673067185e+01    0.3318228    0.1765142 -28.14  0.001404431    2.028    0.507
       151 -11.0087    148.5142     39.4383   2.7643919782e+01   4.3044641266e+01    0.6100997    0.3790237 -34.15  0.002916061    1.557    0.358
       152 -10.4357    135.8342     43.1002   3.0964369291e+01   4.5677484683e+01    0.2898549    0.2275669  10.52  0.001111394    1.827    0.453
       153 -10.7906    132.4828     39.9537   3.0465451929e+01   4.6995972580e+01    0.5295773     0.279451  65.38  0.001556346    1.883    0.469
       154 -11.0449    129.2332     46.1802   3.3288634922e+01   4.6860724167e+01    0.4310194    0.3000488  58.23  0.001556311    1.463    0.317
       155 -11.4051    125.4800     44.0075   3.3265395969e+01   4.8151349808e+01    0.3638899    0.2401324 -54.12   0.00117321    1.499    0.333
       156 -10.0428    105.5348     43.6725   3.7711965862e+01   5.3240244492e+01    0.3236599     0.180161 -30.85 0.0009530029    1.984    0.496
       157 -10.6472    215.7589     43.1560   2.1166008759e+01   2.7448799163e+01    0.2872678    0.1729354 -33.25  0.001147073    1.424    0.298
       158  -9.9353     88.0065    114.5027   6.5735677897e+01   4.1457518631e+01    0.2057413     0.142544   4.45 0.0004523908    2.337    0.572
       159 -13.3025    222.0002     38.4813   1.9555867222e+01   2.6817623956e+01    0.7382867     0.502642 -77.53  0.001739776    1.532    0.347
       160 -10.0585    143.1375    113.0753   5.0233190359e+01   3.0928190382e+01    0.2199084    0.1988026 -13.35 0.0004200176    1.221    0.181
       161  -9.8723    211.1405    112.2193   3.7762908552e+01   1.8301042416e+01     0.244186    0.1089723  53.68  0.001124517    2.814    0.645
       162  -9.1136    191.3762    112.2965   4.0763262254e+01   2.1736581127e+01     0.134534    0.1011017   2.28 0.0007025019    1.748    0.428
       163 -10.7659    241.0831     40.3049   1.8632926432e+01   2.3085467498e+01    0.2690572    0.1458652 -28.93  0.001097205    1.633    0.388
       164 -10.2731     99.9814     40.6917   3.7966518920e+01   5.5123933155e+01    0.3550508    0.2410739  71.48   0.00163694    1.548    0.354
       165 -10.8781    236.3764     39.1097   1.8681479218e+01   2.4064864770e+01    0.2476152    0.2026404 -31.70  0.001195093    1.257    0.205
       166 -10.2214    233.5092     36.4792   1.8282173714e+01   2.4898628828e+01     0.233235    0.1091162 -37.82 0.0007184723    1.566    0.361
       167  -9.9176    250.0864     38.4786   1.7672271977e+01   2.1750341188e+01    0.1878919     0.113396 -50.56 0.0008632994    1.276    0.216
       168 -12.3685    219.2017     29.9888   1.7735472761e+01   2.8382854500e+01    0.7739938    0.3945859 -79.29  0.003019536    2.252    0.556
       169  -9.6189    168.5130     36.9931   2.4201191961e+01   3.8527056383e+01    0.1828146    0.1223883   2.11 0.0008101049    2.517    0.603
       170  -9.9603    122.7779     33.7761   2.9997465800e+01   5.0373988276e+01    0.3056382    0.1129731 -37.71  0.001114063    2.471    0.595
       171 -10.9797    110.8013     34.7747   3.2864647756e+01   5.3308454216e+01     0.467452    0.3324967  11.46 0.0008847064    2.179    0.541
       172 -10.7263    152.1564     33.8207   2.5286682341e+01   4.2917217941e+01    0.2266351    0.1742514 -49.41 0.0003647523    1.167    0.143
       173  -9.9552    132.0795     33.9531   2.8386373102e+01   4.7961924318e+01    0.2248714     0.166141 -65.38 0.0004625586    1.322    0.244
       174 -11.3889     92.0636     33.2539   3.6948030693e+01   5.8292655812e+01    0.5010645    0.3282387  50.11  0.001412019    1.536    0.349
       175 -10.4954     74.9213     33.6753   4.2684082753e+01   6.2382694706e+01    0.2994103    0.2254277  60.96 0.0008385771    1.323    0.244
       176 -10.7969    247.1982     32.8338   1.6637208893e+01   2.2891654614e+01    0.1717564    0.1079921 -47.96 0.0002964764    1.165    0.141
       177 -10.8577    169.8078     32.7807   2.2793716956e+01   3.8774044887e+01      0.34852    0.2158931  64.03  0.001653613    1.712    0.416
       178 -10.3432    239.2299     30.5456   1.6599008030e+01   2.4553574218e+01    0.3253272    0.1638396  69.46  0.001879298    2.381    0.580
       179 -10.7536    162.6746     29.6885   2.2658961164e+01   4.0877969233e+01    0.3495094    0.1969488 -55.01  0.001135849    1.635    0.388
       180 -10.5696    138.7741    112.4081   5.1074442605e+01   3.1952376802e+01    0.2042802    0.1429672  33.88 0.0006348501    1.641    0.390
       181 -11.6041    149.1675     28.3431   2.3880099059e+01   4.4377205035e+01    0.3119716    0.2692936 -16.45 0.0005831991    1.378    0.274
       182 -11.0690    146.9914     25.5009   2.3207401364e+01   4.5280419599e+01    0.4021127    0.2826152  31.56  0.001281082    2.021    0.505
       183 -10.7561    138.1854     26.7749   2.4851684157e+01   4.7355562431e+01    0.5850151    0.2683499 -65.84  0.001921549    2.861    0.650
       184  -9.6027    132.8201     26.8950   2.5699082721e+01   4.8716020096e+01    0.2025398    0.1472418 -62.96 0.0004641214    1.316    0.240
       185 -11.6232     86.3573     28.3358   3.6323279724e+01   6.0460318958e+01    0.2868247    0.2497529 -86.36  0.000568814    1.171    0.146
       186  -9.0000    113.8556     28.3131   2.9594177375e+01   5.3437716480e+01    0.2490095    0.1868054  79.58 0.0009916166    1.302    0.232
       187  -9.4326    111.2964     25.6517   2.9013498049e+01   5.4457008976e+01    0.2251809    0.1290367 -49.24 0.0004599882    1.749    0.428
       188  -9.9575    233.9773     25.2248   1.5712902218e+01   2.6112804643e+01    0.3136165    0.1792818 -19.40  0.001735818    2.058    0.514
       189 -10.3132    160.3766     25.2436   2.1527961409e+01   4.1989140495e+01    0.3292067    0.2249206  32.37  0.001182398    2.167    0.538
       190 -10.7194    176.2301     23.7155   1.9469674058e+01   3.8383615946e+01    0.2929235    0.2051251 -32.94  0.001366398    1.367    0.269
       191  -9.9770    179.8090     21.0338   1.8380444912e+01   3.7865789663e+01    0.2465204    0.2092719 -18.97 0.0008385946    1.398    0.284
       192  -9.3562    244.5173     19.5108   1.3909176568e+01   2.4835756086e+01    0.1916502    0.1217731 -33.44  0.001057127    1.318    0.241
       193 -10.9949    246.1706     23.1824   1.4619996621e+01   2.4147305510e+01    0.2311767    0.1580801 -74.37 0.0007358684    1.465    0.317
       194 -11.5669    241.2801     22.7380   1.4769351186e+01   2.5060923920e+01     0.255648    0.2099418 -68.98 0.0008446838    1.243    0.195
       195  -9.9721    118.3593     22.3105   2.6320623565e+01   5.3042693326e+01    0.4022228    0.2343342  -4.75   0.00161481    2.759    0.638
       196 -10.9039    150.7173     22.3041   2.1676323341e+01   4.4732508601e+01    0.2788062     0.213834  89.29 0.0009351818    1.238    0.192
       197 -10.4857     97.1536    109.5948   6.1649547753e+01   4.0967831996e+01    0.2125631    0.1521277  28.03 0.0004775555    1.632    0.387
       198  -9.8443    205.9884     19.0286   1.5911626111e+01   3.2324686456e+01     0.226464    0.1393081 -65.52 0.0003619363    1.448    0.309
       199 -10.2454    203.7114     16.3424   1.5372062006e+01   3.3100387126e+01    0.3786106    0.1423243  84.22  0.001653001    2.982    0.665
       200 -10.2418     98.1135     21.6508   3.0103108794e+01   5.8394158700e+01    0.2610921    0.2330914  22.22  0.001168435    1.312    0.238
       201 -10.3307    163.4895     20.8945   1.9839066048e+01   4.1748093369e+01     0.188004    0.1608737 -69.84 0.0003182013    1.042    0.040
       202 -10.6974    195.7411    107.3998   3.8955022315e+01   2.1765024087e+01    0.3312398    0.1846688 -48.72  0.001608338    1.737    0.424
       203 -11.1322    130.4670     19.5226   2.3319358792e+01   5.0226835170e+01    0.3151936    0.2409107  87.36 0.0008813555    1.234    0.189
       204 -12.6642     51.3041     45.0737   5.8539866288e+01   6.5175700021e+01     0.920118    0.6288458  23.77  0.002200435    1.776    0.437
       205  -9.2415    103.0069     19.2854   2.7961134371e+01   5.7419155646e+01     0.192755    0.1731758  84.64 0.0005736735    1.035    0.034
       206 -10.4180    102.8435     15.6637   2.6365544389e+01   5.7887896211e+01    0.2113288    0.1968847  14.00 0.0009386492    1.252    0.201
       207 -10.8588    161.8354    107.1483   4.4804907199e+01   2.8323454941e+01    0.2020928    0.1695805 -15.81  0.001079645    1.343    0.256
       208  -9.1739    222.2999    106.7218   3.5076465566e+01   1.7295131757e+01    0.1192262   0.08509218 -55.96  0.000184693    1.540    0.351
       209 -10.6552    112.1133     17.1223   2.5277267849e+01   5.5294432458e+01    0.2281712    0.2212798  36.01 0.0007717412    1.185    0.156
       210  -9.7304    125.1285     16.3850   2.2891632856e+01   5.1973541456e+01     0.231502    0.1483779 -36.74 0.0005922552    1.512    0.339
       211 -10.2187    210.6602    105.6721   3.6391519106e+01   1.9404260996e+01    0.2464774    0.1781039  46.00  0.001234681    1.663    0.399
       212 -10.5596    184.0341    104.3406   4.0109695178e+01   2.4465631245e+01    0.4252359    0.1814348 -39.58  0.001777933    2.041    0.510
       213 -10.1153     15.2509    105.9999   9.2125524276e+01   5.3547029430e+01    0.1945565    0.1138833 -79.32 0.0005422042    1.553    0.356
       214 -11.5154    155.8582    105.1830   4.5512381423e+01   2.9916678445e+01    0.2286416    0.1946948 -66.21 0.0007032045    1.236    0.191
       215 -10.6252    144.7348    102.8666   4.7285728761e+01   3.2689811235e+01    0.3591435    0.2780048   2.33  0.001691882    1.837    0.456
       216 -11.8623     69.0915    103.0009   6.9598849930e+01   4.7759591171e+01    0.3385651    0.2254776 -53.71  0.001411197    1.473    0.321
       217 -10.6018    235.4454    102.4284   3.2576710016e+01   1.5825350069e+01    0.2303938    0.1784363  61.19  0.001054744    1.706    0.414
       218  -9.9431    213.7266     12.9192   1.3939119137e+01   3.1391153781e+01    0.1739746    0.1142803 -44.15 0.0003253286    1.172    0.147
       219 -13.0280    118.5661     96.9906   5.2089613533e+01   3.9529024097e+01     1.066154    0.4861784 -60.09  0.003167642    3.130    0.681
       220 -10.6509    109.6424    102.9208   5.6188590492e+01   4.0064339507e+01    0.2513838    0.1935932 -35.87 0.0006196323    1.426    0.299
       221  -9.8864     51.9762     12.7790   4.0254070998e+01   7.0819676563e+01    0.1796356    0.1605834  48.27  0.001057854    1.065    0.061
       222 -10.1062    165.1914    101.8790   4.2842684658e+01   2.8634525857e+01    0.2229325    0.1848051 -58.68 0.0006264732    1.210    0.174
       223 -10.6746     96.1444    101.1031   5.9778110564e+01   4.3239793336e+01    0.2423881    0.2182067 -21.83 0.0006171255    1.294    0.227
       224 -12.5936     85.6713     98.9439   6.2646015844e+01   4.5820512677e+01    0.7071078    0.4030071  35.81   0.00284973    1.882    0.469
       225 -10.7521    170.1592     97.8520   4.0911295699e+01   2.8359083447e+01    0.3302541    0.2838098 -41.23  0.001234791    1.055    0.052
       226  -9.3887     88.5931     11.5050   2.7408526911e+01   6.2054903573e+01    0.1384542    0.1296369  89.03  8.34819e-05    1.020    0.020
       227 -12.2216    153.9278     95.8272   4.3486274410e+01   3.2129242072e+01    0.6144885    0.3999082  46.40   0.00211689    1.682    0.405
       228 -12.2156    106.4161     97.0747   5.5535855751e+01   4.2093388740e+01    0.4487855    0.3317579 -24.51 0.0008816426    1.784    0.440
       229 -12.2625    107.8824     92.1958   5.3722405628e+01   4.2903435616e+01    0.6028538    0.2807497  38.36  0.002085072    2.524    0.604
       230  -9.4357    244.7768     97.9957   3.0635349020e+01   1.5011174562e+01    0.1595553   0.07552537 -34.66 0.0005057066    1.596    0.373
       231 -11.4869    200.1347     96.6184   3.5804654013e+01   2.2716357530e+01    0.3822876    0.2148262 -53.80  0.001219972    1.915    0.478
       232 -14.3491     66.4717     83.1012   6.5354164188e+01   5.3390262879e+01     2.085348     1.379982 -34.95  0.008869469    1.861    0.463
       233 -12.3259     55.1528     71.8318   6.6786087220e+01   5.8200214306e+01    0.4696006    0.3600183 -73.61 0.0002586218    1.380    0.275
       234 -13.2862    139.4179     82.3087   4.2787231135e+01   3.7949214228e+01     1.476599    0.8005117  62.34  0.003341717    2.143    0.533
       235 -12.4779     86.6506     74.3595   5.4950183090e+01   5.1543398995e+01    0.8443911    0.6237976  55.69  0.002354454    1.393    0.282
       236 -13.1092    147.7388     63.6177   3.5480074383e+01   3.9431483549e+01     2.367282     1.242162  46.25  0.009732088    2.269    0.559
       237 -13.2510      5.1310     54.4508   9.0152348350e+01   6.8406099240e+01     1.034908    0.7166656 -72.42  0.003497022    1.307    0.235
       238 -11.0776     36.3215    248.6769   9.5372506161e+01   1.7479392518e+01     0.207348    0.1379574 -70.42  0.001396823    1.864    0.464
       239 -11.4656    113.1198    246.6548   7.8966023854e+01   9.7182610442e+00    0.3043487    0.2043501 -18.66  0.001439491    1.875    0.467
       240 -14.4908    122.8242     83.9155   4.7190384862e+01   4.1403740524e+01     2.641016     1.806496  73.19  0.009535857    1.815    0.449
       241 -14.1865    117.5632     62.6086   4.1664451277e+01   4.6890461135e+01      1.35308      1.05702 -79.64  0.006548703    1.412    0.292
       242  -9.9057    180.3181    243.6463   6.5755383845e+01   2.8115071381e+00   0.09468684   0.07897949  40.99 0.0007046566    1.745    0.427
       243 -10.0442     15.8707    238.2018   9.9402202014e+01   2.1260006877e+01    0.1366525    0.1267269  25.58 0.0003913763    1.326    0.246
