#   1 NUMBER                 Running object number                                     
#   2 MAG_AUTO               Kron-like elliptical aperture magnitude                    [mag]
#   3 X_IMAGE                Object position along x                                    [pixel]
#   4 Y_IMAGE                Object position along y                                    [pixel]
#   5 X_WORLD                Barycenter position along world x axis                     [deg]
#   6 Y_WORLD                Barycenter position along world y axis                     [deg]
#   7 A_WORLD                Profile RMS along major axis (world units)                 [deg]
#   8 B_WORLD                Profile RMS along minor axis (world units)                 [deg]
#   9 THETA_WORLD            Position angle (CCW/world-x)                               [deg]
#  10 FWHM_WORLD             FWHM assuming a gaussian core                              [deg]
#  11 ELONGATION             A_IMAGE/B_IMAGE                                           
#  12 ELLIPTICITY            1 - B_IMAGE/A_IMAGE                                       
         1 -14.3299     68.5162    144.2561   9.9711618611e+01   3.7558547634e+01     4.846309     2.473157  67.64   0.01605771    3.675    0.728
         2 -13.4182    201.0472     41.6677   4.1628690465e+01   2.9998522795e+01     1.239693     1.067497 -27.29  0.004765738    1.375    0.273
         3 -13.5611    211.7967     31.2591   3.7937197040e+01   2.8892475385e+01    0.9375383    0.8267018  28.69  0.001980995    1.587    0.370
         4 -12.4812      2.2969     25.0803   9.5204237970e+01   7.1062813471e+01    0.9952675    0.3731178 -52.46  0.005049491    2.343    0.573
         5 -12.2994      2.2351      7.7603   8.7660470704e+01   7.3855315180e+01    0.9034449    0.4968259 -40.48  0.005822174    1.606    0.377
         6 -12.7533    237.3283      5.6865   3.0298981764e+01   2.6357305319e+01    0.8096296    0.5636465 -87.76  0.005115355    1.234    0.190
         7 -11.5540      1.9974     38.5939   1.0009616725e+02   6.8614975418e+01      0.76751    0.1406629 -57.81  0.002741606    4.300    0.767
         8  -9.0948     89.4077    211.2210   1.0447018054e+02   1.8218220982e+01    0.2127773    0.1599074 -81.36 0.0003842572    1.394    0.282
         9 -10.7934    139.6012    249.8737   9.8626280709e+01   2.9016902087e+00    0.4444072    0.1984609  37.49  0.002132915    1.862    0.463
        10 -10.5680    125.3959    245.0842   1.0092502850e+02   5.9031110055e+00    0.3036979    0.1280386 -55.71  0.001380376    2.800    0.643
        11 -13.0159     53.2525    187.0902   1.1006762586e+02   2.8884306452e+01     1.088454    0.8866739  89.52  0.006463923    1.094    0.086
        12 -14.1634     43.4841    198.3835   1.1358204323e+02   2.7405667654e+01     4.499228     1.495014  60.42   0.01406232    4.817    0.792
        13 -15.3610      6.6540    165.2711   1.1931222544e+02   3.8985478516e+01     8.303255      1.21905 -73.63   0.02493055    4.946    0.798
        14 -16.8608     16.4268    243.2238   1.2242396540e+02   2.0765775440e+01     6.716711     2.137492  26.97   0.02663517    4.811    0.792
        15  -8.4377     82.2367    194.9527   1.0401940579e+02   2.2993383588e+01    0.1805258    0.1133221 -67.35 0.0008746532    1.602    0.376
        16 -14.4809      9.3473    207.4167   1.2173907097e+02   2.8967312923e+01     1.078063    0.8999023   5.56  0.004366729    1.821    0.451
        17  -9.3679    147.4878    187.0539   8.7072812497e+01   1.3687378252e+01    0.2197923    0.1447421 -48.40  0.001026254    1.572    0.364
        18 -10.8321    121.4095    197.4252   9.5002934685e+01   1.6078583517e+01    0.4948974     0.247353 -63.63  0.001457053    2.452    0.592
        19  -8.9205     79.7306    182.5407   1.0289269888e+02   2.6323911437e+01    0.3074034    0.1679423 -80.09  0.001267658    2.268    0.559
        20  -9.7669     99.3626    180.8077   9.7664657730e+01   2.3636481812e+01    0.2735964    0.2293615  51.62 0.0006364685    1.150    0.131
        21  -9.4737     64.7923    179.1433   1.0619889368e+02   2.9297821590e+01    0.2544966    0.1723417  51.57  0.001300957    1.439    0.305
        22 -10.8332     42.6762    176.5092   1.1146233155e+02   3.2740415309e+01    0.6825852    0.4967773   2.42  0.003607608    2.067    0.516
        23  -9.7681    187.4450    175.8160   7.6023544860e+01   8.5820199949e+00    0.3556698    0.2632038 -44.93  0.001364524    1.366    0.268
        24 -12.9093     68.8779    154.4668   1.0138917683e+02   3.4906804801e+01    0.6409878    0.4335284 -52.31  0.001082941    1.449    0.310
        25 -10.8904    111.5807    204.0694   9.8348395359e+01   1.6276233866e+01     0.365372     0.272759  79.78  0.001114483    1.587    0.370
        26 -11.3619     67.6857    172.6221   1.0454209076e+02   3.0507103876e+01    0.4506481     0.303921 -34.46  0.002126188    2.018    0.504
        27  -8.8090    110.8496    168.0642   9.2486526313e+01   2.4718094794e+01    0.2333338    0.1985506  79.30  0.000543662    1.263    0.208
        28  -9.8243     33.1253    156.2162   1.1154106768e+02   3.8834376800e+01    0.3441753    0.2385165  33.57  0.001900004    1.599    0.375
        29 -11.6164     88.1921    152.5323   9.5638542922e+01   3.2439439905e+01    0.7319955    0.4815792 -25.98  0.003059071    2.256    0.557
        30 -10.4804    133.6470    144.8699   8.1765385818e+01   2.5906575872e+01     1.151871    0.2939436 -54.15  0.002691561    5.428    0.816
        31  -8.9295    175.0457    149.1830   7.2934251139e+01   1.6424730325e+01    0.2457779    0.1793566  74.32 0.0008132404    1.982    0.496
        32  -8.5392    111.0573    149.5250   8.8743771355e+01   2.9185367330e+01    0.2345963    0.1239826  58.96 0.0008089909    2.705    0.630
        33 -11.3917     72.1487    167.9467   1.0266655008e+02   3.1036853856e+01    0.4991546     0.284463 -53.84 0.0006455722    1.725    0.420
        34 -10.1605     28.9184    143.6249   1.1110640970e+02   4.2423366830e+01    0.3452822    0.2829942 -10.54  0.002034533    1.588    0.370
        35 -10.2307    101.8063    138.6055   8.8951780924e+01   3.3570098025e+01    0.5738343     0.378566 -19.07  0.002243758    2.439    0.590
        36 -11.5660     89.2950    138.2465   9.2466875122e+01   3.5848307523e+01    0.3121334    0.2677509 -39.35 0.0005249008    1.219    0.180
        37  -9.9740     25.4822    137.2456   1.1125069839e+02   4.4349765592e+01    0.3303156    0.1587182  33.49  0.001121802    2.249    0.555
        38  -9.9706    106.0072    131.0565   8.6045557699e+01   3.4646582535e+01    0.4113003    0.3082476 -56.65  0.001930783    1.313    0.238
        39  -9.4946    111.1537    129.6080   8.4246851995e+01   3.4014666830e+01    0.3470645    0.2636493   3.78 0.0008062175    1.809    0.447
        40 -10.0605    135.5320    128.5123   7.7406135227e+01   2.9313499231e+01    0.4448474    0.1537713 -50.40  0.001353672    3.015    0.668
        41  -8.3445    147.7336    174.3320   8.4564036196e+01   1.6404639415e+01    0.1468281    0.1192746  87.48 0.0002150712    1.581    0.368
        42  -8.6066     34.6118    171.7116   1.1295620166e+02   3.4818836193e+01    0.1769947    0.1114913 -84.95 0.0005392641    1.455    0.313
        43 -10.1928     67.3029    124.9513   9.6306999941e+01   4.2632837957e+01    0.2432461     0.214061   1.08 0.0009787779    1.318    0.241
        44  -9.6670     28.5536    128.2970   1.0905217194e+02   4.6325495982e+01    0.2648621    0.1406285  41.72  0.001009933    2.078    0.519
        45 -10.1480     98.4761    125.3984   8.6892708958e+01   3.7423166501e+01     0.303203     0.252272 -17.06 0.0009053806    1.422    0.297
        46  -9.9112    117.7655    123.4142   8.0887138548e+01   3.4182407571e+01    0.4652789    0.2946521   2.39  0.001526194    3.458    0.711
        47  -9.0707     86.8361    120.4236   8.9211592649e+01   4.0695100329e+01     0.343398    0.2307294  70.23  0.001429052    2.150    0.535
        48  -9.1612    107.6791    118.6268   8.2540087895e+01   3.7316885942e+01    0.2453693    0.2212076   1.01 0.0004952905    1.241    0.194
        49 -10.0227     32.6838    118.9127   1.0623423937e+02   4.8295179582e+01    0.2341011    0.1409545 -50.86  0.001176363    1.486    0.327
        50 -10.0999    231.3086    113.7935   5.4404133700e+01   1.1865704965e+01    0.2936299    0.2521489 -39.83 0.0007657019    1.040    0.039
        51  -9.3244    205.4024    110.1019   5.7744802044e+01   1.7818280477e+01     0.255571    0.2177828  68.56 0.0006502972    1.294    0.227
        52 -10.5007     33.7481    108.9629   1.0407585918e+02   5.0664144794e+01    0.3752549     0.212837 -84.10  0.001658597    2.240    0.554
        53 -11.0670    247.6412    107.6389   5.0740930407e+01   9.8330850604e+00    0.3272109    0.2175882 -40.07  0.001799781    1.264    0.209
        54  -8.3122    137.5105    104.4821   7.0634749460e+01   3.4225147180e+01    0.1571144    0.1516475 -74.48 0.0002953343    1.050    0.047
        55  -9.9542     41.2894    103.6845   1.0040110895e+02   5.1186719327e+01    0.2105205     0.192018 -85.98 0.0006138079    1.183    0.155
        56 -10.1474     38.1656    102.3516   1.0121340084e+02   5.1840008033e+01    0.2273361     0.195277 -37.16  0.000896881    1.135    0.119
        57 -10.8326    242.6978    101.9726   5.0184597043e+01   1.1700277534e+01    0.3087188    0.1757492  71.92  0.001231798    2.507    0.601
        58  -9.8164     32.9864    100.0553   1.0256676936e+02   5.2910132181e+01    0.2366703     0.197111  19.19 0.0007400446    1.374    0.272
        59 -12.3539     80.6890    159.4253   9.8963155328e+01   3.1897963456e+01     1.300153    0.6451286  62.04 0.0002011544    3.150    0.683
        60  -9.6240    240.4750    169.4714   6.4763259158e+01   5.6416716520e-01    0.1327283    0.1118273 -22.42 -1.625081e-05    1.012    0.011
        61 -13.5321     20.2104    221.4180   1.2042311896e+02   2.4845747820e+01    0.9529352    0.8034788  31.97  0.006718246    1.500    0.333
        62  -8.4204    154.3119     86.6167   6.1648736172e+01   3.3945291204e+01      0.16447    0.1176766 -73.18  0.000702141    1.810    0.448
        63  -8.6888     74.9795     85.0008   8.3672118111e+01   5.0955778224e+01    0.2121394    0.1779366  79.84 0.0005618521    1.591    0.371
        64  -8.4299    150.8998     82.8298   6.1330846500e+01   3.5466243675e+01    0.2059462    0.1748946 -76.57 0.0003831315    1.297    0.229
        65  -9.2001    112.1982     81.8614   7.0878872546e+01   4.4490824344e+01    0.4421698    0.2867691  81.36  0.001601143    3.082    0.676
        66  -8.8944    158.8455     82.6214   5.9543437972e+01   3.3613130626e+01     0.210627    0.1434417  67.69 0.0003337296    1.637    0.389
        67  -8.9962     69.5319     81.6065   8.4573550317e+01   5.2571692667e+01    0.2117216    0.1621011  54.47  0.001074821    1.615    0.381
        68  -8.9025     53.9460     65.1907   8.5262101877e+01   5.8307967796e+01    0.1836883     0.182223 -78.70 0.0004157662    1.257    0.204
        69 -10.7944      1.9084     62.1636   1.0652015281e+02   6.3827332421e+01    0.4685864    0.1513497 -66.64  0.001952207    2.896    0.655
        70 -10.3946     13.4416     59.8881   1.0085152163e+02   6.3620258200e+01    0.2497793    0.1918655 -56.27  0.000442821    1.219    0.180
        71 -13.0095    191.1795     48.8219   4.4710943820e+01   3.1325420274e+01     1.112802    0.8669304  34.25  0.001275635    1.687    0.407
        72 -10.8906    193.5505    195.7592   7.8703281226e+01   3.7296499772e+00    0.8615322    0.4847711 -66.09  0.002765669    5.163    0.806
        73 -10.5077    203.6041    199.1013   7.7329152065e+01   1.4559685409e+00    0.2807531     0.167897  19.73  0.001121517    1.925    0.481
        74 -10.4564    107.5061    203.4829   9.9213929602e+01   1.7074566542e+01    0.3060784     0.212742  70.18   0.00121902    1.691    0.409
        75  -8.6369     57.2868    220.9906   1.1268742363e+02   2.0599308546e+01    0.1704279    0.1416709  80.33 0.0002025085    1.078    0.072
        76  -9.9280     12.4976     31.4935   9.2127703503e+01   6.9195026832e+01    0.2145716    0.1067847  19.48  0.001188148    2.087    0.521
        77  -9.2585    197.9695     23.6459   3.7579626086e+01   3.2987154917e+01    0.2021611    0.1764926 -28.57 0.0007082767    1.381    0.276
        78  -8.4770    189.3872     14.8340   3.6322242341e+01   3.5982300417e+01     0.158449    0.1251265 -13.95 0.0008799057    1.684    0.406
        79 -10.8763      2.0401     49.8292   1.0337399576e+02   6.6398176726e+01     0.464468    0.1179958 -57.57  0.001958414    2.802    0.643
        80 -10.6394    183.6991    212.7117   8.3819648157e+01   2.3375250667e+00    0.2898752    0.2476952 -80.02  0.001654293    1.735    0.424
