#   1 NUMBER                 Running object number                                     
#   2 MAG_AUTO               Kron-like elliptical aperture magnitude                    [mag]
#   3 X_IMAGE                Object position along x                                    [pixel]
#   4 Y_IMAGE                Object position along y                                    [pixel]
#   5 X_WORLD                Barycenter position along world x axis                     [deg]
#   6 Y_WORLD                Barycenter position along world y axis                     [deg]
#   7 A_WORLD                Profile RMS along major axis (world units)                 [deg]
#   8 B_WORLD                Profile RMS along minor axis (world units)                 [deg]
#   9 THETA_WORLD            Position angle (CCW/world-x)                               [deg]
#  10 FWHM_WORLD             FWHM assuming a gaussian core                              [deg]
#  11 ELONGATION             A_IMAGE/B_IMAGE                                           
#  12 ELLIPTICITY            1 - B_IMAGE/A_IMAGE                                       
         1 -14.8861    211.3337      6.1856   4.3881525509e+01   3.0356587024e+01     2.582756     1.702287  35.86   0.01146289    1.848    0.459
         2 -13.9502    173.1253     51.4770   6.2388819855e+01   3.4821384200e+01     1.725443     1.214225  30.69  0.004620838    1.652    0.395
         3 -14.3182    187.8227     37.4413   5.5737565507e+01   3.2938823093e+01     1.136421     1.026255  10.01  0.004099942    1.182    0.154
         4 -13.7842    192.1656     31.3549   5.3291681849e+01   3.2561392883e+01    0.7845662    0.7287142  17.38  0.001323071    1.152    0.132
         5 -10.8079    152.0417    210.3060   1.0169301122e+02   1.3514602915e+01    0.1628976    0.1246986  37.68 0.0006977832    1.057    0.054
         6 -11.7178    248.7553    248.8558   9.1032831700e+01  -3.4607217617e+00    0.2950092    0.1608424  15.26  0.002214678    1.442    0.306
         7 -18.7037     41.0605    241.7241   1.2478966380e+02   2.3085222482e+01     6.383257     4.967544  39.31   0.05294503    1.334    0.250
         8 -12.7165    203.5315    199.4147   9.0961809800e+01   7.1517097427e+00    0.5845907    0.2541487  25.72  0.002770243    2.603    0.616
         9 -19.1324     19.9460    101.9270   1.1997410880e+02   5.2819778706e+01     16.29113    0.9095932 -73.86    0.0286866   14.677    0.932
        10 -11.7270    153.7110    185.4472   9.7887199950e+01   1.6836981782e+01    0.2927492    0.2170672 -55.71  0.001550532    1.735    0.424
        11 -12.0075    193.7845    196.3462   9.2154021831e+01   8.9929200267e+00    0.9096245     0.545853 -62.21  0.003695342    5.627    0.822
        12 -12.6911    146.6964    183.9464   9.9050651841e+01   1.8203044373e+01    0.5255294    0.3014703  64.07  0.001917134    3.050    0.672
        13 -12.3521    142.6811    173.3344   9.8227976488e+01   2.0569808830e+01    0.5826196     0.413704  56.41  0.003341982    1.520    0.342
        14 -10.4957    161.3289    200.0686   9.8576994397e+01   1.3516908587e+01    0.1537734    0.1397348  26.37 0.0005500903    1.144    0.126
        15 -11.2468     99.3797    180.7928   1.0853386648e+02   2.6092651787e+01    0.2405868    0.1803355  40.57 0.0005830897    1.178    0.151
        16  -9.6863     53.2193    181.0159   1.1872118501e+02   3.2122375823e+01    0.1486476    0.1198099  64.95 -0.0006383859    1.028    0.027
        17 -10.9665    204.3351    175.9853   8.6932860416e+01   9.8629744345e+00    0.3196789    0.2246203 -35.38  0.001228197    1.624    0.384
        18  -9.9703    197.2102    176.9695   8.8350974540e+01   1.0898142108e+01    0.2225902    0.1540122  34.27  0.001199019    1.249    0.200
        19 -12.3127    152.2717    197.4545   9.9919935018e+01   1.5287308553e+01    0.3534311    0.2596672 -40.57  0.002309086    1.642    0.391
        20 -10.7726     81.6615    195.3202   1.1390116547e+02   2.5943866333e+01    0.2716647    0.2513744  10.85  0.002001803    1.416    0.294
        21  -8.8943     36.3224    176.2563   1.2210894409e+02   3.4905680077e+01   0.09470513   0.08851584 -26.26 0.0002575769    1.545    0.353
        22  -9.3036     46.4065    195.1898   1.2123181280e+02   3.0228466277e+01   0.09719072   0.07796023  20.53 0.0006730838    1.622    0.383
        23 -11.0545     29.8299    193.0536   1.2452466178e+02   3.2353599812e+01    0.2326304    0.1157871  39.96  0.001438525    1.638    0.390
        24  -9.5235     63.9731    170.2205   1.1530538481e+02   3.2946326366e+01    0.1673689    0.1317073  53.31 0.0004019653    1.087    0.080
        25  -9.7879    162.6472    167.9094   9.3260950205e+01   1.8040778403e+01    0.1675356    0.1605306  16.69 0.0008359142    1.131    0.116
        26 -10.1579    207.3108    192.3192   8.9192299580e+01   7.4073583942e+00    0.1210983   0.07588498  12.24 0.0002502558    1.644    0.392
        27 -10.3795     64.2925    187.0023   1.1681602271e+02   2.9664940419e+01    0.3016165    0.1340311  38.75  0.000855553    1.869    0.465
        28 -10.5575     69.4853    178.4686   1.1487828829e+02   3.0632552192e+01    0.6229615    0.3147682  26.33  0.003095797    2.399    0.583
        29 -10.4439    187.6284    154.5455   8.5961073361e+01   1.5641618866e+01    0.4785061    0.1591552  42.43  0.001875149    2.751    0.637
        30 -11.7803    133.8980    145.6202   9.5339959515e+01   2.6979824302e+01     1.069287    0.2962198 -54.22  0.003041315    5.654    0.823
        31 -10.3938    113.1072    151.3355   1.0117665059e+02   2.9516522117e+01    0.2369946    0.1905857 -75.75 0.0007116288    1.404    0.288
        32 -12.5193     98.0022    152.5282   1.0497576288e+02   3.1727093841e+01    0.5429704    0.4413319 -17.96  0.003120315    1.716    0.417
        33 -10.6635    174.2941    148.7133   8.7369511589e+01   1.8967469818e+01    0.2862865     0.251707 -75.01  0.001217304    1.551    0.355
        34 -12.8392     72.0062    188.0550   1.1525184152e+02   2.8505135060e+01    0.6168098    0.3599738  57.54  0.003099775    1.541    0.351
        35 -11.1741    143.9201    146.5791   9.3282624296e+01   2.4972547891e+01     0.362352    0.1978042 -62.45  0.001487956    2.930    0.659
        36 -10.4896    115.5519    144.3649   9.9393200035e+01   3.0472301877e+01    0.2625708    0.1784923  81.76 0.0008111643    2.145    0.534
        37 -12.0223    108.6673    138.8496   1.0008097174e+02   3.2764496517e+01    0.5483515      0.34443 -35.41  0.002602489    2.104    0.525
        38 -12.5223     97.1825    138.2781   1.0286915800e+02   3.4796471362e+01    0.2640826    0.2492609  66.95 0.0004680652    1.040    0.039
        39  -9.7051    128.0781    139.4653   9.5509214343e+01   2.9205711963e+01    0.2137881    0.1276156  41.98  0.001021368    1.563    0.360
        40 -11.4836    105.9505    130.8189   9.9272086860e+01   3.4894180050e+01    0.3659006    0.3070509 -79.90  0.001175861    1.277    0.217
        41 -11.3803    103.4137    125.3601   9.8867667501e+01   3.6487191892e+01    0.2713723    0.2448692 -14.62 0.0007768832    1.334    0.250
        42 -11.1840    135.8382    127.8417   9.1312827115e+01   2.9984878978e+01    0.5585061    0.1855974 -49.12  0.001910417    3.332    0.700
        43 -11.0607    115.5791    129.4965   9.6573073841e+01   3.3462730312e+01    0.3081086    0.2587719   3.87 0.0007126219    1.496    0.332
        44 -10.3176    160.5019    127.4621   8.5716762980e+01   2.5169005428e+01    0.3003358    0.2352399 -67.60  0.001421216    1.701    0.412
        45 -10.9618    120.8280    123.1588   9.3942347700e+01   3.3785812771e+01    0.4338656    0.2720231 -17.87  0.001691987    3.038    0.671
        46  -9.9082    135.0000    119.9552   8.9767853920e+01   3.1674404677e+01    0.2314455   0.08202817 -45.23 0.0008004987    2.929    0.659
        47  -9.6328     64.3331    120.2819   1.0879754332e+02   4.3692045291e+01    0.1265227    0.1035148 -27.29  0.000366274    1.613    0.380
        48 -10.1397    110.8028    118.6291   9.5533636757e+01   3.6592094801e+01    0.2139982    0.1901001 -41.06 0.0004762777    1.204    0.169
        49 -10.2881    167.8618    112.7312   8.0735097486e+01   2.6197047126e+01    0.3496605    0.2479942 -74.93  0.001483902    2.342    0.573
        50 -11.7417    119.3631    110.5549   9.1474682977e+01   3.6652444162e+01    0.5623425    0.3388885  60.05  0.002419365    2.027    0.507
        51 -10.3641    205.4935    110.1693   7.3078998163e+01   1.8706424295e+01    0.2871887    0.1878914  38.51 0.0009451143    1.535    0.349
        52 -10.5292    134.6160    105.5140   8.6404104962e+01   3.4575416344e+01     0.408268    0.1408456 -43.58  0.001378784    2.949    0.661
        53  -9.2894     52.6840     90.7060   1.0710365333e+02   5.2166732748e+01    0.1332256    0.1001327 -34.11 0.0002391311    1.602    0.376
        54  -9.5042    190.3613     89.6901   7.0518375902e+01   2.4999347611e+01    0.1468115    0.1129526 -68.91 0.0007040816    1.744    0.427
        55 -12.4951    165.4318     65.8252   6.8274455507e+01   3.4598571302e+01    0.8126942    0.5898623 -53.02  0.000515315    1.519    0.342
        56 -12.9769     73.7216    183.4241   1.1443341821e+02   2.9146099208e+01    0.6397834    0.4433869  32.28  0.002784661    1.466    0.318
        57 -11.3179    158.2562    235.6629   1.0365126097e+02   9.4009187714e+00    0.2081964    0.1766943  22.21 0.0009183488    1.182    0.154
        58 -11.4197     71.6044    230.7780   1.1874742145e+02   2.1370591220e+01    0.2599518    0.1576111  64.58 0.0006667156    1.547    0.354
