#   1 NUMBER                 Running object number                                     
#   2 MAG_AUTO               Kron-like elliptical aperture magnitude                    [mag]
#   3 X_IMAGE                Object position along x                                    [pixel]
#   4 Y_IMAGE                Object position along y                                    [pixel]
#   5 X_WORLD                Barycenter position along world x axis                     [deg]
#   6 Y_WORLD                Barycenter position along world y axis                     [deg]
#   7 A_WORLD                Profile RMS along major axis (world units)                 [deg]
#   8 B_WORLD                Profile RMS along minor axis (world units)                 [deg]
#   9 THETA_WORLD            Position angle (CCW/world-x)                               [deg]
#  10 FWHM_WORLD             FWHM assuming a gaussian core                              [deg]
#  11 ELONGATION             A_IMAGE/B_IMAGE                                           
#  12 ELLIPTICITY            1 - B_IMAGE/A_IMAGE                                       
         1 -10.5532     77.2970     17.6475   7.5130525943e+01   6.2526955134e+01    0.3644806    0.2539566 -64.97  0.001724414    2.557    0.609
         2 -11.3122     75.1847     21.8472   7.7832439570e+01   6.2307472520e+01    0.6130773    0.2926448 -46.94   0.00257184    2.618    0.618
         3  -9.4774    140.0468     26.7755   6.2027584386e+01   4.7058743728e+01    0.1999671    0.1196287  61.44 0.0006070596    1.645    0.392
         4 -11.1389     42.6399     18.1364   8.9410572546e+01   6.7999051108e+01    0.5509515    0.2600865 -34.64   0.00255264    1.918    0.479
         5 -10.5879     22.3512      9.5629   9.5478096830e+01   7.1751306397e+01     0.311186    0.1978736   2.31  0.001897541    1.797    0.443
         6 -12.1160     35.0943     13.5790   9.0837057406e+01   6.9697885905e+01    0.6896511    0.2608438 -48.54  0.003038943    2.702    0.630
         7 -12.0157     40.2934      9.3851   8.6202311237e+01   6.9723155117e+01     0.462665    0.1969789 -33.27   0.00220421    2.136    0.532
         8 -11.6722     30.1256      7.1844   9.0143087898e+01   7.1324224265e+01    0.3364355    0.2936083   6.93   0.00158582    1.246    0.197
         9 -11.1201    190.7030     14.5572   4.9697490153e+01   3.5041228058e+01    0.4564425    0.1924203 -41.82  0.001780011    2.335    0.572
        10 -10.8776     90.5634      2.3768   6.3538507023e+01   6.1678945449e+01    0.3732068    0.2322235  54.78  0.001463293    1.583    0.368
        11 -11.3880     89.4305     13.9104   6.9398282192e+01   6.0603829290e+01    0.7803631    0.3974288 -38.64  0.003534486    2.079    0.519
        12 -11.2293     93.0009      8.6491   6.5863321446e+01   6.0472657898e+01    0.4026571    0.2643948  -6.45   0.00204918    1.608    0.378
        13 -10.3172     48.7643     15.3127   8.5281888694e+01   6.7629816470e+01    0.3130071    0.2062484 -59.17  0.001447205    2.483    0.597
        14 -10.3442    155.1473     14.8117   5.4833298789e+01   4.4508912084e+01    0.3342603    0.2109231  53.31  0.001080459    1.479    0.324
        15 -10.3818    203.1224     11.8870   4.7475969302e+01   3.2053821591e+01     0.214974    0.1776528 -64.17 0.0004069503    1.183    0.155
        16  -9.6813    118.8419     12.2071   6.0856817137e+01   5.4101656564e+01    0.1990842    0.1504835  31.94 0.0003526946    1.297    0.229
        17 -10.7492     15.0164      8.8132   9.9184542912e+01   7.2542113283e+01    0.3199539     0.174207 -35.73 0.0003825726    1.500    0.333
        18 -10.7524     11.0212      6.4928   1.0040017297e+02   7.3270943546e+01    0.3651382    0.2077007 -48.13  0.002278415    1.431    0.301
        19 -10.5238     10.0348      1.9999   9.8810053901e+01   7.4127086692e+01    0.3678938    0.1968756 -20.53  0.002128839    1.989    0.497
        20 -10.9447      4.2062      9.9673   1.0589159984e+02   7.3110451029e+01    0.2542291     0.210782 -17.29 0.0003604208    1.232    0.188
        21 -10.1012      2.2370      6.5836   1.0565404656e+02   7.3852721244e+01    0.2688117    0.1357185  -2.22  0.001214602    2.490    0.598
        22 -11.8332     55.5400      6.8119   7.7992139281e+01   6.7853112128e+01    0.4171968    0.3425251 -22.51  0.001488696    1.152    0.132
        23 -11.2527    151.9635      8.3127   5.3005591897e+01   4.6017149736e+01    0.4017007    0.2655415 -47.20  0.001918789    1.657    0.397
        24 -10.9206    210.6839      7.9402   4.5572144496e+01   3.0499231328e+01    0.1979706    0.1779241 -52.97  0.001162526    1.068    0.064
        25 -11.4194     70.2662      5.0890   7.1374909321e+01   6.5497232960e+01    0.3662712    0.2941808 -32.29  0.001251534    1.334    0.250
        26 -10.3220     67.2599      1.6501   7.0631057088e+01   6.6463639166e+01    0.1816245    0.1498793  28.22 0.0003853044    1.152    0.132
        27 -10.5459     65.0256      6.9407   7.4276639988e+01   6.6223770089e+01    0.2268627    0.1690008  -7.13 0.0004938608    1.243    0.195
        28 -11.3606    107.3727      4.7779   6.0300569745e+01   5.7628545267e+01    0.3274709    0.2148599  62.05 0.0006235381    1.543    0.352
        29 -10.0223    235.5036      4.5228   4.2508832258e+01   2.4675230752e+01    0.1319131    0.1180125 -62.70 3.846511e-05    1.010    0.010
        30 -10.6915    199.0011      3.9862   4.5587167260e+01   3.3908354800e+01    0.2386062    0.1485111 -57.68  0.001104479    1.661    0.398
        31 -10.9230    194.1528      4.3148   4.6185969306e+01   3.5149869666e+01    0.1949347    0.1821974  -7.08  0.001103247    1.183    0.155
        32  -9.4644    120.9787      4.0096   5.6939232898e+01   5.4412007878e+01    0.1681626    0.1538367  36.03 0.0003863072    1.002    0.002
        33 -11.6719     18.2694      2.8732   9.4385134138e+01   7.3265787332e+01    0.3985306    0.2327277  11.11  0.001477319    1.973    0.493
        34 -10.7375    130.2013      3.3966   5.4875251851e+01   5.2149596026e+01    0.2521894    0.1770116  73.90  0.001262974    1.483    0.326
        35  -9.9480     37.5307      3.2742   8.4262780733e+01   7.1008236444e+01    0.3327265   0.09702286 -33.09 0.0009976969    3.398    0.706
        36 -10.0655    174.4521      2.6423   4.7898189402e+01   4.0542525248e+01    0.4710875   0.09181732  65.64  0.001393972    3.823    0.738
        37  -9.7892    100.7330      1.9753   6.0643231626e+01   5.9446384835e+01    0.1910365    0.1549162 -78.50  0.001045067    1.654    0.395
        38 -11.4481     80.2174      1.7731   6.6314207078e+01   6.3923453139e+01     0.343796    0.1786996  51.76  0.001135385    1.875    0.467
        39 -10.3406    160.6283      3.1783   4.9882372384e+01   4.4192052128e+01    0.2037559    0.1351347   1.42 0.0009566771    1.799    0.444
        40  -9.5748      2.5376      2.7234   1.0377109010e+02   7.4531233449e+01    0.1660704   0.09267148  15.88  0.001024097    2.070    0.517
        41  -9.2686    203.7025      1.6249   4.4439225418e+01   3.2905291686e+01     0.144123   0.09877243  34.83 0.0007026457    1.747    0.428
        42  -9.6628    187.1271      1.2560   4.6002085804e+01   3.7289154790e+01    0.1951535    0.1153112  83.84 0.0002593626    1.710    0.415
        43 -11.1845     57.9020      2.0529   7.4433760576e+01   6.8080115192e+01    0.2380928    0.2051331 -16.76 0.0003345796    1.165    0.142
        44 -10.1755     28.1686      1.3079   8.8000644792e+01   7.2466639935e+01    0.1393432    0.1015503  33.71 0.0004064153    1.633    0.388
        45 -10.1673     28.8374    128.1613   1.2100618126e+02   4.5705036463e+01    0.1766215    0.1321201  79.63 0.0003074394    1.170    0.145
        46 -10.3409     11.9576    249.9912   1.3178513855e+02   2.4295469265e+01    0.1184295    0.1060766 -78.56  0.001132296    1.761    0.432
        47 -11.4780     11.1875    244.5080   1.3171760079e+02   2.5207923121e+01    0.2274472    0.1415669  37.68  0.001368079    1.771    0.435
        48 -11.9373      6.0917    241.4175   1.3238376115e+02   2.6171015779e+01    0.2582488    0.1570772  54.69  0.001555011    1.200    0.167
        49 -11.8151      1.7850    248.2804   1.3322711652e+02   2.5513884856e+01    0.6431938    0.1223204 -80.54  0.003172637    4.822    0.793
        50 -11.2174      6.2278    247.3501   1.3254793900e+02   2.5242823440e+01    0.3150971    0.1195752 -82.12  0.002136257    2.459    0.593
        51  -9.5844     20.6733    125.5174   1.2281869978e+02   4.7012189749e+01    0.1510344   0.09550302  51.91 0.0008910737    1.575    0.365
        52 -11.8438     22.6725    120.2935   1.2174818537e+02   4.8008346584e+01    0.5894688    0.2566859  70.23  0.002166172    2.942    0.660
        53 -10.0051      7.9123    121.1116   1.2567312280e+02   4.8968911334e+01     0.173548    0.1205017  77.51 0.0003713179    1.243    0.195
        54  -9.4328     96.5090    114.4862   1.0061291519e+02   3.9988153313e+01    0.1423283    0.1296591  89.26 -0.0001259271    1.065    0.061
        55 -10.7790     72.2032    112.9719   1.0700519246e+02   4.4131218825e+01    0.2006732    0.1837732  68.59 0.0003200971    1.106    0.096
        56 -10.8281     65.3434    110.6553   1.0850901091e+02   4.5603351277e+01     0.334527    0.2047167 -64.61  0.001159816    1.493    0.330
        57 -10.0180    248.6831    112.3192   6.8029344781e+01   8.1365704038e+00    0.1317535    0.1027909 -56.63 0.0007040555    1.658    0.397
        58  -9.9749     20.0537    112.5002   1.2158047758e+02   4.9974054242e+01    0.1453354    0.1162317  36.46 0.0009938793    1.476    0.322
        59 -11.3055      3.5482    109.0904   1.2574419818e+02   5.1911531261e+01    0.2912051    0.1800403  57.55  0.001875338    1.635    0.388
        60 -10.8429     57.5371    107.9627   1.1025971641e+02   4.7223304218e+01    0.2324054    0.1888008   2.61   0.00107133    1.695    0.410
        61 -10.3996     89.9035    104.8568   1.0031580075e+02   4.3249027758e+01     0.207654    0.1935964 -24.76 0.0004958945    1.224    0.183
        62 -10.3143     17.9191    105.0654   1.2130342949e+02   5.1817898874e+01    0.1821231    0.1207943 -46.59  0.001118917    1.665    0.400
        63  -9.4874    186.9888    103.4430   7.6376826597e+01   2.3038029009e+01    0.2219085    0.1465307  52.20 0.0005321671    1.520    0.342
        64  -9.8699    113.5236    102.5157   9.3239135876e+01   3.9497505097e+01     0.144682    0.1412797 -70.78 9.737411e-05    1.018    0.018
        65 -10.1788     57.7236    102.0111   1.0910106462e+02   4.8567015975e+01    0.2753229    0.1393585  58.30  0.001183627    2.651    0.623
        66  -9.7006    139.1257     99.1415   8.5785679265e+01   3.4865133717e+01    0.2042529     0.179086 -85.99  0.001041176    1.291    0.226
        67 -10.0465     61.9959     98.2683   1.0707409750e+02   4.8882322278e+01    0.1882162    0.1702351 -74.72  0.001171165    1.024    0.023
        68  -9.9820    100.8831     96.5334   9.5208524516e+01   4.3179894632e+01    0.2471144    0.2005718 -77.56  0.001285456    1.369    0.269
        69 -11.5631     11.2348     88.9769   1.2126850757e+02   5.5923195277e+01    0.7236282    0.1558345 -71.57  0.002653291    3.584    0.721
        70  -9.9526     91.6948     95.5621   9.7600412024e+01   4.5018656279e+01    0.2548043    0.1233721 -52.65 0.0008654583    1.963    0.491
        71 -10.5016      3.8144     95.2607   1.2428278504e+02   5.4971161683e+01    0.2075597    0.1392172 -64.29 0.0003585947    1.261    0.207
        72  -9.8340     78.9124     94.6586   1.0116306088e+02   4.7299650716e+01    0.1790951     0.172084  60.44 0.0002699436    1.109    0.099
        73 -10.8693     17.9156     94.9256   1.2000427556e+02   5.4114253096e+01    0.2415577    0.1578835  40.41 0.0008285916    1.730    0.422
        74 -10.1074     43.8165     92.9973   1.1165202239e+02   5.2238043634e+01    0.2225647    0.1162032 -44.75  0.001076644    2.037    0.509
        75 -10.7211     57.8469     91.8768   1.0701725076e+02   5.0874459132e+01    0.2495467    0.2063631 -22.42 0.0008135236    1.488    0.328
        76 -10.1103     29.2162     92.3547   1.1612680605e+02   5.3792220392e+01    0.2311141    0.1818902  38.82  0.001508916    1.469    0.319
        77 -10.6207     24.7451     89.7685   1.1712345240e+02   5.4758277335e+01    0.3662423    0.2146904  81.56  0.001952572    1.972    0.493
        78 -11.0652     76.4418     89.2361   1.0061108877e+02   4.8896160131e+01    0.2538426    0.2267163 -62.68 0.0005266319    1.033    0.032
        79 -11.1039     18.4527     87.4476   1.1877005453e+02   5.5770996585e+01    0.3801951    0.2429391 -67.92  0.002337549    1.248    0.199
        80 -10.0409    107.5161     89.0055   9.1346731125e+01   4.3554068443e+01    0.2255968    0.1408266 -47.62  0.000589202    1.553    0.356
        81 -10.1722     40.8353     87.8353   1.1162152374e+02   5.3730514715e+01    0.2688251    0.1313953  70.10  0.000402356    4.226    0.763
        82 -10.3266     33.1825     88.2008   1.1416110678e+02   5.4387525569e+01    0.1778278    0.1386059 -59.29 0.0003687533    1.131    0.116
        83  -9.6724    124.1868     86.6120   8.6118786105e+01   4.0646023975e+01    0.2146946    0.1407331  36.75  0.000830741    1.663    0.399
        84  -9.6978    113.9166     85.7111   8.8638094272e+01   4.2975000803e+01     0.213622    0.1920812  -1.83  0.001135696    1.255    0.203
        85 -11.3618     54.9016     84.8940   1.0643211774e+02   5.2829250447e+01    0.3153874    0.2224389 -74.09  0.001144702    1.425    0.298
        86  -9.6230     72.3515     84.8231   1.0079547635e+02   5.0496524792e+01    0.2611486    0.1610789 -46.95  0.001287293    1.526    0.345
        87 -10.2785    145.9159     83.4153   7.9729140329e+01   3.6388696400e+01    0.2438898    0.2054312 -50.26 0.0003331814    1.223    0.182
        88 -10.5742      3.9386     82.4393   1.2273431245e+02   5.7829275491e+01      0.37833    0.1446544 -79.87  0.001624247    2.313    0.568
        89 -10.1572    100.4319     81.8990   9.1394803017e+01   4.6416345287e+01    0.4642279    0.2024516 -38.88  0.001709881    2.540    0.606
        90 -10.2594     42.4785     81.9341   1.0989361715e+02   5.4907178311e+01    0.2168214    0.1810685 -70.63 0.0009600111    1.068    0.064
        91 -11.1645     64.3076     79.7127   1.0210790716e+02   5.2781370898e+01    0.4228004      0.27056 -65.35  0.001656205    1.567    0.362
        92  -9.1777    250.3460     80.7297   6.0257368365e+01   1.2087344532e+01    0.1350978    0.1010148 -61.36 0.0005198969    1.618    0.382
        93  -9.5077    124.4849     78.9949   8.3801152068e+01   4.2108900349e+01    0.2056019     0.128965 -64.71 0.0004872372    2.277    0.561
        94  -9.4818     85.4467     79.4949   9.5254904249e+01   4.9604168743e+01     0.141417    0.1304361 -43.31 3.509217e-05    1.044    0.042
        95 -10.4468    177.0093     77.0169   7.1078240828e+01   2.9967027651e+01    0.2428976    0.2381191  23.04  0.001293123    1.014    0.013
        96 -10.4296     28.0977     77.0527   1.1379642116e+02   5.7371190874e+01    0.1789908    0.1485964 -67.66 0.0003551595    1.018    0.018
        97 -10.8007      6.3594     75.5665   1.2099795565e+02   5.9229797795e+01    0.3295627    0.1144789 -51.27  0.001578816    2.445    0.591
        98 -11.3402     55.7322     75.0869   1.0382009424e+02   5.4935352998e+01    0.3362654    0.2887973 -22.98  0.001899561    1.305    0.234
        99 -10.1947     89.1505     80.5376   9.4400253396e+01   4.8746548324e+01     0.264733    0.1926356 -67.77  0.001045088    1.557    0.358
       100 -11.5097     32.1850     72.9941   1.1155081305e+02   5.7930708346e+01    0.5286251    0.2156106  48.36 0.0002508577    3.380    0.704
       101 -10.9395     36.2994     72.2981   1.0994198594e+02   5.7704350819e+01    0.3282247    0.2195176 -49.11  0.001083401    1.329    0.248
       102  -9.5761    136.6263     74.1938   7.9208680050e+01   4.0295492076e+01    0.2132025    0.1448777 -26.96 0.0004207249    1.621    0.383
       103 -10.3752     79.8240     69.1740   9.4055215532e+01   5.2748276282e+01    0.2704787    0.1759441 -37.24    0.0013207    1.549    0.355
       104  -9.9247    105.8412     71.8247   8.6791660915e+01   4.7451527669e+01    0.2124007     0.195093   3.04 0.0004710635    1.165    0.142
       105 -10.7964     15.9212     75.8010   1.1776616450e+02   5.8581654358e+01    0.2428696     0.177471  23.77  0.001598639    1.700    0.412
       106  -9.9537     46.8674     69.1941   1.0543428540e+02   5.7297145572e+01    0.3254487    0.1743554  10.45  0.001408748    3.181    0.686
       107 -13.6401     19.9161     57.3247   1.1269089076e+02   6.2411716973e+01    0.4524688    0.3040095 -66.24  0.001057975    1.253    0.202
       108 -11.5970     13.9882     63.9441   1.1633902461e+02   6.1359275451e+01    0.5270464    0.2083195 -49.32 0.0003579767    2.130    0.531
       109 -11.7708      8.9626     61.1563   1.1770308007e+02   6.2282719356e+01    0.6123276    0.4209607 -20.51  0.002756376    1.788    0.441
       110 -11.1907     26.7614     43.7579   1.0634468044e+02   6.4780229873e+01    0.4220924     0.274642  44.19  0.002487676    1.980    0.495
       111 -13.6598      5.9936     50.6965   1.1683341807e+02   6.4731725268e+01    0.5692024    0.2950841 -45.66 0.0008788921    1.671    0.402
       112 -11.2297     18.4707     44.8541   1.1021774333e+02   6.5205606008e+01    0.7032942    0.4079849  55.06  0.003745622    2.627    0.619
       113 -11.5238     18.8276     32.1618   1.0630960810e+02   6.7806938163e+01    0.7925162    0.3521312 -17.02  0.001955907    4.443    0.775
       114 -10.7565     25.8830     29.6165   1.0209808944e+02   6.7725314895e+01    0.2113858    0.1463193 -56.36 0.0003956033    1.344    0.256
       115 -10.9086     22.8411     38.2308   1.0639105973e+02   6.6254353015e+01    0.2211932    0.2013407 -56.58 0.0007981649    1.174    0.148
       116 -11.4092     26.6423     35.1119   1.0366559826e+02   6.6565739558e+01    0.3692366    0.1927789 -37.48   0.00122791    1.767    0.434
       117 -11.1082     34.4984     64.9840   1.0890850180e+02   5.9506812472e+01    0.8904701    0.3830703 -29.73  0.003148307    4.653    0.785
       118 -10.4920     39.1832     62.7971   1.0661688046e+02   5.9530792632e+01    0.2841251    0.1554741 -32.28 0.0007061388    2.238    0.553
       119 -10.6418     92.6520     72.5438   9.0984565463e+01   4.9822825589e+01     0.342348    0.2903939  84.78  0.001460578    1.436    0.304
       120 -10.9186     75.7128     64.8319   9.4094926157e+01   5.4326811277e+01     0.254346    0.1927966  44.66  0.001005012    1.457    0.314
       121 -11.1330     64.9904     61.5210   9.6787831730e+01   5.6647123942e+01    0.4309511    0.3253982  19.10  0.001670994    1.564    0.361
       122 -10.3230    100.7704     61.9645   8.5109146234e+01   5.0417492600e+01    0.2280922    0.2089577  41.05 0.0003977819    1.139    0.122
       123 -11.4199     83.6095     56.8731   8.8840380691e+01   5.4628045982e+01     0.248729    0.2355419  85.88 0.0003944415    1.226    0.184
       124 -11.9598     88.0915     53.1923   8.6074937562e+01   5.4537939356e+01    0.5973594    0.4599358  41.19  0.002101481    1.374    0.272
       125  -9.1878     48.4647     58.3969   1.0191302119e+02   5.9469448283e+01    0.1277131    0.1119039 -46.75 0.0002126965    1.020    0.019
       126  -9.4440    129.5009     57.4683   7.5559751530e+01   4.4997202149e+01    0.1502741    0.1462146   4.70 0.0001291533    1.008    0.008
       127 -10.7555     33.9833     54.2367   1.0635054420e+02   6.1902980198e+01    0.4145503    0.1603605 -46.92  0.001706143    2.190    0.543
       128  -9.4241     71.5360     56.4969   9.2857214615e+01   5.6707444316e+01    0.1364453     0.124213 -42.74 0.0001137461    1.047    0.045
       129  -9.6623    225.6200     54.5886   5.6784817594e+01   2.1237641718e+01    0.2790982    0.1348592 -10.96 0.0009537422    3.275    0.695
       130 -11.1698    114.8288     53.8811   7.8219298448e+01   4.8975246728e+01      0.32083     0.295912 -12.50 0.0006947447    1.072    0.067
       131  -9.8745     96.8204     55.1456   8.3978869323e+01   5.2505098939e+01    0.1964119     0.164016  -9.04 0.0003778536    1.297    0.229
       132  -9.4261     54.2041     55.4182   9.8844567196e+01   5.9396237461e+01    0.1525706    0.1247064  48.43 0.0002595658    1.458    0.314
       133 -12.1851     66.0565     52.6387   9.3526903899e+01   5.8326079093e+01    0.4978703    0.2462158  33.50  0.002247072    2.303    0.566
       134  -9.8207    105.7901     53.2369   8.0581535891e+01   5.1037464053e+01    0.2587201    0.1785808  51.01 0.0009214451    1.531    0.347
       135 -11.0661     77.3883     47.4501   8.7622621079e+01   5.7531678255e+01    0.5406238    0.3274498 -14.29   0.00225891    2.593    0.614
       136  -9.5321     47.2049     50.1705   9.9889656973e+01   6.1353860679e+01    0.1645929    0.1478949 -79.01 0.0007579323    1.305    0.234
       137  -9.5919    154.5773     47.5326   6.6383463515e+01   4.0418274935e+01    0.1489987    0.1484862 -31.79 8.141257e-05    1.025    0.024
       138  -9.7317    104.5651     46.3532   7.8424354684e+01   5.2517357518e+01    0.2683369    0.1342434 -40.62 0.0007882857    1.954    0.488
       139  -9.2476    135.5004     46.4409   7.0234402187e+01   4.5389699278e+01    0.1475893    0.1471955  64.78 9.269155e-05    1.050    0.048
       140  -9.7171     53.2253     48.1186   9.6845449567e+01   6.1029242829e+01      0.20363    0.1583436 -28.17 0.0009726984    1.253    0.202
       141 -10.6703    180.9578     41.2477   5.9447537204e+01   3.4417863000e+01    0.3876311    0.3109434 -20.99  0.001174578    1.298    0.230
       142 -10.2135    110.7875     42.9471   7.5342296667e+01   5.1744062222e+01    0.2126369    0.1856283   6.04 0.0003062083    1.176    0.150
       143 -10.0691     69.9367     41.7115   8.8143825009e+01   5.9847937582e+01    0.2624154    0.1766837 -20.02  0.001016144    1.689    0.408
       144 -10.2756     35.3026     41.2636   1.0189250176e+02   6.4494774073e+01    0.3420765    0.2197454   5.07  0.001902602    2.016    0.504
       145 -10.8036      3.7124     41.5032   1.1580455815e+02   6.6817663650e+01    0.3866999    0.1678135 -33.34  0.001993442    2.529    0.605
       146 -10.8433    139.7651     40.4845   6.7119477665e+01   4.5240670661e+01    0.3674667    0.2842389 -61.88  0.001148143    1.545    0.353
       147  -9.5388     51.3874     39.7486   9.4613340403e+01   6.2931642286e+01    0.1820011    0.1048321 -39.93 0.0009322629    1.532    0.347
       148  -9.2895     43.0029     40.7433   9.8445623017e+01   6.3765502022e+01     0.138027    0.1090087  22.80 0.0004408226    1.434    0.303
       149 -12.1145    121.6296     37.3928   7.0312848395e+01   5.0134371377e+01    0.5528678    0.4409543  60.63  0.001501827    1.327    0.247
       150 -10.8746    127.7963     38.6406   6.9244707291e+01   4.8469906307e+01    0.5668166    0.2028441  55.61  0.001770245    2.750    0.636
       151  -9.2725    217.4935     38.4229   5.3392020137e+01   2.5332708414e+01    0.1398017    0.1359428 -60.84 9.399174e-05    1.027    0.027
       152 -11.0098      3.8056     35.1127   1.1421710066e+02   6.8154722203e+01    0.3859147      0.19969 -38.86  0.001747226    1.751    0.429
       153 -10.8078    134.3178     34.2188   6.6054383575e+01   4.7509223803e+01    0.2601442     0.200409  28.45 0.0004283254    1.379    0.275
       154  -9.7233     38.3409     35.4746   9.8559816371e+01   6.5332473949e+01    0.1989427    0.1228237  20.26  0.000756812    1.915    0.478
       155  -9.0606     50.2528     33.5917   9.2719849962e+01   6.4254496350e+01    0.1234086   0.09654177 -68.20 0.0006944733    1.720    0.419
       156 -10.1649     89.1428     31.8594   7.7463304471e+01   5.8093482294e+01    0.1994132    0.1877155 -56.15 0.0002709466    1.255    0.203
       157 -10.9273     44.4956     26.5146   9.2301810930e+01   6.6298299287e+01    0.4348363    0.2439474  36.82  0.002330257    2.032    0.508
       158 -11.3184     39.1538     30.6637   9.6378667142e+01   6.6170262968e+01    0.3397659    0.2332854 -17.22 0.0008716032    1.582    0.368
       159 -10.3536     43.5008     30.5076   9.4388163903e+01   6.5687829540e+01    0.2437692    0.1948207 -19.59 0.0007454538    1.179    0.152
       160  -9.7711    205.5052     31.0006   5.2778230051e+01   2.9297396413e+01    0.2255843   0.09346161 -47.48 0.0008106304    2.592    0.614
       161 -10.5529    166.2979     31.0173   5.8578079109e+01   3.9646111407e+01    0.2351854    0.2102518  69.23 0.0004045022    1.104    0.094
       162  -9.9684    128.6699     31.0944   6.6175525698e+01   4.9344802236e+01    0.4105085    0.1829529  54.10   0.00159229    2.122    0.529
       163  -9.6278     77.0433     31.2592   8.1326488316e+01   6.0479418246e+01    0.1882198    0.1684276  -7.48 0.0004646393    1.024    0.024
       164 -10.6062      7.9260     28.5748   1.1042870483e+02   6.9270786510e+01     0.268218    0.2048874  51.74  0.001834203    1.810    0.448
       165  -9.8333     69.8529     28.8324   8.2911496224e+01   6.2138807237e+01    0.2062128    0.1665703 -11.06 0.0005487152    1.189    0.159
       166 -10.2071    147.0680     26.4776   6.0505843493e+01   4.5283358090e+01    0.2292192    0.1967011 -40.40 -0.0001174541    1.214    0.177
       167  -9.9783    101.8164     26.3744   7.1258094457e+01   5.6273869569e+01    0.3174936    0.2218946  81.20  0.001447456    2.251    0.556
       168 -10.3038     82.4417     17.4879   7.3304147214e+01   6.1554554755e+01    0.3168926    0.1416565  32.17  5.51477e-05    2.891    0.654
       169 -11.4505     18.0066    248.9813   1.3084916317e+02   2.3854961883e+01     0.192826    0.1500976  25.25   0.00160995    2.142    0.533
       170  -9.8787    229.6536    248.0387   9.6321344177e+01  -4.6763049079e+00     0.141619    0.1082205  15.81 0.0006037464    1.149    0.130
       171 -11.0151     78.4978     21.5701   7.6535454328e+01   6.1733176019e+01    0.3954135    0.2003445 -36.17  0.001314167    1.885    0.469
       172  -9.4590    243.6003     26.2881   4.7356630149e+01   2.0449958112e+01    0.1478832   0.08813994 -61.42 0.0001572141    1.788    0.441
       173  -9.5231    229.3196     26.2014   4.8724464022e+01   2.3866679340e+01    0.2061682    0.1676601   1.09  0.001128784    1.448    0.310
       174  -9.8561    153.7900     25.6300   5.8931128508e+01   4.3628296123e+01    0.2627701    0.1839697  76.08  0.001224706    1.547    0.353
       175  -9.5484    187.3249    246.3113   1.0290397587e+02   1.6727866772e+00      0.11098   0.06964523  21.50 0.0002605256    1.658    0.397
       176 -10.0829    113.9128     24.9225   6.7350267508e+01   5.3731355951e+01    0.2234123    0.2107497  15.88 0.0007857517    1.015    0.015
       177 -10.3861     58.9208     24.3068   8.5184157774e+01   6.4660893235e+01    0.3297895    0.1968525  16.13  0.001588269    2.235    0.553
       178  -9.9501    172.3178     23.3040   5.5020215581e+01   3.8979863124e+01    0.1549605    0.1069019  34.00 0.0002893872    1.626    0.385
       179 -10.3978      1.9234     21.8693   1.1139960132e+02   7.0945721070e+01    0.2335575    0.1328686 -63.53 0.0009269665    1.500    0.333
       180 -11.1670     13.9707     21.2322   1.0491062935e+02   7.0325673562e+01    0.2581872    0.2307431  44.08  0.001918765    1.513    0.339
       181  -9.6704     84.9348     21.0890   7.4138464933e+01   6.0556559288e+01    0.2197459    0.1494932  17.81 0.0006666209    1.661    0.398
       182  -9.5804    136.4817    245.5618   1.1135206424e+02   9.3967289080e+00    0.1125436   0.08103074  48.84 0.0001351283    1.061    0.058
       183  -9.9127     60.6770    240.9019   1.2373102100e+02   2.0402926202e+01    0.2337053   0.09271841  38.16  0.001236778    2.268    0.559
       184  -9.6677     50.2382    241.2596   1.2545882414e+02   2.1581624718e+01     0.147228   0.06698154  86.93 0.0008890255    2.412    0.585
       185  -9.5675    202.4739    240.0998   9.9604476914e+01   6.9115316846e-02    0.1336128    0.1068293 -19.61 0.0006106393    1.522    0.343
       186 -11.5957     14.2209    238.8983   1.3105851444e+02   2.5790999005e+01    0.1798166    0.1010382  66.27 0.0005305993    1.230    0.187
       187 -10.6196     30.8212     20.6138   9.6154473894e+01   6.8946353136e+01    0.2382958    0.1564394 -38.27  0.000646083    1.245    0.197
       188  -9.3550     18.3265     26.3094   1.0455631012e+02   6.9009668711e+01    0.1246065   0.07108352 -32.40  0.000703906    1.657    0.397
       189 -10.0077    100.4942     19.4536   6.8651362718e+01   5.7510399537e+01    0.3035634    0.2042129 -63.63  0.001365856    2.365    0.577
       190  -9.4822     58.3975     19.1845   8.3033471430e+01   6.5574217975e+01    0.1853556    0.1095476 -45.75 0.0009408931    1.826    0.452
       191  -9.7681      6.5361     19.3475   1.0813193814e+02   7.1185234879e+01    0.1660595    0.1041983  12.69 0.0006951973    1.895    0.472
       192  -9.3029     68.9512     18.2015   7.8415934502e+01   6.3970042899e+01    0.1652667    0.1018115  43.57 0.0005209803    1.709    0.415
       193  -9.7104    199.7073     17.0262   4.9371736483e+01   3.2404999293e+01    0.1987694    0.1834532 -39.80  0.000566617    1.092    0.085
       194 -12.5051     25.6800    235.9133   1.2914227044e+02   2.5117319512e+01    0.3674941    0.2707189  40.28  0.002764927    1.578    0.366
       195 -11.8606    108.5536     16.2998   6.5094806520e+01   5.6080644364e+01    0.2366487    0.2220135  23.51  0.000276868    1.039    0.037
       196  -9.6943     26.7969     16.8144   9.6502388361e+01   7.0042962484e+01    0.1430063    0.1312822 -45.55 0.0004579074    1.303    0.233
       197 -10.3995     20.1914     16.9360   9.9966521137e+01   7.0638522461e+01    0.2091515    0.1633489  20.26 0.0009322953    1.487    0.328
       198 -10.8327     14.1265     15.9800   1.0279036971e+02   7.1310782629e+01    0.3018175    0.1864725  22.60  0.001219777    1.894    0.472
       199  -9.9596    249.3130    234.0906   9.1268674103e+01  -6.1638901230e+00    0.1796425    0.1073184  26.19 0.0004495191    1.250    0.200
       200 -12.0651      4.2282    232.5136   1.3238247164e+02   2.7756252885e+01    0.2418877    0.1245996  57.23 0.0002295158    1.317    0.241
       201 -12.6897      9.8007    228.6186   1.3137423763e+02   2.7870756512e+01    0.4061267    0.2190617  68.13  0.001427099    1.316    0.240
       202 -10.4321    140.1589    227.7059   1.0877332530e+02   1.1294997817e+01     0.229586    0.1582559 -69.86  0.001422943    1.990    0.498
       203 -11.2712    234.0081     14.8701   4.5295162830e+01   2.3977035544e+01    0.3988872    0.1913309  82.52  0.001202087    2.329    0.571
       204 -10.1126    175.5564     14.8301   5.1751983487e+01   3.9052918167e+01    0.2602082    0.1966374  71.62 0.0005454636    1.275    0.216
       205  -9.5580    109.7636    226.9716   1.1414206372e+02   1.6007642591e+01     0.127004   0.09363771 -68.34  0.000882891    1.630    0.386
       206  -9.8444    162.1831     13.1744   5.3138305395e+01   4.2806895003e+01    0.2232565    0.1817961  43.77 0.0004081183    1.219    0.180
       207  -9.8653     95.0330     13.3139   6.7454086327e+01   5.9482153659e+01    0.1855527    0.1677824  24.58 0.0006352115    1.049    0.047
       208  -9.2288    209.5161    229.5231   9.6971677099e+01   1.4061638594e-01    0.1153201   0.08697845  29.67 6.357675e-05    1.021    0.020
       209  -9.2182    210.6711    235.7016   9.7655567757e+01  -6.9941584546e-01    0.1151166   0.06901736  20.22 0.0003714837    1.639    0.390
       210 -11.7030      8.0278    218.5779   1.3128525235e+02   2.9713684737e+01     0.247839    0.1836316  22.65  0.001939343    2.157    0.536
       211 -10.6959      7.5268    215.0229   1.3123123811e+02   3.0367988806e+01    0.2087846   0.09914567  69.05  0.000813877    1.582    0.368
       212  -9.3043    209.6666    211.3192   9.4209082037e+01   2.1994122909e+00    0.1091317   0.09018604  61.24 0.0007048844    1.697    0.411
       213 -10.3151     15.5483    213.2834   1.2981028983e+02   2.9915233952e+01    0.1837474    0.1145198 -49.96  0.001215242    2.813    0.645
       214 -10.3150     20.5500    209.9622   1.2879535233e+02   3.0009784292e+01    0.1887622   0.09641336  56.14 0.0003419725    1.456    0.313
       215  -9.5197    246.7227    207.6586   8.7482422618e+01  -3.2366092152e+00     0.118869   0.07161227  11.53 0.0001752695    1.621    0.383
       216 -10.7119      3.2228    205.1761   1.3157511207e+02   3.2476105911e+01     0.158226    0.1193088  20.57    0.0012295    2.113    0.527
       217  -9.8470    196.4957    203.5909   9.5287715682e+01   5.3575400374e+00    0.3005076    0.1925465  67.37  0.001434333    3.025    0.669
       218 -10.4347      9.7180    203.5481   1.3038534938e+02   3.2183972093e+01    0.1615858   0.09000545  35.06 0.0007449649    1.945    0.486
       219  -9.1333    123.2905    198.3545   1.0835473733e+02   1.8584236076e+01    0.1136972   0.09598885   3.94 0.0003916096    1.679    0.404
       220 -10.3147     23.0440    197.4710   1.2769831505e+02   3.2021021536e+01    0.1740721    0.1241577 -75.64  0.000348417    1.461    0.315
       221 -10.5355     13.8597    193.0710   1.2915156717e+02   3.3719103651e+01     0.165789    0.1008004  69.01 0.0005188041    1.232    0.188
       222  -9.9422      6.2075    191.7794   1.3048811085e+02   3.4648205352e+01    0.1639011     0.100677  68.74  0.001029735    1.193    0.162
       223  -9.6221     15.3810    185.5220   1.2847067479e+02   3.5003922201e+01    0.2137099   0.07031404  84.63 0.0009513462    3.396    0.706
       224 -10.9513      5.3447    167.6004   1.2945875874e+02   3.9380844546e+01    0.2219546    0.1274904  80.23  0.001082131    1.360    0.265
       225  -9.4865    226.4994    164.0092   8.2857649231e+01   5.3218075914e+00    0.1747585    0.1035887  -1.34   0.00050338    2.256    0.557
       226  -9.1240     41.3431    157.7182   1.2103767327e+02   3.8009895394e+01    0.1253658   0.07174155  65.69  0.000393196    1.634    0.388
       227  -9.7597    247.4789    155.4989   7.7661617866e+01   2.6513796901e+00    0.1300922    0.1074784   6.83 7.280221e-05    1.020    0.020
       228 -10.5056      2.9573    153.4893   1.2915922187e+02   4.2427784518e+01    0.1463317   0.09899212  38.80  0.001042471    1.619    0.382
       229 -10.4870     23.8966    150.8492   1.2435965657e+02   4.1220836927e+01    0.1645007    0.1388256 -75.71 0.0005224688    1.256    0.204
       230 -10.2872     22.5111    142.9678   1.2400841005e+02   4.3032783916e+01    0.1768735   0.09394523 -76.62 0.0009699712    1.569    0.363
       231 -10.2562     12.0046    141.3255   1.2632585262e+02   4.4274981331e+01    0.1512957    0.1208547  76.57 0.0005408844    1.091    0.083
       232 -10.7471      8.9157    135.4264   1.2659898845e+02   4.5780537730e+01    0.1941341    0.1204308  87.08 0.0003868673    1.297    0.229
       233 -10.4097    213.4248    134.3965   7.8886852070e+01   1.2137616739e+01     0.441815    0.2554473  67.83  0.001722735    3.087    0.676
       234 -10.3338      2.5388    133.0561   1.2793725485e+02   4.6751950633e+01    0.2541339    0.1178625  51.20  0.001484289    2.032    0.508
       235  -9.7984     35.2373    130.8190   1.1967111618e+02   4.4498649252e+01    0.1598951     0.122983 -59.95 0.0004947223    1.343    0.256
       236 -11.2680     11.1443    129.2487   1.2556098922e+02   4.6950608694e+01    0.3618999    0.1825493  53.54  0.002109159    1.919    0.479
