#   1 NUMBER                 Running object number                                     
#   2 MAG_AUTO               Kron-like elliptical aperture magnitude                    [mag]
#   3 X_IMAGE                Object position along x                                    [pixel]
#   4 Y_IMAGE                Object position along y                                    [pixel]
#   5 X_WORLD                Barycenter position along world x axis                     [deg]
#   6 Y_WORLD                Barycenter position along world y axis                     [deg]
#   7 A_WORLD                Profile RMS along major axis (world units)                 [deg]
#   8 B_WORLD                Profile RMS along minor axis (world units)                 [deg]
#   9 THETA_WORLD            Position angle (CCW/world-x)                               [deg]
#  10 FWHM_WORLD             FWHM assuming a gaussian core                              [deg]
#  11 ELONGATION             A_IMAGE/B_IMAGE                                           
#  12 ELLIPTICITY            1 - B_IMAGE/A_IMAGE                                       
         1  -9.4900      7.2901     15.4551   1.0987107021e+02   6.8826343369e+01    0.1608919    0.1166843 -58.45  0.001170152    1.773    0.436
         2 -10.2563    183.3777     12.1800   5.8848561384e+01   3.7649431786e+01    0.4663675    0.2703329  84.59  0.001682999    1.971    0.493
         3  -8.3798     55.6740     10.2118   8.8438519744e+01   6.4691978263e+01     0.164489    0.1296902 -30.93 0.0006867835    1.416    0.294
         4  -9.1690      6.6662      9.2102   1.0786483394e+02   6.9820332355e+01    0.1891861     0.146641  78.17  0.001136338    3.854    0.741
         5  -7.9927     90.6939      9.2853   7.6813174926e+01   5.9113753419e+01    0.1082252      0.10014 -63.79 0.0002637403    1.565    0.361
         6  -7.8905    101.4648      8.4437   7.3563719913e+01   5.7127230221e+01    0.1250101    0.1110286  23.00  9.98352e-05    1.085    0.079
         7  -8.6267     33.2149      5.3064   9.4951177569e+01   6.8060577925e+01     0.187277    0.1341007 -48.87  0.001228681    2.150    0.535
         8  -8.1719     79.0290      3.9539   7.8049813264e+01   6.1755521116e+01    0.1686089    0.1424484 -44.99 0.0006366383    1.677    0.404
         9  -8.5407     15.9930      3.4764   1.0147147234e+02   6.9944198829e+01    0.1149384   0.08806381  44.98  0.000808015    2.405    0.584
        10  -8.0466     62.4709      1.4640   8.2292403929e+01   6.4704420874e+01    0.1162309   0.09379116   4.83 9.727604e-05    1.060    0.056
        11  -8.7496    232.7370    247.3859   1.0424878584e+02  -9.1282107867e+00    0.1682202    0.1423738 -37.51 0.0005835209    1.618    0.382
        12  -8.8402    132.6745    248.5075   1.2158660108e+02   7.4867731256e+00    0.3425882    0.1623239  67.39  0.001491776    3.336    0.700
        13  -8.8591     94.1081    249.8441   1.2812461783e+02   1.3272012671e+01    0.2487387    0.1206614  69.92  0.001321058    2.341    0.573
        14  -9.6969     68.0075    245.8730   1.3195582804e+02   1.7581111095e+01    0.2911263    0.1441721  79.66  0.001509225    2.182    0.542
        15 -10.9428     51.7606    249.4798   1.3471710668e+02   1.9076246083e+01    0.6257102     0.130144  44.44  0.002845348    3.585    0.721
        16 -10.3236     57.9024    246.2416   1.3355577732e+02   1.8838705337e+01    0.2701148    0.1885376 -80.05  0.002058402    1.415    0.293
        17  -8.9874     50.1709    244.6046   1.3462558217e+02   2.0082109096e+01    0.3280133    0.1305297  83.17  0.001567067    3.432    0.709
        18 -10.0010     10.3088    245.8006   1.4050822693e+02   2.4347872120e+01    0.4470434    0.1657428  79.11  0.002602217    2.549    0.608
        19 -11.2467     21.2267    248.3152   1.3910489542e+02   2.2798292203e+01    0.5037304     0.297206  39.67  0.003705265    2.090    0.521
        20  -8.8603    218.5790    247.7996   1.0671314909e+02  -6.8768541413e+00    0.2396715    0.1123178 -30.39  0.001259878    2.738    0.635
        21 -10.2892    223.8839    243.9884   1.0522887353e+02  -7.3074348312e+00    0.3851118    0.2887777 -42.38  0.002255232    1.800    0.444
        22  -9.4683    145.8786    247.0410   1.1916084245e+02   5.5243123496e+00    0.3667985    0.2152297  35.03  0.002081111    1.811    0.448
        23  -9.3168    211.0004    246.5277   1.0782152655e+02  -5.4695238095e+00     0.181274    0.1667352 -72.62 0.0006533366    1.589    0.371
        24  -9.0521    120.1672    245.5497   1.2338482296e+02   9.9610483530e+00    0.2938032    0.1683833  82.48  0.001456118    2.450    0.592
        25  -9.9015     64.6939    248.6870   1.3268708251e+02   1.7554568688e+01    0.2541269    0.1602916  61.53 0.0008084444    1.176    0.150
        26  -9.0665     76.5638    247.6288   1.3074507095e+02   1.6130170389e+01    0.1825439   0.08240073  47.18 0.0007587904    1.809    0.447
        27  -9.5409     45.7862    244.6765   1.3529623692e+02   2.0605018645e+01    0.1695334    0.1042332  51.21 0.0006487626    1.432    0.302
        28  -8.4793    201.8855    243.4596   1.0894521701e+02  -3.5521451496e+00    0.2005057    0.1577875 -67.04  0.001094071    1.982    0.495
        29  -8.5738    169.1405    243.4688   1.1466929601e+02   2.0832636286e+00    0.1848682     0.146786  67.66 0.0006206363    1.372    0.271
        30  -9.1224     77.9110    243.4788   1.3018524542e+02   1.6630475763e+01    0.2548409    0.1054403  65.05  0.001259644    2.623    0.619
        31  -9.5727    160.3377    240.5802   1.1583469534e+02   4.0174264975e+00    0.3401817    0.2209676 -82.28  0.001674824    2.577    0.612
        32  -9.2199    194.2141    240.1591   1.0980312855e+02  -1.8073139315e+00     0.232977    0.1749213 -62.49   0.00107745    1.965    0.491
        33  -9.6461    182.2156    240.7980   1.1200668315e+02   1.8986889230e-01    0.4687942    0.2807902  43.58  0.001703269    1.321    0.243
        34  -8.2023    153.3658    242.1845   1.1726551848e+02   4.9778283871e+00    0.1459265    0.1106357 -75.82 0.0004621499    1.678    0.404
        35  -8.0161     88.3533    242.2535   1.2837691592e+02   1.5351148547e+01    0.1460817   0.09058034 -86.80 0.0005168645    1.663    0.399
        36  -9.9592     29.4369    241.6827   1.3754950726e+02   2.3004667280e+01    0.2128151     0.121869  60.90   0.00105856    1.307    0.235
        37  -8.0668    146.2936    240.0669   1.1824061233e+02   6.5014334345e+00    0.2315152     0.127477  63.32  0.001167147    2.054    0.513
        38  -9.6653     62.0323    241.0532   1.3252502420e+02   1.9177853071e+01    0.2740958    0.1244718  87.41  0.001454456    2.642    0.621
        39  -8.7413      3.0342    240.0073   1.4124567437e+02   2.6024427364e+01    0.1481664   0.09551156  76.32 0.0004738193    1.011    0.011
        40  -9.1907    135.8931    238.9851   1.1993330173e+02   8.4233173665e+00    0.1945455     0.122536  69.11  0.001114593    1.732    0.423
        41  -8.2953    129.4722    238.9855   1.2105549617e+02   9.4901453079e+00    0.1575771   0.09411231  87.94 0.0007560615    2.484    0.597
        42  -8.6424    125.1442    239.5158   1.2186888230e+02   1.0115702187e+01    0.1839187   0.09581713  46.82  0.001019456    1.552    0.356
        43  -8.3835     83.9809    238.7130   1.2877750769e+02   1.6575556133e+01    0.1597834    0.1132336  57.66 0.0004203785    1.144    0.126
        44  -9.5901     71.5855    238.6304   1.3080131995e+02   1.8318999822e+01    0.2043178     0.162314  64.78 0.0007862793    1.175    0.149
        45 -11.6819     67.1550    233.5110   1.3109676032e+02   1.9799450751e+01     0.579228    0.4081973  71.11  0.003181852    1.077    0.071
        46  -8.5510     52.7410    238.8437   1.3382128837e+02   2.0739022178e+01    0.2031894    0.0909986  63.18 0.0008596741    1.911    0.477
        47  -9.3256    230.9979    237.2171   1.0294576076e+02  -7.6899860810e+00    0.2266154    0.1920779 -79.96   0.00104862    2.128    0.530
        48  -8.3944    209.0083    238.2747   1.0692578023e+02  -4.1148997209e+00     0.148363     0.132595  89.70 0.0005366269    1.627    0.385
        49  -8.0515    189.5330    237.5138   1.1024274815e+02  -6.3811715882e-01    0.1241212   0.09943259  43.47 8.262083e-05    1.051    0.049
        50  -9.6920    246.7829    234.9243   9.9884096779e+01  -9.9871234399e+00    0.4376364    0.1725035  35.51    0.0020854    2.152    0.535
        51  -9.9892    214.8481    233.2437   1.0511835271e+02  -4.4809197063e+00      0.47478    0.3370978 -85.75  0.002279598    3.594    0.722
        52  -9.6776    202.7969    234.7440   1.0747837640e+02  -2.5855389247e+00    0.2636091    0.2132876  54.04  0.001531573    1.320    0.242
        53  -9.7124    175.7556    233.4267   1.1210967441e+02   2.3632422603e+00    0.4087441    0.2346061 -61.34  0.002085712    2.698    0.629
        54  -8.3294    170.3543    236.0827   1.1345143483e+02   2.9300937696e+00    0.1490371    0.1139945 -69.64 0.0005131784    1.751    0.429
        55  -9.2772    108.6807    234.4427   1.2416661766e+02   1.3588183930e+01    0.3243728    0.1777496  65.39   0.00107046    1.821    0.451
        56  -8.7688     94.8460    234.8367   1.2658634666e+02   1.5644348264e+01    0.2093752    0.1212483  78.21 0.0003973016    1.876    0.467
        57  -8.9326     79.0105    234.5889   1.2923121483e+02   1.7986580388e+01    0.2384709     0.132844  77.48  0.001264454    1.826    0.452
        58 -11.1722     34.0379    247.3689   1.3721101112e+02   2.1536538023e+01    0.4495297    0.2481037  52.89  0.003289487    1.469    0.319
        59  -8.4877    132.4172    233.6236   1.1990185255e+02   9.8615632426e+00    0.2055391    0.1170111 -63.64   0.00114091    2.140    0.533
        60  -8.2876    122.8386    234.0328   1.2164506963e+02   1.1383525483e+01     0.194998    0.1196984  79.24 0.0008040111    2.025    0.506
        61  -8.1600     99.4134    234.1973   1.2574089009e+02   1.5063620510e+01    0.1540282   0.09729712 -87.33 0.0008582888    1.716    0.417
        62  -9.4864    235.5892    231.6318   1.0124695739e+02  -7.7905998856e+00    0.3386062    0.2259221   5.86  0.001241098    1.655    0.396
        63  -9.1336    141.1246    230.7583   1.1798716626e+02   8.8457321587e+00    0.5318901    0.2239716  63.65  0.001770713    4.944    0.798
        64  -9.3690    186.5388    230.8350   1.0978972320e+02   8.1829930707e-01    0.2915553    0.2196747  87.53  0.001540535    2.072    0.517
        65  -8.4285      1.6722    231.3003   1.4102587626e+02   2.7622253631e+01    0.1627563    0.0718772  70.46  0.001091501    1.758    0.431
        66  -9.2254    246.4888    229.1781   9.8972022052e+01  -9.2876336536e+00    0.2651719    0.1934758 -25.87  0.001199333    1.524    0.344
        67  -9.8475    149.4922    225.9360   1.1583065534e+02   8.1677937749e+00    0.5770898    0.3309412 -84.70  0.002395698    3.838    0.739
        68  -8.3442    146.0413    226.7672   1.1657381467e+02   8.6390041161e+00    0.1918706    0.1430523  58.35 0.0004774405    1.166    0.142
        69  -7.5030     32.3323    230.3183   1.3640888875e+02   2.4635542559e+01   0.08731136    0.0758881 -68.40 0.0007048125    1.692    0.409
        70  -8.7349    194.4374    232.7598   1.0866260434e+02  -8.5177607452e-01    0.1900645    0.1233836 -46.67 0.0008324082    1.959    0.490
        71  -7.4573    103.3019    229.6707   1.2459333920e+02   1.5241871136e+01    0.1237658   0.07517783  71.33 0.0005090867    1.647    0.393
        72  -8.7983    162.0686    228.1560   1.1383879342e+02   5.5868957331e+00    0.2389398    0.1505857  59.39 0.0009057159    1.595    0.373
        73  -8.7740    128.1286    227.5201   1.1992481281e+02   1.1589395592e+01    0.2659145    0.1648129  70.93  0.001323591    1.811    0.448
        74  -8.4434     48.4525    227.7420   1.3368165456e+02   2.3206881154e+01    0.1768542    0.1674568 -54.90  0.001324894    1.782    0.439
        75  -9.2725    224.8362    222.9970   1.0168129039e+02  -4.8986877646e+00    0.5091162    0.2145537 -24.44  0.001913307    3.690    0.729
        76  -9.0185     94.5878    224.8735   1.2561623552e+02   1.7418029262e+01     0.412011    0.2018838  76.85  0.001855394    3.062    0.673
        77  -9.1020    206.0935    225.7545   1.0547841456e+02  -1.9634363284e+00    0.1910154    0.1709678 -52.08 0.0006946556    1.458    0.314
        78  -8.4772    200.1496    226.2523   1.0662815998e+02  -9.7109280279e-01    0.1653073    0.1381032  60.13 0.0006781883    1.369    0.270
        79  -9.0723    216.7176    223.3020   1.0317437468e+02  -3.5171039342e+00    0.3359874    0.1922274 -44.30  0.001383604    2.227    0.551
        80  -8.6202    219.5273    219.4970   1.0203357866e+02  -3.5077364858e+00    0.3233243    0.1388916  48.85  0.001102847    2.276    0.561
        81  -8.7312    180.5895    224.2723   1.0988018118e+02   2.8437223899e+00    0.2194876    0.1696089  72.72 0.0004380326    1.618    0.382
        82 -10.8386     26.8556    250.1928   1.3840744752e+02   2.1878592959e+01    0.5265677    0.1528127  41.99   0.00285364    3.130    0.681
        83  -8.6818    173.0142    223.1292   1.1110084256e+02   4.3925564240e+00    0.2237649    0.1776235 -73.49 0.0007138561    1.654    0.395
        84  -7.9342    113.7607    224.0696   1.2210498560e+02   1.4554434028e+01    0.1392535   0.09810836 -70.41 0.0004097586    1.543    0.352
        85  -8.8269    104.7151    223.5544   1.2367304187e+02   1.6089917362e+01    0.2676416    0.1535746 -79.51  0.001463132    2.072    0.517
        86  -7.9192     38.2846    224.6439   1.3508867370e+02   2.4965742446e+01    0.1138987   0.05884057  72.94 0.0007020088    1.670    0.401
        87  -9.3790    192.5474    221.5806   1.0726827268e+02   1.0648378249e+00    0.3021215    0.2329901  82.91 0.0009846441    1.947    0.486
        88  -8.2153    140.4723    222.9731   1.1708915504e+02   1.0237015373e+01     0.158603    0.1018692  88.51 0.0004981768    2.254    0.556
        89  -8.2616     26.7133    223.3255   1.3682951132e+02   2.6491515655e+01     0.153333   0.06553541 -64.68 0.0009162302    2.344    0.573
        90  -8.8472    238.9404    221.4469   9.8945964660e+01  -7.1192869220e+00    0.2006948    0.1724489 -46.21 0.0006957697    1.631    0.387
        91  -9.4326    159.3043    220.6762   1.1327932970e+02   7.2656128786e+00    0.4635827    0.2201173  61.19  0.001897268    2.955    0.662
        92 -10.1998    155.7107    219.0571   1.1371500485e+02   8.1784872951e+00    0.3573972    0.2792011 -79.92 0.0003000698    1.574    0.364
        93  -8.7448     73.4160    221.2623   1.2895680374e+02   2.1132956387e+01    0.2597924    0.1197044  75.98  0.001198341    2.947    0.661
        94  -9.0912     82.8144    220.7057   1.2726223188e+02   1.9907383801e+01    0.2730319    0.1316747  67.60  0.001162193    2.292    0.564
        95  -8.5017    202.5404    220.0401   1.0519296929e+02  -5.3194087622e-01    0.1686247    0.1274445 -37.92 0.0008022733    1.570    0.363
        96  -8.7357    133.8024    220.0557   1.1793533840e+02   1.1889672374e+01     0.282821    0.1989733  27.65   0.00158185    1.873    0.466
        97  -8.9736    132.4425    215.4407   1.1757431358e+02   1.2925866103e+01    0.3011667    0.1911808  89.79  0.001143885    2.196    0.545
        98  -9.0858    120.3342    219.1092   1.2030563381e+02   1.4343241664e+01    0.3496804    0.1931558  76.67  0.001601938    2.691    0.628
        99  -8.3544     18.7328    220.6399   1.3790382054e+02   2.7810836286e+01    0.1376951   0.06983054  55.11 0.0005335303    1.617    0.382
       100  -8.7086    248.8988    218.2589   9.6672804213e+01  -8.3928988879e+00    0.2335147    0.1795839  75.40  0.001276141    2.686    0.628
       101  -8.2123    210.0416    219.2661   1.0370218238e+02  -1.7804012789e+00    0.1785988    0.1446389  37.03 0.0004684107    1.055    0.052
       102  -8.1502     98.5442    219.0506   1.2428067287e+02   1.7858020284e+01    0.1581461    0.1100419 -73.28 0.0004038346    1.479    0.324
       103  -7.6278      1.4912    219.4450   1.4045911139e+02   2.9698250245e+01    0.1003269   0.06688007  78.66 0.0001357762    1.012    0.011
       104  -8.9520     51.5188    217.3885   1.3235953841e+02   2.4708026648e+01     0.256253    0.1368442  84.53 0.0008839378    1.793    0.442
       105  -7.8971    179.2874    217.6419   1.0909634054e+02   4.0889546266e+00    0.1254244   0.09656623  76.24 0.0005135526    1.681    0.405
       106  -8.8338    169.3807    216.3853   1.1075484933e+02   6.1149325500e+00    0.2641401    0.1785636  78.86 0.0007812094    2.256    0.557
       107  -7.8010    164.6852    217.2809   1.1177221519e+02   6.8342149049e+00    0.1274271   0.09155991  67.73 0.0003054081    1.574    0.365
       108  -8.6221    142.8174    216.5053   1.1576967053e+02   1.0917627508e+01    0.2342978     0.159633 -82.30 0.0009363119    1.942    0.485
       109  -8.9611    108.0310    217.0076   1.2231613392e+02   1.6733456274e+01    0.1834356     0.147482  66.32 0.0003597359    1.008    0.008
       110 -10.0453     72.8545    211.7193   1.2813203734e+02   2.2979116171e+01     0.574238     0.225025  64.82  0.002361289    3.495    0.714
       111  -8.3908     68.6963    212.2927   1.2892961998e+02   2.3439070845e+01    0.1758709    0.1298763  72.09 0.0003507745    1.074    0.069
       112  -8.2291     61.8067    217.0584   1.3057673989e+02   2.3464000167e+01    0.1887681   0.09870464  77.97 0.0007477821    1.975    0.494
       113  -8.6759     12.6735    215.8470   1.3855572033e+02   2.9279941534e+01    0.1486044    0.1160965  67.21 0.0004514079    1.274    0.215
       114  -8.8125    232.0732    214.8320   9.8994980626e+01  -5.1012998288e+00    0.2049179    0.1765918 -18.49 0.0008663122    1.277    0.217
       115  -8.5545    185.8244    214.7177   1.0741022466e+02   3.3277194054e+00    0.2187122    0.1666315 -87.53 0.0009507373    1.994    0.498
       116  -8.7297     86.8901    215.2008   1.2596668181e+02   2.0323612524e+01    0.1880649    0.1308368  69.72 0.0005245924    1.227    0.185
       117  -8.6038     93.0431    214.1720   1.2473736509e+02   1.9593894319e+01    0.2321274    0.1319826  63.46 0.0008966374    1.647    0.393
       118  -8.6399     33.3636    214.0895   1.3512916625e+02   2.7443719679e+01    0.1582739    0.1279173  63.87 0.0005673395    1.288    0.224
       119  -8.0467    224.9214    212.9290   9.9933214299e+01  -3.5851327157e+00    0.1777948    0.1554363  76.14 0.0009504409    1.660    0.397
       120  -9.4623    213.8206    212.2197   1.0181594435e+02  -1.4815666786e+00    0.3044523    0.2656654  70.49  0.001357822    1.509    0.337
       121  -8.7583    161.6815    212.5277   1.1161852488e+02   8.1656596270e+00    0.2031138     0.154669 -89.51 0.0008064373    1.705    0.413
       122  -9.0138    204.4293    210.9413   1.0331945535e+02   4.3221586173e-01     0.263009    0.2130983 -78.29 0.0008668933    1.879    0.468
       123  -7.8336    106.3340    212.6846   1.2211245798e+02   1.7794455798e+01    0.1314323   0.08107406  71.06 0.0006221618    1.689    0.408
       124  -7.8481     44.6558    212.2836   1.3310415631e+02   2.6486141057e+01    0.1170028   0.06276798  68.92 0.0003508882    1.641    0.390
       125  -8.2467    192.5459    210.7899   1.0550535457e+02   2.6733609753e+00    0.1645268    0.1268563 -60.48 0.0009376488    1.720    0.419
       126  -9.3964    175.5758    210.1695   1.0860620004e+02   5.9606201765e+00    0.3752117    0.2473687  72.77  0.001455749    2.246    0.555
       127  -8.9642    147.6694    210.8405   1.1403758970e+02   1.1020956076e+01    0.2954209    0.2321386  56.11  0.001393569    1.101    0.092
       128  -8.9266    116.2435    210.5929   1.1999098710e+02   1.6557592411e+01    0.2782882    0.1729994  73.11  0.001066345    1.812    0.448
       129  -8.4409      3.4777    211.7010   1.3974136028e+02   3.0900081810e+01    0.1458706   0.07903402  43.02 0.0007270148    1.932    0.483
       130  -8.0905     97.9912    210.0187   1.2334954621e+02   1.9607829128e+01    0.1765248    0.1212723  71.52 0.0004112694    1.344    0.256
       131  -9.1909     99.6374    206.3945   1.2260792805e+02   2.0033536391e+01     0.383445    0.2146344  81.25  0.001437856    2.368    0.578
       132  -9.5790     85.3652    209.6734   1.2564799606e+02   2.1582689754e+01    0.2624044    0.1561903  73.67  0.001324182    1.705    0.414
       133  -8.0061     32.3155    210.6398   1.3504984277e+02   2.8199851179e+01    0.1178994   0.05976638  72.25 0.0007042872    1.756    0.430
       134  -8.9374    236.4311    208.5348   9.7100567344e+01  -5.0378604035e+00    0.2282077    0.2139102 -70.48 0.0008050756    1.558    0.358
       135  -8.8883      5.7698    208.3625   1.3919411526e+02   3.1296749072e+01    0.2231036   0.07218426  76.32 0.0009550463    4.121    0.757
       136  -9.3133    246.2775    207.4898   9.5186893272e+01  -6.6112786059e+00    0.2226141    0.1893643   3.19 0.0005586625    1.104    0.094
       137  -7.8045    156.6623    208.3057   1.1193082362e+02   9.8071723348e+00    0.1347153   0.09463933  71.00 0.0007040802    1.675    0.403
       138  -8.3769    139.1470    208.1297   1.1527809193e+02   1.3035216743e+01    0.2131683    0.1438801  73.48 0.0006373238    1.729    0.421
       139  -8.4297    135.5788    208.5123   1.1601945436e+02   1.3603297373e+01    0.2202459    0.1124067  45.07 0.0004927366    1.709    0.415
       140  -7.9072    126.4615    208.5141   1.1776954194e+02   1.5201234770e+01    0.1312812    0.1068551  65.75 0.0008082326    1.072    0.067
       141  -9.8392     79.0696    206.2489   1.2643594419e+02   2.3146599554e+01    0.2962584    0.1544987  47.87  0.001045945    1.711    0.415
       142  -9.6072     12.0682    203.0390   1.3785938479e+02   3.1691796676e+01    0.2399703    0.1298009  51.59  0.001101668    1.670    0.401
       143  -8.2839     56.3885    205.4014   1.3046746441e+02   2.6357860277e+01    0.2313862     0.114918  71.91  0.001012365    2.117    0.528
       144  -9.4208    194.9522    203.9426   1.0388228445e+02   3.2751885325e+00    0.3222649    0.2508896  81.72  0.001324404    1.868    0.465
       145  -9.7353    192.5768    197.4469   1.0318961736e+02   4.7633846897e+00    0.4503807    0.3188068 -79.28  0.001783852    2.477    0.596
       146  -8.8916    184.1641    204.3361   1.0600264229e+02   5.2735989620e+00    0.2761666    0.1967653  73.57 0.0009502852    1.971    0.493
       147  -8.6032    131.4715    204.4275   1.1623082760e+02   1.5071700481e+01    0.2872581    0.1711092  74.60  0.001089967    2.320    0.569
       148  -8.2567    109.1969    205.2478   1.2064490663e+02   1.8716724552e+01    0.1827065   0.09299962 -71.59 0.0004546955    2.407    0.585
       149  -7.7849     92.3185    205.6257   1.2389700848e+02   2.1312119986e+01    0.1336498   0.07964659  74.49 0.0007030915    1.804    0.446
       150  -8.5477     88.8184    205.3609   1.2452372515e+02   2.1891243054e+01    0.1615829     0.107216  38.21 0.0004003147    1.700    0.412
       151  -9.6204    163.8830    203.1084   1.0971291262e+02   9.3449917009e+00    0.4296085    0.2431696  62.27  0.001131105    2.182    0.542
       152  -9.5164    250.0517    202.0304   9.3523049490e+01  -6.5547617345e+00     0.330524     0.180131 -30.30   0.00120124    1.909    0.476
       153  -8.6093    211.0921    202.1896   1.0054397338e+02   4.7849651079e-01      0.22221    0.1745603 -74.59 0.0006528256    2.028    0.507
       154  -8.8407    140.6933    201.6428   1.1401924308e+02   1.3924755837e+01    0.3608031    0.2113771  76.78  0.001537728    2.805    0.644
       155  -9.1016    243.0997    200.9781   9.4535254356e+01  -5.2068839281e+00     0.281864    0.1968383 -40.46  0.001103779    1.711    0.416
       156  -8.9747     79.8726    201.5875   1.2577627788e+02   2.3932023874e+01    0.2927379    0.1584444  72.41  0.001506652    2.063    0.515
       157  -8.4249     48.0131    201.9908   1.3164881169e+02   2.8044337220e+01    0.2062253   0.09414561  83.95 0.0008193491    2.613    0.617
       158  -9.3733    149.5286    198.8258   1.1184237669e+02   1.2804564242e+01    0.3795548    0.2446397  83.94  0.001282139    2.423    0.587
       159  -8.7731    124.0660    199.4739   1.1697156664e+02   1.7294503677e+01    0.2739794    0.1811775  83.96  0.001415376    1.872    0.466
       160  -9.1797    112.7269    198.4540   1.1906036966e+02   1.9426853508e+01    0.4108935    0.2306947  77.80  0.001798083    2.617    0.618
       161  -9.1928     88.7495    198.7454   1.2376100895e+02   2.3183006263e+01    0.3312639    0.1903069  86.48  0.001503003    2.093    0.522
       162  -9.0531    236.8826    198.4749   9.5163615101e+01  -3.7586885364e+00    0.2639269    0.1841014 -43.02  0.001109804    1.748    0.428
       163  -8.5163    176.9866    199.1528   1.0650320064e+02   7.5074230442e+00    0.2042802    0.1707942  68.26 0.0006175118    1.310    0.237
       164  -8.4644    202.1954    198.1740   1.0148641395e+02   2.7864004497e+00    0.1748187    0.1566961  70.74 0.0005394687    1.344    0.256
       165  -8.2550    104.5414    198.5280   1.2067390394e+02   2.0760079178e+01    0.1272845    0.1078028  71.21 0.0001119032    1.019    0.018
       166  -9.1822     61.6014    197.3520   1.2873894827e+02   2.7257426777e+01    0.3559757    0.1767961  73.32   0.00163741    2.318    0.569
       167  -9.0952    216.2859    205.8509   1.0024334333e+02  -1.0275648243e+00    0.3014796    0.1872029  17.20 0.0007713739    2.018    0.504
       168  -8.4125     12.6331    197.4250   1.3739666636e+02   3.2695169954e+01    0.2666422   0.09701072  88.69  0.001299702    2.936    0.659
       169  -8.3567     53.0071    196.9830   1.3028660261e+02   2.8414835592e+01    0.1533874    0.1275028 -50.43 0.0009141782    1.704    0.413
       170  -8.5955    215.8170    195.8411   9.8501940318e+01   5.3279227173e-01    0.2176221    0.1842179 -63.14 0.0007885429    1.613    0.380
       171  -8.3206    133.1279    196.1929   1.1469240853e+02   1.6306678374e+01    0.1874583    0.1434769  79.36 0.0006828679    1.391    0.281
       172  -8.6894    224.6148    194.2852   9.6587052408e+01  -9.0137167977e-01    0.2683885    0.1928693 -53.25  0.001215614    1.911    0.477
       173  -8.9907    185.1781    194.8837   1.0416258773e+02   6.6278371952e+00    0.2331861    0.2122683  81.17 0.0006993834    1.274    0.215
       174  -8.9894    160.9645    194.4429   1.0885701871e+02   1.1421069789e+01    0.2417096    0.1888506 -81.93 0.0008116499    1.595    0.373
       175  -9.6400    245.5485    193.5051   9.2688988878e+01  -4.6311158588e+00    0.2206874    0.2113647 -71.14 0.0007071518    1.481    0.325
       176  -8.6950     76.9722    193.8701   1.2545389470e+02   2.5865531263e+01    0.2073786    0.1514565 -83.31 0.0006275281    1.239    0.193
       177  -8.8741     43.6458    193.4324   1.3166475207e+02   3.0229806928e+01     0.320495     0.147971  73.77  0.001610745    2.482    0.597
       178  -8.8217      5.9396    193.0519   1.3822504323e+02   3.4136784714e+01    0.2772879    0.1221285 -69.83   0.00153449    1.885    0.469
       179  -8.1478    230.6334    194.2319   9.5482005762e+01  -2.0177954644e+00    0.1725659     0.119475 -19.81   0.00057602    1.563    0.360
       180  -8.7115    198.4720    192.2171   1.0110655257e+02   4.4564497706e+00    0.3090118    0.1837553  37.75  0.001465216    1.549    0.354
       181  -8.6672    179.1343    191.6744   1.0477386280e+02   8.3596000634e+00    0.2188017    0.1872836 -65.09 0.0006458038    1.385    0.278
       182  -8.5485    172.4529    192.0270   1.0615791372e+02   9.6133057072e+00    0.2517697    0.1773153  59.26 0.0008533294    1.468    0.319
       183  -8.2415    117.3883    191.9194   1.1721287750e+02   1.9903514873e+01    0.1764008    0.1602332  82.47 0.0005614167    1.093    0.085
       184  -9.1216    139.4214    190.5306   1.1254424413e+02   1.6226214721e+01    0.3178973    0.2154499  74.97  0.001136536    1.804    0.446
       185 -10.3158     92.0497    188.8136   1.2187263805e+02   2.4654695505e+01    0.8414063    0.2525443  53.13  0.002961125    3.851    0.740
       186  -8.2538     16.8255    190.9015   1.3622559543e+02   3.3547935454e+01    0.1512958    0.0936664  72.63 0.0006703621    1.320    0.242
       187  -8.5572    148.6577    189.6660   1.1053010049e+02   1.4652900884e+01    0.2494353    0.1591144 -77.78 0.0008389895    2.333    0.571
       188  -8.2849    237.1439    188.6136   9.3229294499e+01  -2.4180799414e+00    0.2070167    0.1721034 -35.34 0.0005657408    1.357    0.263
       189  -9.1618    164.9265    187.2642   1.0682480402e+02   1.1942323273e+01    0.4181664     0.208516 -53.01  0.001806352    2.365    0.577
       190  -9.3116    155.9880    187.4501   1.0866729980e+02   1.3656461996e+01    0.3378086    0.2168759 -66.01  0.001012484    2.003    0.501
       191  -8.9209    129.1772    188.6251   1.1432664824e+02   1.8468127884e+01     0.274403    0.1907501  84.80 0.0009354276    1.751    0.429
       192  -9.7239    120.8733    186.8607   1.1575251178e+02   2.0292706524e+01    0.5171133    0.2765997 -76.41  0.002150302    2.868    0.651
       193  -8.5621     34.3181    188.4940   1.3292382354e+02   3.2246823666e+01    0.2342694    0.1260461  79.13 0.0009029831    1.757    0.431
       194  -9.0088    216.5207    188.0229   9.6889627859e+01   1.5891346496e+00    0.2512092    0.1834006  57.82 0.0009073358    1.591    0.371
       195  -9.1713    190.9900    187.8012   1.0173719038e+02   6.6655564284e+00     0.363867    0.2448761  44.94  0.001349668    1.334    0.250
       196  -9.0287     54.8211    187.1577   1.2896959689e+02   3.0149536228e+01     0.353814    0.1691096  75.84  0.001674628    2.646    0.622
       197  -8.4341     49.3579    187.9354   1.3008442853e+02   3.0655107727e+01    0.2250591      0.12735  53.77 0.0009447261    1.625    0.385
       198  -8.0475    230.4780    187.5164   9.4217142877e+01  -1.0110868391e+00    0.1332939     0.118803  22.15  0.000679084    1.049    0.046
       199  -9.0784    109.3979    186.0551   1.1798212601e+02   2.2422682336e+01    0.3208258    0.1953713  88.70  0.001077103    2.193    0.544
       200  -9.4482     28.1159    186.9727   1.3391950340e+02   3.3199762935e+01    0.2321233    0.1397312  46.55 0.0005395049    1.678    0.404
       201  -8.5314    249.3116    185.7563   9.0523993502e+01  -4.2367346642e+00    0.2206963    0.1940515 -55.23 0.0009973432    1.578    0.366
       202  -9.0626    182.7931    185.0833   1.0284749281e+02   8.7714642720e+00    0.3049313    0.1944441 -46.47 0.0009427795    1.759    0.432
       203  -9.0471    210.2001    184.4414   9.7389332489e+01   3.3923911752e+00    0.2281878    0.1875673 -30.84 0.0005189236    1.311    0.238
       204  -9.1536    202.8207    184.7368   9.8859067700e+01   4.8123045519e+00    0.2414666    0.1816499 -72.58 0.0009457569    2.036    0.509
       205  -9.4168     66.4094    184.5113   1.2643461601e+02   2.9203954546e+01    0.3063037    0.1756367  76.08  0.001094337    1.875    0.467
       206  -8.5075    224.0276    183.5273   9.4617457873e+01   8.2341919546e-01    0.2003144    0.1763149 -20.86 0.0005308465    1.187    0.158
       207  -8.4876    196.9626    183.7807   9.9811023871e+01   6.1441930587e+00    0.2224835    0.1579293  70.05 0.0007454755    1.952    0.488
       208  -9.1963    174.3070    183.6485   1.0428023934e+02   1.0728840801e+01    0.2782283    0.2166763  85.20 0.0009638472    1.687    0.407
       209  -8.8671    240.8188    181.2895   9.1128820626e+01  -2.0429400447e+00    0.3593768    0.2118878 -55.08  0.001564891    2.916    0.657
       210  -9.0074     44.4552    182.6418   1.3048976622e+02   3.2296379620e+01     0.283792    0.1460429  67.63  0.001127044    1.987    0.497
       211  -7.8751      1.8249    183.6148   1.3830208561e+02   3.6297370204e+01    0.1386453   0.07343277  54.45 0.0009450644    1.738    0.424
       212  -9.2142    147.6025    180.7163   1.0922239011e+02   1.6554473407e+01     0.343017    0.2347124  78.97  0.001177111    1.958    0.489
       213  -7.8349    134.5744    182.4832   1.1222939412e+02   1.8680494779e+01     0.134219    0.1243542  59.31  8.54181e-05    1.082    0.075
       214  -9.2114     26.3414    180.6432   1.3370656320e+02   3.4639386861e+01    0.2287599    0.1180256  66.94  0.001357196    1.855    0.461
       215  -9.5143     24.4843    176.9951   1.3373580155e+02   3.5555378501e+01    0.3374049    0.1498219  86.48  0.001730314    2.414    0.586
       216  -8.6721    137.8337    179.7034   1.1108429349e+02   1.8617363381e+01    0.2581456    0.1734661 -89.36  0.001165903    2.066    0.516
       217  -9.6074    191.6003    178.4904   9.9843532941e+01   8.1317800073e+00     0.316515    0.2369963  65.69 0.0008543567    1.593    0.372
       218  -9.0803    143.2914    184.1564   1.1070456307e+02   1.6718114585e+01    0.2650925    0.1813343  45.68 0.0005072185    1.341    0.254
       219  -9.3006     35.4779    176.2772   1.3158666113e+02   3.4581391679e+01    0.5158954     0.200581  81.75  0.001806457    5.182    0.807
       220  -9.6045    248.3432    176.6246   8.8866295803e+01  -2.7661908000e+00    0.4211501    0.2779486 -50.35  0.002002697    2.066    0.516
       221  -8.7350    250.5227    172.9316   8.7735749975e+01  -2.6356959401e+00    0.2110836    0.1811978  15.09 0.0004420799    1.043    0.041
       222  -8.4968    205.3262    177.9073   9.7041357137e+01   5.4346869607e+00    0.2544205    0.1247572 -47.20 0.0008896494    2.420    0.587
       223  -8.5256    231.1951    177.0005   9.1997938050e+01   4.3097813705e-01    0.1909582    0.1847424 -57.89 0.0005938469    1.292    0.226
       224  -8.2959    217.6179    177.3646   9.4587325435e+01   3.0486513959e+00    0.1915847    0.1660021  87.84 0.0007014059    1.584    0.369
       225  -9.3296    183.0391    176.2820   1.0112602902e+02   1.0274489632e+01    0.2445633    0.2086831 -61.14 0.0005393532    1.355    0.262
       226  -8.3972    128.9837    177.0395   1.1249587050e+02   2.0795173704e+01    0.2224795    0.1563744  80.63 0.0006417723    1.712    0.416
       227  -8.7103     89.1569    177.0822   1.2088418991e+02   2.7500412251e+01    0.2461291    0.1397632  66.54 0.0007824231    1.988    0.497
       228  -9.9755     57.0974    173.0475   1.2696982940e+02   3.2768054552e+01    0.7246677    0.3128199  85.16  0.002472903    4.989    0.800
       229  -8.7404     13.1200    176.9199   1.3582416118e+02   3.6632318792e+01    0.2384988    0.1078499  69.64  0.001333042    2.243    0.554
       230  -9.2258    158.7620    175.1719   1.0590034143e+02   1.5420873495e+01    0.3649018    0.2523702  82.77  0.001067855    2.104    0.525
       231  -9.1048    104.0955    174.7089   1.1739770577e+02   2.5623510632e+01    0.4793128    0.2463239  67.46  0.001698793    2.812    0.644
       232 -10.6143     75.8330    170.2836   1.2274486594e+02   3.0877035372e+01     1.070943    0.3828188 -74.33  0.003430161    4.909    0.796
       233  -8.3367    224.4034    174.2032   9.2678867367e+01   2.1992559674e+00    0.1849065    0.1289643 -45.82 0.0006088248    1.660    0.397
       234  -9.7091    175.9119    172.1446   1.0177054632e+02   1.2494611147e+01    0.3800848     0.280678 -51.59 0.0009833777    1.503    0.335
       235  -8.4030    143.0186    173.0026   1.0881976055e+02   1.8951203322e+01    0.2238935    0.1644695  82.12 0.0006692817    1.669    0.401
       236  -8.8635    194.7868    172.3678   9.8000502097e+01   8.5408476178e+00     0.213254    0.1228893  37.74  0.000950352    1.696    0.411
       237  -8.4400    134.8417    172.0583   1.1039545646e+02   2.0706569392e+01    0.2245087    0.1784847  79.20  0.001213997    1.346    0.257
       238  -9.4687    121.2530    170.4926   1.1304589342e+02   2.3535791890e+01    0.3438781    0.2435144 -82.39  0.000939699    1.638    0.389
       239  -8.9621     45.1677    170.9912   1.2914484721e+02   3.4609195524e+01    0.3533499    0.1661865  89.25  0.001446997    2.587    0.613
       240  -8.9860    230.5196    170.3650   9.0763832673e+01   1.5892636984e+00    0.2282007    0.1954169 -50.08 0.0006857464    1.408    0.290
       241  -8.4606    205.8195    170.4703   9.5447146940e+01   6.5823586177e+00    0.2617871    0.1819001 -55.95 0.0007838463    1.843    0.457
       242  -8.4112    237.1090    169.7054   8.9433450962e+01   3.9702355637e-01     0.219665    0.1826717 -39.93 0.0006596423    1.337    0.252
       243  -8.3651    198.4707    170.3393   9.6860768748e+01   8.1290347541e+00    0.2354548    0.1692915  64.80 0.0007880182    1.705    0.413
       244  -9.1758    167.1271    168.7866   1.0293502735e+02   1.4938092444e+01    0.3293094    0.2471895  80.05 0.0009701001    1.729    0.422
       245  -8.4208    149.9252    169.9319   1.0678798238e+02   1.8203381937e+01    0.2261177    0.1675169  80.43 0.0006657205    1.673    0.402
       246  -9.1842    111.2970    168.1032   1.1480367062e+02   2.5787144184e+01    0.3546516    0.2505904 -60.24  0.001918223    1.418    0.295
       247  -8.7916     39.2471    170.1145   1.3023342168e+02   3.5445522766e+01    0.2015415    0.1462841  42.25 0.0009397741    1.568    0.362
       248  -9.3137     19.2550    170.2690   1.3413496903e+02   3.7410091219e+01     0.217845    0.1290208  30.90   0.00107429    2.217    0.549
       249  -9.2093     20.8063    166.4742   1.3349947441e+02   3.8039243664e+01    0.3279354      0.13825  65.33  0.001627444    2.761    0.638
       250  -8.2737    244.4467    168.9716   8.7978041225e+01  -9.0808950567e-01    0.1975913    0.1272616 -31.92 0.0004403363    1.551    0.355
       251  -8.0949    218.8227    168.3983   9.2528570570e+01   4.2555242290e+00    0.1779864    0.1762075 -17.64 0.0004698233    1.154    0.134
       252  -9.0445    185.1432    166.8726   9.8829846448e+01   1.1536703208e+01    0.2853805    0.1964694 -57.32 0.0008774356    1.768    0.434
       253  -7.8511     88.3781    168.6743   1.1984953726e+02   2.9384938732e+01    0.1422043   0.08893415  73.92 0.0007023438    1.836    0.455
       254  -8.9817    191.8111    166.7400   9.7453017879e+01   1.0157344161e+01    0.2658555    0.1975441 -54.78 0.0005844607    1.576    0.366
       255 -10.0123     95.1658    163.2578   1.1755087439e+02   2.9484855281e+01    0.7312189    0.3788547  79.74  0.002519869    4.190    0.761
       256  -9.8138    136.7218    164.5207   1.0862843904e+02   2.1879518922e+01    0.5648614    0.2950484  64.33  0.002132268    2.815    0.645
       257  -8.4432    233.9084    165.1407   8.9057404978e+01   1.7353970909e+00    0.1963951    0.1896057 -58.27 0.0005608491    1.263    0.208
       258  -8.6083    159.2738    164.3345   1.0372115464e+02   1.7415052739e+01    0.2315475    0.2043191 -65.48 0.0006307667    1.214    0.177
       259  -9.5230     33.0963    163.4745   1.3077577276e+02   3.7469480591e+01    0.4044924    0.2030585  60.57   0.00225333    2.079    0.519
       260  -8.1702    240.0141    164.2909   8.7783056701e+01   6.6153027141e-01    0.1876023    0.1707203  27.18  0.000546498    1.093    0.085
       261  -8.6896    212.9417    163.6608   9.2656017492e+01   6.2559686866e+00    0.2630576    0.2033738 -44.03 0.0006379621    1.413    0.292
       262  -9.6449    246.0431    163.0331   8.6456354150e+01  -3.1945086930e-01    0.2028824    0.1906926  -2.06 0.0005240628    1.105    0.095
       263  -8.5536    204.8530    163.0205   9.4089455841e+01   8.0624383034e+00    0.2082908    0.1950439 -86.72 0.0005189131    1.260    0.207
       264  -9.4490      3.2986    162.3927   1.3650032224e+02   4.0355428872e+01    0.3296419    0.1428593  65.17  0.001844772    2.430    0.589
       265  -9.0262    177.4047    160.5601   9.9129396792e+01   1.4345932369e+01    0.2871145    0.2365874 -80.17 0.0007518229    1.501    0.334
       266  -8.6177    151.8276    161.1509   1.0469629082e+02   1.9567936284e+01    0.2275421    0.1882464  81.79 0.0007764974    1.348    0.258
       267  -8.6018    227.3813    159.0097   8.8947791830e+01   4.0361320872e+00      0.27759    0.2040932 -53.40 0.0009542038    1.689    0.408
       268  -8.5257     60.3101    160.1144   1.2469851660e+02   3.5105467765e+01    0.2370526    0.1306294  66.03  0.001204318    2.072    0.517
       269  -9.3656    248.7570    149.4834   8.3082467944e+01   1.2309085668e+00    0.3279022    0.1847726 -32.01  0.000813944    1.727    0.421
       270 -10.0092    250.1742    157.9509   8.4664255664e+01  -3.4632177413e-01    0.3589064    0.1892273 -33.94 0.0007288597    1.850    0.460
       271  -8.2477    249.3051    153.6649   8.3894567257e+01   4.7689296205e-01    0.2001523     0.137849  48.22 0.0003385108    1.521    0.343
       272  -8.1220    236.9945    158.9865   8.7195718201e+01   2.0880709722e+00    0.1699585    0.1522031 -10.46 0.0005597763    1.073    0.068
       273  -8.2405    127.9889    159.0145   1.0953165390e+02   2.4684251350e+01      0.22111    0.1631552  82.24 0.0004505333    1.607    0.378
       274  -9.7913    105.6399    158.0060   1.1435663242e+02   2.8894958594e+01    0.4325458    0.2913019 -88.31   0.00134679    1.808    0.447
       275  -8.4675    196.7973    158.0691   9.4635645464e+01   1.0652399577e+01    0.2214134    0.1987378 -89.49 0.0007608244    1.329    0.247
       276  -8.7719    187.9465    157.9368   9.6400430542e+01   1.2579816687e+01    0.2573213    0.2033783 -49.66 0.0007056434    1.379    0.275
       277  -9.0655    167.5550    157.1816   1.0050713681e+02   1.7085791682e+01    0.3117262    0.2353155 -80.59 0.0008047954    1.768    0.434
       278  -8.6607     79.0686    158.4999   1.2037360773e+02   3.2937610147e+01     0.186821    0.1237283  42.27  0.001031898    1.590    0.371
       279  -8.3926    218.0136    156.7448   9.0211246448e+01   6.3609183569e+00    0.2769408    0.1933424 -50.81 0.0008395904    1.690    0.408
       280  -9.9205    216.5462    151.6628   8.9381604359e+01   7.5367651115e+00    0.4294644    0.2841997  65.56  0.001518836    2.023    0.506
       281  -8.6163    157.6934    156.3564   1.0246083227e+02   1.9320289241e+01    0.2561768    0.1786899 -61.33 0.0007687808    1.650    0.394
       282  -9.3558    119.5187    155.3851   1.1075952688e+02   2.7018757788e+01    0.4406021    0.2729154 -83.34  0.001573027    2.401    0.584
       283  -8.8789     41.9925    156.9885   1.2822022632e+02   3.7904285247e+01    0.1788337    0.1459318 -86.51  0.000458224    1.029    0.028
       284  -9.1812     81.7117    154.8737   1.1923048005e+02   3.3340997301e+01    0.3935128    0.2125116  72.40    0.0016041    2.775    0.640
       285  -9.0968     49.5188    155.1993   1.2639342090e+02   3.7450575603e+01    0.3285442    0.1748842  79.24  0.001501797    2.374    0.579
       286  -9.5377    241.6320    154.2934   8.5362468842e+01   1.8984839579e+00    0.3742394    0.2363105  70.38  0.001566452    2.824    0.646
       287  -8.3084    144.7230    154.9524   1.0502403321e+02   2.2263794497e+01    0.2332935    0.1652105 -87.60  0.001008582    1.947    0.486
       288  -9.6544    132.8259    153.0218   1.0730295948e+02   2.5017158231e+01    0.4481542    0.3101103 -85.38  0.001344719    1.952    0.488
       289  -9.0280    133.4888    148.4768   1.0624937181e+02   2.5844024227e+01     0.313287    0.1805689 -47.33  0.001056152    1.790    0.441
       290  -9.5153     68.0359    153.8610   1.2214370483e+02   3.5460386354e+01    0.3773676    0.2165241  75.23  0.001397351    2.229    0.551
       291  -7.8970    232.6846    154.3043   8.6962171366e+01   3.7113392219e+00    0.1340041    0.1141987 -79.47 0.0003200753    1.622    0.383
       292  -8.1048    151.5881    152.7452   1.0305680431e+02   2.1313990899e+01    0.2018486    0.1390611 -61.26 0.0009395964    1.644    0.392
       293  -9.2874     20.0117    152.9560   1.3236650597e+02   4.0899811083e+01    0.1770305    0.1066544  74.21  0.000501302    1.616    0.381
       294  -8.3397    182.4711    151.4777   9.6145251702e+01   1.4973673762e+01    0.2520526    0.1387529 -53.99 0.0007042215    2.225    0.550
       295  -9.8406     29.3268    150.5732   1.3017011942e+02   4.0547340263e+01    0.4364982    0.1980103  75.54   0.00196214    3.181    0.686
       296  -8.4484    243.3583    150.2509   8.4181653235e+01   2.1888677386e+00    0.2401398    0.1647736 -40.82 0.0007693051    1.511    0.338
       297  -8.9029    189.4955    150.3467   9.4444898073e+01   1.3650416813e+01    0.2935039    0.2224254 -77.36 0.0007540956    1.853    0.460
       298  -8.7877     98.2795    150.8283   1.1478868149e+02   3.1666159054e+01    0.2628877    0.1886392  87.55  0.001074888    1.577    0.366
       299  -7.8430    204.6975    155.3340   9.2477591553e+01   9.4410092744e+00    0.1434854    0.1174487 -83.51 0.0007036331    1.659    0.397
       300 -10.0212     39.6565    147.5008   1.2757884118e+02   4.0175064513e+01    0.5447907    0.2672588  86.51  0.002282221    2.693    0.629
       301  -8.2741    198.9675    149.0503   9.2238021012e+01   1.1811095353e+01    0.2208775    0.1808357 -83.32 0.0004963888    1.613    0.380
       302 -10.0179     89.1520    146.3468   1.1612747996e+02   3.4087952283e+01    0.6323239    0.3515355  88.85  0.002468968    3.183    0.686
       303  -8.8351    233.5223    147.4921   8.5316860640e+01   4.6472460720e+00    0.2337123    0.1344981 -23.09 0.0006623879    2.000    0.500
       304  -7.8077    228.6945    148.7081   8.6461734618e+01   5.4574729276e+00    0.1449538    0.1071669  12.42 0.0003004058    1.576    0.366
       305  -8.9761     78.3415    147.2922   1.1879729738e+02   3.5479697545e+01    0.2877111    0.1634048  70.59  0.001006432    2.411    0.585
       306 -10.5379     54.9831    144.8049   1.2378864261e+02   3.9060663044e+01     0.713486     0.357185  78.34  0.002931207    3.383    0.704
       307 -10.0731    148.9675    145.0580   1.0202990554e+02   2.3430871403e+01    0.5300531    0.3537692  88.74  0.001802734    2.442    0.591
       308  -9.4766    139.0605    145.1504   1.0429549747e+02   2.5438318919e+01    0.4268554    0.2616703 -66.62  0.001111082    2.088    0.521
       309 -10.2446    106.6837    144.3563   1.1165780043e+02   3.1668815664e+01    0.6794634    0.4091369  85.57  0.002469866    2.823    0.646
       310  -8.9459      3.1289    151.2278   1.3561322622e+02   4.2624279423e+01     0.220352    0.1001117 -85.67  0.001236232    1.884    0.469
       311  -9.5673     13.2647    146.2219   1.3309014914e+02   4.2868505863e+01    0.3352121    0.1519315  64.73  0.001415588    2.625    0.619
       312  -8.7716    240.4156    145.4968   8.3650948182e+01   3.5444083664e+00    0.2352466    0.1903821 -21.14 9.826311e-05    1.209    0.173
       313  -7.8698    206.5696    146.4894   9.0160672070e+01   1.0603208239e+01     0.145269    0.1404552  22.93 0.0002339358    1.025    0.025
       314  -8.2381    175.6771    146.3327   9.6450987230e+01   1.7446346363e+01    0.2264955    0.1751288  87.30 0.0006275894    1.722    0.419
       315  -9.6821    124.9071    142.6576   1.0705046934e+02   2.8736023273e+01    0.4860477    0.3119244 -83.73  0.001438883    2.389    0.581
       316 -10.0473     73.0186    129.1402   1.1697994937e+02   4.0214760642e+01    0.4711404    0.2590373 -76.49  0.001407636    2.247    0.555
       317 -11.0687     68.5726    142.2694   1.2026693389e+02   3.7919173044e+01    0.5097341    0.4293783 -57.32   0.00323836    1.204    0.170
       318 -10.3837     71.7400    134.2256   1.1818615493e+02   3.9266555458e+01     0.531758    0.2532876  29.70  0.002364545    2.777    0.640
       319  -9.1173    247.1243    143.7303   8.2099525166e+01   2.4587072838e+00    0.2855002    0.2082383 -11.41 0.0006511868    1.481    0.325
       320  -8.1480    250.2636    140.9849   8.0960326181e+01   2.2578596119e+00    0.1963819    0.1705026 -20.03 0.0004779471    1.085    0.078
       321  -8.7668    165.6726    144.1166   9.8119856015e+01   2.0066400972e+01    0.2558151    0.1985577  61.40 0.0006487417    1.350    0.259
       322  -7.6204    194.3018    143.6994   9.1982965757e+01   1.3823488077e+01    0.1462694    0.1196659 -86.94 0.0003368403    1.586    0.369
       323  -9.6038      2.8194    142.0660   1.3485951746e+02   4.4519011329e+01    0.2884693     0.142039  75.59  0.001602658    2.185    0.542
       324  -9.2430    242.6983    143.3333   8.2773227567e+01   3.4229281547e+00    0.2043246    0.1806302  30.27    0.0007173    1.114    0.103
       325  -8.1464    181.9489    141.9324   9.4139644451e+01   1.6909172563e+01    0.2331512       0.1841 -82.82 0.0005437458    1.666    0.400
       326  -8.1494    223.3013    146.9645   8.7069726287e+01   6.8926517965e+00    0.1992528    0.1816703 -27.70 0.0004422053    1.111    0.100
       327  -9.9563     23.3841    138.3440   1.3006719797e+02   4.3676008210e+01     0.455303     0.219588  73.60   0.00211954    2.790    0.642
       328  -8.8784     18.6167    138.8552   1.3117437517e+02   4.3972161551e+01    0.1640236    0.1237311  52.07   0.00108036    1.471    0.320
       329  -8.4616    172.2870    138.3853   9.5396547068e+01   1.9749099799e+01     0.251817    0.1826787 -65.50 0.0006252115    1.714    0.416
       330  -7.5241    234.6908    138.6480   8.3128745880e+01   5.8567198820e+00    0.1506453    0.1085802   8.16 0.0005112049    1.718    0.418
       331  -7.5791    218.5379    138.5459   8.6059785051e+01   9.3688468180e+00    0.1445536    0.1403135  14.50 8.042087e-05    1.032    0.031
       332  -8.0934    207.4876    138.0269   8.8059015970e+01   1.1913280681e+01    0.2192087    0.1456291 -40.69 0.0006945112    1.541    0.351
       333  -8.6067    197.6372    137.5002   8.9891608073e+01   1.4222644321e+01    0.2828382    0.2153099 -68.48 0.0008495635    1.714    0.417
       334  -8.2016     92.5519    136.8790   1.1361937665e+02   3.5638117906e+01    0.2185709    0.1525606  48.11 0.0007046873    1.478    0.324
       335 -10.3067     83.3354    133.5459   1.1524135744e+02   3.7780084511e+01    0.5620923    0.3422239 -61.11  0.001910251    1.520    0.342
       336  -9.5480     39.2357    136.4372   1.2624066798e+02   4.2598659362e+01    0.2783039    0.1679119  80.75 0.0009262621    1.879    0.468
       337  -8.5976    246.8779    130.1622   7.9100880943e+01   4.6732630820e+00    0.2451251    0.1792836 -41.68 0.0005371262    1.373    0.271
       338  -9.1390    248.3890    135.3029   8.0008290933e+01   3.5376221308e+00    0.3132538    0.2158666 -40.67 0.0007442195    1.451    0.311
       339  -8.9879    250.6357    129.9104   7.8419976432e+01   3.9336346104e+00    0.4145059    0.1286002 -33.93  0.001402367    3.141    0.682
       340  -8.0350    162.5275    136.5205   9.7110966862e+01   2.2274750145e+01      0.15145    0.1438987  74.39 0.0002855713    1.062    0.058
       341  -9.3487     31.8961    144.6683   1.2893684583e+02   4.1554521298e+01      0.32145    0.1268747  51.71  0.001545257    2.883    0.653
       342  -9.3045     57.9454    135.3076   1.2168263894e+02   4.0782761571e+01    0.1691181    0.1551746  86.70 0.0006792808    1.119    0.106
       343  -8.3082    237.2901    133.5987   8.1523473379e+01   6.1374731655e+00    0.2499189    0.1612189 -44.52 0.0006469857    1.622    0.384
       344  -8.4838    179.6300    134.1492   9.2843508715e+01   1.8930814937e+01    0.2356055    0.1869054 -61.68 0.0008605834    1.442    0.307
       345  -8.8304    112.8100    133.4296   1.0802927323e+02   3.2969959395e+01    0.2712538    0.2067379 -87.49 0.0008409927    1.544    0.352
       346  -9.7214    132.1539    131.2963   1.0292236668e+02   2.9751885653e+01    0.4757345    0.3119309 -79.04  0.001190718    2.304    0.566
       347 -10.3513     98.1838    130.2144   1.1094972668e+02   3.6195925392e+01    0.6015083    0.2467036 -56.88   0.00183959    2.401    0.583
       348  -8.8758    143.0621    131.6639   1.0043641454e+02   2.7445912568e+01    0.2945051     0.220821 -78.71 0.0007483184    1.689    0.408
       349 -10.2446     12.8184    129.1639   1.3137269696e+02   4.6467750492e+01    0.4463221    0.2185753  83.69  0.001854848    2.434    0.589
       350  -7.8621    220.6867    130.3194   8.3755057008e+01   1.0321003590e+01    0.1470621    0.1179637 -75.32 0.0007037771    1.650    0.394
       351  -8.2216    204.4485    130.2699   8.6844988643e+01   1.4001271073e+01    0.2091058    0.1409746 -50.07 0.0008988002    1.634    0.388
       352  -8.8608    168.3944    129.5328   9.4191965465e+01   2.2372422403e+01    0.3083723     0.243423 -74.83 0.0007649872    1.566    0.361
       353  -7.9319    161.6791    130.3048   9.5865003530e+01   2.3715573794e+01    0.1539941    0.1206104  89.10 0.0003402423    1.635    0.388
       354  -9.1709    152.9323    129.1063   9.7566348725e+01   2.5876006514e+01    0.3420983    0.2131563 -55.04 0.0007336188    1.765    0.434
       355 -10.4899     60.1544    125.3718   1.1951694167e+02   4.2697191052e+01    0.6635832    0.3723028  79.79  0.002682137    2.951    0.661
       356 -10.9809     44.9549    123.7946   1.2303271491e+02   4.4754304500e+01    0.9483246     0.482874  82.40  0.003875514    3.609    0.723
       357  -9.7367    117.9801    125.3782   1.0503651111e+02   3.3765722103e+01    0.5091791    0.3422067  88.81  0.001404991    2.296    0.564
       358  -7.7752    228.3603    125.2076   8.1159687339e+01   9.4893790289e+00    0.2139034    0.1290393 -44.99   0.00075146    1.726    0.421
       359  -8.6374    179.1526    124.8700   9.0741355860e+01   2.0839144018e+01    0.2319199    0.2055802  89.41 0.0005633437    1.276    0.216
       360  -7.6901    211.6579    129.3234   8.5222426424e+01   1.2530000513e+01    0.1525597    0.1199638 -79.88 0.0007050735    1.729    0.422
       361  -8.7647    135.2914    123.9670   1.0050427269e+02   3.0670744211e+01    0.2994587    0.1879352 -45.21  0.001345501    1.602    0.376
       362  -7.8189    188.3598    123.7147   8.8522998614e+01   1.8929700179e+01    0.1558072    0.1222034 -89.76 0.0007020995    1.680    0.405
       363  -8.7061     84.8597    122.8446   1.1281025898e+02   3.9912097687e+01    0.3090171    0.1940441   3.54  0.001208975    3.652    0.726
       364  -7.9265    203.1451    122.1792   8.5165174376e+01   1.5774795077e+01    0.2066533    0.1790673 -72.05 0.0004833942    1.340    0.254
       365  -8.4480    171.8272    121.7762   9.1573109728e+01   2.3128000927e+01    0.2068293     0.180634 -82.67  0.000437931    1.307    0.235
       366  -8.9410    158.6645    121.7496   9.4504830501e+01   2.6115182559e+01    0.2922427     0.222636 -78.29 0.0007834348    1.708    0.415
       367  -9.7490     71.2004    120.1097   1.1576673219e+02   4.2448137235e+01    0.3180627    0.2083594 -81.04 0.0009664457    1.796    0.443
       368  -9.5567    141.5188    118.5230   9.7718652815e+01   3.0513544484e+01    0.4154626    0.2838112 -75.54 0.0009702189    2.123    0.529
       369  -9.1342    130.5762    118.3227   1.0031578887e+02   3.2821310363e+01    0.3347262    0.2429849 -71.39 0.0009138679    1.693    0.409
       370  -9.7208      3.1758    117.5969   1.3226577234e+02   4.9550628633e+01    0.3893815    0.1843782  74.39  0.001998519    2.891    0.654
       371  -8.1792    103.1821    118.6224   1.0724516152e+02   3.7890100246e+01     0.192269    0.1351358  29.19 0.0007651354    1.694    0.410
       372  -9.3253     19.7191    118.5360   1.2844713655e+02   4.8182289963e+01    0.2736538     0.118358  24.19  0.001440145    3.103    0.678
       373  -9.8734    109.3720    114.1306   1.0464106051e+02   3.7772453401e+01    0.4780613     0.305452 -74.26  0.001565528    2.223    0.550
       374  -8.1410    193.0152    115.2987   8.5497585482e+01   1.9419260629e+01    0.2051969    0.2010722 -84.06 0.0004689876    1.057    0.054
       375 -10.0950     78.9451    112.6348   1.1225046128e+02   4.3015331612e+01    0.5103543    0.3300454  83.76  0.002280776    2.419    0.587
       376  -9.1006     59.7363    114.8946   1.1775077160e+02   4.5042620950e+01    0.2620313    0.1732599  19.57  0.001316991    2.061    0.515
       377  -7.5250    167.2964    114.6386   9.0802840731e+01   2.5576185001e+01    0.1592729    0.1221507 -78.58   0.00070327    1.710    0.415
       378 -10.2249     92.8134    111.2424   1.0828497660e+02   4.1215356027e+01    0.8976187    0.3485053 -52.52  0.002456773    2.398    0.583
       379 -10.7025     28.1888    121.8766   1.2685219002e+02   4.6770755277e+01    0.8167031    0.3586338 -83.72  0.003590666    3.016    0.668
       380 -10.1528    133.5664    109.7722   9.7487860748e+01   3.3999487847e+01     0.710021    0.3315715 -48.28   0.00242488    2.162    0.538
       381  -9.4456    122.1255    112.7105   1.0106324568e+02   3.5685184773e+01    0.2906598    0.2399274 -86.17 0.0006954782    1.425    0.298
       382  -9.0702     51.0191    112.5416   1.1959915547e+02   4.6554069906e+01    0.2180489    0.1799506 -75.66 0.0006683213    1.122    0.109
       383  -9.8728     14.1607    111.4658   1.2885933440e+02   5.0090566476e+01    0.3011999    0.1664625  83.40  0.001346989    2.196    0.545
       384 -11.0490    248.1219    108.4074   7.3877177993e+01   7.9173489181e+00    0.5465482    0.4250049 -38.79  0.002920222    1.224    0.183
       385 -10.8047    248.5185    103.6429   7.2698090980e+01   8.5963763731e+00    0.4230821    0.3527612 -43.48  0.002336315    1.161    0.139
       386  -8.2959    159.4383    112.0043   9.1907868737e+01   2.7898577286e+01    0.2262355    0.1499745 -44.89 0.0006045332    1.531    0.347
       387 -10.2291     66.2047    109.7341   1.1504115050e+02   4.5368629467e+01    0.5661251     0.263094 -60.52   0.00196101    1.984    0.496
       388  -9.2280      7.4049    109.3651   1.3025168867e+02   5.0989734384e+01     0.221152    0.0902425  32.58  0.001235581    2.901    0.655
       389  -8.4377    189.1571    108.1806   8.4489897684e+01   2.1661693738e+01    0.2155732    0.1797737 -66.72 0.0004809009    1.368    0.269
       390 -10.5099     45.7012    102.4809   1.1916630267e+02   4.9287798043e+01    0.6286908    0.3533761  71.25  0.002822556    3.227    0.690
       391 -10.7642     22.8691    102.8275   1.2536714062e+02   5.1262422188e+01    0.6039608    0.3286136  80.52  0.002744846    2.815    0.645
       392  -9.3844    150.5489    103.0693   9.1661642609e+01   3.1688133850e+01    0.3995799    0.2628968 -68.91  0.001376129    2.230    0.552
       393  -9.1941    139.7190    104.5863   9.4654947563e+01   3.3764543388e+01    0.3245966    0.2627042  87.68 0.0008479731    1.543    0.352
       394  -8.7243     78.6339    105.0201   1.1068797139e+02   4.4711503263e+01    0.2326576    0.1844215 -11.93 0.0008658529    1.625    0.385
       395  -8.3761    166.7037    104.2110   8.8258783542e+01   2.7750945183e+01    0.2395774    0.1883069 -61.87  0.000532162    1.449    0.310
       396  -9.6756    128.4384    102.1514   9.6819535945e+01   3.6628012296e+01    0.3145314    0.2518923 -77.11 0.0007261877    1.531    0.347
       397 -10.4315    108.8015     98.8063   1.0104542785e+02   4.1123305512e+01    0.6065556    0.4011695  79.00  0.001040326    2.693    0.629
       398  -9.0326    107.6094     92.6804   9.9767341941e+01   4.2604675086e+01    0.8385198    0.3304685  29.88  0.002399513    5.052    0.802
       399  -8.7397      7.0128    103.3718   1.2955763879e+02   5.2260107669e+01    0.1884707    0.1245602  53.35   0.00117871    1.836    0.455
       400  -7.4447    175.6872    102.3439   8.5804163401e+01   2.5981120639e+01     0.160449    0.1228682 -77.31 0.0003921816    1.707    0.414
       401  -8.0884    159.6138    100.8489   8.8970803754e+01   3.0055489890e+01    0.2151094    0.1418915 -51.84 0.0004769891    1.646    0.393
       402  -9.4456     81.8943     99.8716   1.0861933651e+02   4.5341535087e+01    0.3208135    0.2248491 -75.51 0.0007763201    1.776    0.437
       403  -9.3643     95.0751     97.1171   1.0432386056e+02   4.3863121110e+01    0.2990343    0.2101205 -61.08 0.0005460319    1.506    0.336
       404 -10.0151     63.8953     96.0877   1.1278603555e+02   4.8594291071e+01    0.4653693    0.2866117 -82.77   0.00169282    2.565    0.610
       405  -8.2835    174.9341    112.0183   8.8464124694e+01   2.4309809142e+01     0.243826    0.1879673 -77.25 0.0005978141    1.686    0.407
       406  -8.1399    164.6705     93.8670   8.5952111070e+01   3.0206150918e+01    0.2227329    0.1366813 -48.66 0.0005421219    1.741    0.425
       407  -9.6871     46.7899     92.5328   1.1688883836e+02   5.1290077488e+01    0.4220845    0.2342982  14.60  0.002134956    2.677    0.626
       408  -8.0392    176.4729     93.5025   8.3285160046e+01   2.7442130830e+01    0.1548415    0.1490634 -87.68 8.002362e-05    1.076    0.071
       409  -9.3228    139.0849     92.5106   9.1583417124e+01   3.6312388063e+01    0.3350911    0.2543371 -66.73 0.0008574997    1.622    0.383
       410 -10.1704    123.9236     91.3961   9.5104492547e+01   3.9723610615e+01    0.5035978     0.401798  32.60  0.001216375    1.326    0.246
       411  -9.5180     34.8817     89.9968   1.1978988513e+02   5.2962993887e+01    0.4027902    0.2215894 -84.37  0.001569343    2.822    0.646
       412  -9.6331     23.1756     90.2987   1.2317841169e+02   5.3862562977e+01     0.255838    0.2046239   2.00  0.001137482    1.609    0.379
       413  -8.2265    150.8365     89.3064   8.7867256694e+01   3.4299083710e+01    0.2115621    0.1854294 -52.28 0.0004700636    1.188    0.158
       414 -10.1119     86.6220     85.8143   1.0378792593e+02   4.7558446700e+01    0.7019184    0.4366799 -46.10  0.002810949    1.470    0.320
       415  -8.7489     64.5347     87.9707   1.1073228791e+02   5.0220722567e+01    0.2587665    0.1469626 -16.48  0.001038633    3.495    0.714
       416 -10.2393     48.4475     84.3920   1.1464119240e+02   5.2816661932e+01    0.4794738    0.3006193  87.80  0.001824326    2.918    0.657
       417  -9.4414    141.3776     83.2214   8.8415952277e+01   3.7588730311e+01    0.4948317    0.2874248 -56.61  0.001505969    2.237    0.553
       418  -9.7174    104.7322     83.2693   9.7989267614e+01   4.5020749005e+01    0.4483388     0.283151 -62.52   0.00105943    2.092    0.522
       419  -8.6006    105.3243     77.3005   9.6124907754e+01   4.6077442359e+01    0.2079096    0.1247754  18.39 0.0006827228    2.596    0.615
       420  -8.3553    157.9094     84.1371   8.4780054674e+01   3.3617036378e+01    0.2268249    0.2055118 -77.54 0.0003944979    1.227    0.185
       421  -9.6890      4.8713     92.0878   1.2851882835e+02   5.4715732937e+01    0.2753188    0.1643913  70.33  0.001218229    2.247    0.555
       422  -9.7507     10.0719     81.4385   1.2536160221e+02   5.6576439570e+01    0.3024965    0.1842673  77.54   0.00143079    2.395    0.582
       423  -9.6676     24.5458     80.4383   1.2092508733e+02   5.5787997980e+01     0.369421    0.2113558 -82.49  0.001395638    2.373    0.579
       424  -8.8170    150.6345     81.0748   8.5587654833e+01   3.5880654585e+01    0.2528274    0.2132456  69.94 0.0008412081    1.316    0.240
       425  -8.8262    119.6424     80.6372   9.3201293758e+01   4.2690541649e+01    0.2780509    0.2095999 -82.05  0.000825231    1.982    0.496
       426  -8.9671     74.5282     80.4643   1.0590195919e+02   5.0432434547e+01     0.301584    0.1977837 -65.02  0.001040633    1.837    0.456
       427  -8.1865    249.6545     80.6840   6.7102046008e+01   1.1965453524e+01     0.143023     0.109126  19.68 0.0004254882    1.719    0.418
       428  -8.0549    166.5584     79.9169   8.1661702077e+01   3.2307407911e+01    0.2214367    0.1509137 -36.64 0.0004320237    1.496    0.332
       429  -9.5931    232.2836     78.3761   6.9114735187e+01   1.6364136072e+01    0.3047971    0.2539583 -41.41 0.0008944216    1.163    0.140
       430  -8.4806    184.0461     78.2599   7.7560333526e+01   2.8288659139e+01     0.209468    0.2003786  58.77 0.0004847464    1.023    0.023
       431 -10.0825     63.7999     74.8797   1.0766212505e+02   5.2978780160e+01    0.5917013     0.265792 -62.69  0.002304636    3.284    0.695
       432  -8.0375    157.2734     76.6530   8.2785275948e+01   3.5117609237e+01    0.1533993    0.1190361 -69.98 0.0003245188    1.626    0.385
       433  -9.0390    140.5241     75.5218   8.6387367735e+01   3.9198645296e+01     0.273316     0.209105 -48.49 0.0006798189    1.383    0.277
       434  -9.2371    127.9583     75.3606   8.9485714380e+01   4.1969330263e+01    0.3460222    0.2306998 -58.58 0.0008998101    1.904    0.475
       435  -9.1059    129.7105     69.7065   8.7340427735e+01   4.2618857216e+01    0.4330653    0.2486734  19.28  0.001545725    3.134    0.681
       436  -9.6148     82.3017     72.5867   1.0141588740e+02   5.0852915365e+01    0.3492037    0.2278232 -60.51 0.0009837335    1.862    0.463
       437  -8.2469    163.3877     73.2500   8.0442712810e+01   3.4242674589e+01    0.2165123    0.1392837 -46.37 0.0009419984    1.652    0.395
       438  -9.1477    151.3310     72.5591   8.2947168319e+01   3.7242547151e+01    0.3040528     0.187318 -32.94 0.0009591467    1.686    0.407
       439  -9.0895    115.7761     72.7547   9.1916396622e+01   4.4944350746e+01    0.2869219    0.1899523 -49.04  0.000784911    1.599    0.375
       440  -8.0225     42.6794     73.3191   1.1381528113e+02   5.5653748979e+01    0.1134244   0.09112415  88.27  0.000424779    1.666    0.400
       441  -9.4722    105.8883     71.7010   9.4316863731e+01   4.7034258688e+01    0.2660889    0.1952052 -50.71 0.0007071872    1.444    0.308
       442  -9.3541     95.0510     71.0080   9.7197586455e+01   4.9093928451e+01    0.3667861    0.2053407 -54.68 0.0009471382    2.117    0.528
       443 -10.0034     97.0165     61.6419   9.3760796704e+01   5.0470955286e+01    0.5805027    0.3461146 -27.16  0.001760728    1.814    0.449
       444  -9.0719     28.2804     71.0341   1.1779769215e+02   5.7391711863e+01    0.2897457     0.143325 -24.55 0.0009404625    2.950    0.661
       445  -9.0331     16.6405     70.1992   1.2126208179e+02   5.8412470834e+01    0.2372418    0.1639403 -84.57  0.001294572    1.783    0.439
       446  -7.8239    157.2827     70.3164   8.0933408212e+01   3.6218586773e+01    0.1521368    0.1173109  14.56 0.0002083275    1.580    0.367
       447  -8.9980    147.0546     68.1666   8.2634086020e+01   3.9001696347e+01    0.3058086    0.2064146 -41.86 0.0005445034    1.525    0.344
       448  -8.7921    138.6986     66.5597   8.4143126314e+01   4.1189686379e+01    0.2425945    0.1743621 -56.57 0.0005961155    1.683    0.406
       449  -9.0191    121.7682     66.0142   8.8264491433e+01   4.4947672904e+01    0.3573534     0.191003 -49.41  0.001010279    2.167    0.539
       450  -9.4428    110.1546     64.2275   9.0842108276e+01   4.7586468940e+01    0.3609625      0.23859 -38.88 0.0008080331    1.473    0.321
       451  -9.4893    154.5702     65.1854   8.0015845126e+01   3.7733180975e+01    0.2546805    0.1771253  46.64 0.0009075471    1.392    0.282
       452  -8.9208     85.8908     63.8201   9.7738929154e+01   5.1945942765e+01    0.2776806    0.1564974  17.58  0.001169987    2.743    0.635
       453  -8.6162     37.0645     64.0847   1.1332166142e+02   5.8004629889e+01    0.2425155    0.1518023 -76.78  0.001119579    2.454    0.592
       454  -9.6433     73.2350     59.4550   1.0030389569e+02   5.4659320829e+01    0.4119603    0.2068015 -51.64  0.001282134    2.135    0.532
       455  -9.5032     51.4290     69.7562   1.1016801876e+02   5.5451372479e+01    0.3595292    0.2046404 -65.28  0.001428353    2.168    0.539
       456  -9.9043     23.4177     56.5460   1.1595193633e+02   6.0585789958e+01    0.3900782    0.2414935 -81.94  0.002084073    2.771    0.639
       457  -8.9461    130.7358     57.8876   8.3410881692e+01   4.4415252416e+01    0.2659397    0.1920985 -52.69 0.0006961432    1.636    0.389
       458  -9.6298      7.4257     57.0990   1.2144437801e+02   6.1528077883e+01     0.256892    0.1672771 -80.53  0.001218547    1.916    0.478
       459  -8.9677    139.9962     56.6812   8.0770309290e+01   4.2534227851e+01    0.2629367    0.1798709 -48.22 0.0006828023    1.643    0.391
       460  -9.3943    119.0460     55.3332   8.5599690178e+01   4.7324673341e+01    0.4033285    0.1860999 -43.79  0.001282795    2.329    0.571
       461  -9.4526     54.3384     55.6278   1.0526967984e+02   5.7809445541e+01    0.3258539    0.1955403 -59.38  0.001186687    2.019    0.505
       462  -8.8779     44.1457     55.6799   1.0870100519e+02   5.8915383450e+01     0.212043    0.1418654 -54.56 0.0007923475    1.451    0.311
       463  -9.4586    148.1550     53.4160   7.7857589002e+01   4.1146851629e+01    0.2819228    0.2120339 -40.11 0.0008617332    1.394    0.282
       464  -9.5815     92.4136     50.5957   9.1536855345e+01   5.3173015887e+01    0.3837712    0.2136977 -48.31  0.001113543    2.060    0.515
       465  -8.9011    105.5888     53.2663   8.8599164814e+01   5.0336913919e+01    0.2883339    0.2013263 -36.37 0.0009717036    1.401    0.286
       466  -8.8482    129.8705     49.3754   8.0886853656e+01   4.5953977740e+01    0.2412368    0.1894012 -40.50 0.0006284734    1.351    0.260
       467 -10.2349    164.1481     47.1298   7.2513086352e+01   3.8199199179e+01       0.4746    0.3836477  83.65  0.002424371    1.419    0.295
       468  -8.8829    120.9832     47.5214   8.2525534961e+01   4.8156257801e+01    0.2436661    0.1887754 -44.98 0.0005420265    1.432    0.302
       469  -8.4893    112.2744     46.8099   8.4594941651e+01   5.0059943323e+01    0.2400353     0.157985 -36.27 0.0006499956    1.525    0.344
       470  -8.7125     82.0417     46.4636   9.3314718408e+01   5.5579848048e+01    0.2297338    0.1694689 -48.02 0.0005995255    1.531    0.347
       471  -8.4038     45.0111     44.9593   1.0517762999e+02   6.0757942120e+01     0.165029    0.1398023 -67.91  0.000537538    1.631    0.387
       472  -9.0951     16.7532     44.8504   1.1523553151e+02   6.3232422229e+01    0.1902017    0.1345876 -66.63 0.0007497245    1.618    0.382
       473  -8.8265    133.0130     43.5986   7.8226541533e+01   4.6113379986e+01    0.2639633    0.1916307 -49.45 0.0006884697    1.623    0.384
       474  -8.6133     93.9215     42.7445   8.8408925467e+01   5.4166009259e+01    0.4168444    0.1524831  35.38  0.001529756    3.280    0.695
       475  -9.0230     69.6528     41.9372   9.5743204141e+01   5.8195105554e+01    0.2748273    0.1945472 -59.21  0.001082738    2.089    0.521
       476  -8.8497     58.1862     42.6829   9.9856904077e+01   5.9616938807e+01    0.2330881      0.18206 -61.59 0.0008939519    1.796    0.443
       477  -9.8832      5.1365     42.1359   1.1871756324e+02   6.4437036246e+01    0.2889893    0.1667271 -67.64  0.001453118    1.881    0.468
       478  -8.7825    105.9692     41.5501   8.4528035781e+01   5.2103494017e+01     0.250627    0.1810626 -46.38 0.0007927574    1.610    0.379
       479  -7.8662    140.4726     41.5276   7.5807356240e+01   4.4701319377e+01    0.1420714    0.1342957  34.18 6.201336e-05    1.030    0.029
       480  -8.4236     36.9383     40.9369   1.0678162020e+02   6.2273531905e+01    0.1566025    0.1381392 -71.27 0.0005031734    1.613    0.380
       481  -7.9820    143.3149     38.3441   7.4135340101e+01   4.4475609840e+01    0.1524875    0.1040158  22.92 0.0007047778    1.713    0.416
       482  -8.4575     95.2799     38.1923   8.6406230633e+01   5.4609987158e+01     0.172796     0.151979 -46.17 0.0008000485    1.372    0.271
       483  -8.4035    167.7405     37.4134   6.8866858109e+01   3.8643594287e+01    0.2684183    0.1681386  50.68  0.001017125    1.477    0.323
       484  -8.0147     80.6201     36.8280   9.0389246380e+01   5.7326056972e+01    0.1769505    0.1105824 -43.57 0.0004745999    1.738    0.425
       485  -8.1699    125.9370     35.7026   7.7289866178e+01   4.8791372312e+01    0.1916267    0.1675274  38.13 0.0003779179    1.077    0.071
       486  -9.3109     26.0520     35.6070   1.0910692112e+02   6.4161266903e+01    0.2288383    0.1555252 -54.37 0.0007737204    1.532    0.347
       487  -8.9165    111.7475     34.8656   8.0616171806e+01   5.1910439470e+01    0.2393359    0.1779311 -44.97 0.0004933065    1.575    0.365
       488  -8.6099    119.2693     33.6133   7.8226475770e+01   5.0513669137e+01    0.2420615    0.1566321 -40.24 0.0006447616    1.701    0.412
       489  -8.6832     48.4523     33.2755   1.0003636497e+02   6.2331498983e+01    0.1943143    0.1631379 -55.89 0.0007207894    1.624    0.384
       490  -8.4651     60.7977     33.0149   9.5572922152e+01   6.0833310583e+01    0.1726425     0.153046 -36.15 0.0005356613    1.324    0.245
       491  -8.8087    226.4243     30.2342   5.7924501757e+01   2.4708015537e+01    0.3291861     0.126378 -32.60  0.001296322    2.581    0.613
       492  -7.3680    139.3128     31.6603   7.2823138065e+01   4.6291123918e+01    0.1398579    0.1095975 -68.47 0.0007046468    1.696    0.411
       493  -8.2898     72.1934     31.2396   9.1067266199e+01   5.9474988975e+01    0.1569196    0.1422953 -38.04 0.0007372019    1.365    0.268
       494  -9.4622     13.0714     30.4929   1.1247326922e+02   6.5999959127e+01    0.2248142    0.1546118 -67.38  0.001038566    1.984    0.496
       495  -8.2572    101.5089     29.5085   8.1485936121e+01   5.4662836629e+01    0.2071169    0.1168069 -39.70 0.0007008539    1.940    0.485
       496  -8.8218     81.4461     27.3514   8.6630655142e+01   5.8556485445e+01    0.2639455    0.1866692 -54.26 0.0009493171    2.161    0.537
       497  -9.5186      3.7933     27.7726   1.1528900735e+02   6.7028659188e+01     0.202278    0.1244323 -59.01 0.0009736394    1.615    0.381
       498  -8.6127     91.9166     26.4775   8.3116586792e+01   5.6855017933e+01    0.2228837    0.1688328 -43.10 0.0005889317    1.588    0.370
       499  -9.9324    178.1832     22.0257   6.2468917261e+01   3.7896528703e+01    0.4364797    0.2789456  82.17  0.002049171    1.763    0.433
       500  -8.1910     34.4845     23.4801   1.0172226599e+02   6.5362927995e+01    0.1137244   0.08824681 -22.04 7.743116e-05    1.027    0.026
       501  -8.7025     63.7229     21.1255   9.0053831937e+01   6.2150622731e+01    0.2302137    0.1431534 -40.30  0.001046514    1.742    0.426
       502  -8.6997     48.3299     21.7485   9.5807636707e+01   6.4097799679e+01      0.18256    0.1525965 -27.29 0.0005496703    1.250    0.200
       503  -8.5108     19.5092     21.9248   1.0709305032e+02   6.6936967910e+01    0.1622745   0.08488219 -43.81  0.000460973    1.532    0.347
       504  -8.5643    120.4667     21.2021   7.3556546690e+01   5.1801393567e+01    0.1811481    0.1215136 -38.38 0.0009408904    1.678    0.404
       505  -9.2731    161.1334     19.8760   6.4693057146e+01   4.2419373620e+01    0.2078508    0.1868495 -79.52 0.0005971345    1.227    0.185
       506  -8.5825     74.1491     19.6874   8.5996025356e+01   6.0760737009e+01    0.2004225    0.1497337 -32.90 0.0006059017    1.410    0.291
       507  -7.8054     87.5918     17.5279   8.0967727873e+01   5.8754849389e+01    0.1259974    0.1065675   6.90 7.520358e-05    1.020    0.019
       508  -8.3168     29.8318     16.0197   1.0072932005e+02   6.6933294949e+01    0.1566671    0.1185482 -54.60 0.0006134447    1.961    0.490
       509  -8.0644    191.3569    249.6702   1.1165267462e+02  -2.5493040494e+00    0.1177259   0.08348896  65.05 0.0007044011    1.787    0.440
       510  -9.0764    175.4836    247.6552   1.1412113949e+02   4.1652684931e-01    0.2503695    0.1874646  78.82  0.001100077    1.827    0.453
       511  -8.5374     17.1684     14.3660   1.0530412525e+02   6.8286062033e+01     0.125319   0.09214581  25.27 0.0004550027    1.678    0.404
       512  -9.2638    155.7048    248.7430   1.1767666604e+02   3.6265349395e+00    0.2948948    0.1751869  36.57  0.001399881    1.618    0.382
       513  -7.9529     47.5199     10.5209   9.1570884517e+01   6.5725931116e+01    0.1155192   0.08994713  -7.51  5.09121e-05    1.017    0.017
       514  -8.1866    113.4234    248.8864   1.2486314737e+02   1.0500339954e+01    0.1483408    0.1055032 -75.59  0.001008725    1.577    0.366
       515  -9.1616    103.9803    247.2616   1.2626878273e+02   1.2211059141e+01    0.3753121    0.1806715 -82.61  0.001816335    3.286    0.696
       516 -10.0672     41.1524    248.7417   1.3625015094e+02   2.0483155775e+01    0.2713368     0.124221  61.77  0.001761095    1.687    0.407
       517  -8.6216    242.5499    247.5081   1.0262198871e+02  -1.0691300495e+01    0.1856805    0.1766521   8.40 0.0009259387    1.432    0.302
       518  -9.3883    248.5455    242.4882   1.0082419779e+02  -1.1090060530e+01    0.2291652    0.2214108 -26.83  0.001064527    1.569    0.363
       519 -10.1846    243.4093    242.0531   1.0161369023e+02  -1.0239436779e+01     0.283224    0.2464884  41.55 0.0005549433    1.409    0.290
