#   1 NUMBER                 Running object number                                     
#   2 MAG_AUTO               Kron-like elliptical aperture magnitude                    [mag]
#   3 X_IMAGE                Object position along x                                    [pixel]
#   4 Y_IMAGE                Object position along y                                    [pixel]
#   5 X_WORLD                Barycenter position along world x axis                     [deg]
#   6 Y_WORLD                Barycenter position along world y axis                     [deg]
#   7 A_WORLD                Profile RMS along major axis (world units)                 [deg]
#   8 B_WORLD                Profile RMS along minor axis (world units)                 [deg]
#   9 THETA_WORLD            Position angle (CCW/world-x)                               [deg]
#  10 FWHM_WORLD             FWHM assuming a gaussian core                              [deg]
#  11 ELONGATION             A_IMAGE/B_IMAGE                                           
#  12 ELLIPTICITY            1 - B_IMAGE/A_IMAGE                                       
         1 -14.4627    134.7492    165.8994   1.1796721921e+02   2.2144805642e+01     2.752814     1.649714  57.66   0.01222131    1.837    0.456
         2  -9.1160     18.6776      7.6726   1.1245220087e+02   7.2136416886e+01    0.1211737   0.06799369 -18.01 0.0007048533    1.690    0.408
         3  -8.6564     39.6634      4.0018   9.9690973333e+01   7.0277098560e+01     0.199683   0.08043333 -16.87 0.0004885985    4.423    0.774
         4  -8.7877     96.4261    244.7553   1.3654240275e+02   1.3879765880e+01    0.1308462    0.1081103 -62.73 0.0009447004    1.568    0.362
         5 -12.9656    248.1976    238.4999   1.0813804338e+02  -9.2802427931e+00     1.413954    0.7707182 -34.69  0.008542486    2.263    0.558
         6 -11.3427     24.8816    230.0643   1.4811711993e+02   2.5520872106e+01     1.387282    0.3835191  61.94  0.006153576    3.587    0.721
         7 -11.7679     23.7828    225.0166   1.4803765851e+02   2.6543414974e+01     1.889162          nan  47.54  0.007087158    4.884    0.795
         8 -10.4216     45.1781    245.0177   1.4552766340e+02   2.0641249513e+01    0.5395457    0.1697704  43.88  0.002891278    2.302    0.566
         9 -10.5703     38.1510    240.9784   1.4647229868e+02   2.2147978564e+01     0.569217    0.2465591  49.11  0.003535244    1.699    0.411
        10 -11.2253     34.4991    248.8147   1.4749964328e+02   2.1239609462e+01    0.7941558    0.3012127  51.56  0.004820054    1.849    0.459
        11 -10.5495     44.8326    236.9948   1.4509790781e+02   2.2058511797e+01    0.6608675    0.1256057  47.43  0.002906233    3.256    0.693
        12 -12.2792      4.2043    226.0408   1.5138430952e+02   2.8291350398e+01     1.197404    0.4630195  88.87  0.007102673    2.249    0.555
        13 -13.5446      8.0946    245.0181   1.5151493501e+02   2.4649054831e+01     1.581253    0.9953374  44.96   0.01252752    1.508    0.337
        14  -9.5328     90.0219    249.8551   1.3813444533e+02   1.3979424760e+01    0.3050219    0.1333325  48.36  0.001568778    1.693    0.409
        15 -10.2314     53.7874    239.6562   1.4371948818e+02   2.0512262248e+01    0.4926021    0.1994101  57.51  0.002729807    2.018    0.505
        16 -10.3269     71.7322    239.5382   1.4054645431e+02   1.8217172158e+01     0.435614    0.2527697  44.69  0.002202677    1.421    0.296
        17  -8.2446    103.4666    238.4878   1.3465475885e+02   1.3862156323e+01    0.1201101   0.09205011  54.70 0.0001324073    1.008    0.008
        18  -9.5563     94.0532    236.1157   1.3617604922e+02   1.5661676427e+01    0.2907637    0.1696431  58.58  0.001619449    1.460    0.315
        19  -9.5149     80.8417    236.4343   1.3864321427e+02   1.7501505076e+01    0.2859915    0.1834623  47.34  0.001863536    1.260    0.206
        20 -10.6531     60.4863    231.2592   1.4193504311e+02   2.1138942299e+01    0.5949498    0.2951232  43.12   0.00353733    1.682    0.405
        21  -8.2490     86.7901    231.3817   1.3708951288e+02   1.7533523319e+01    0.1607619   0.09726648  37.35 0.0009455708    1.621    0.383
        22  -9.8224     48.8044    230.0941   1.4395163430e+02   2.2802910612e+01    0.4915369    0.1336327  50.29  0.002305463    2.726    0.633
        23  -8.5651     80.9711    228.7039   1.3793797508e+02   1.8834978306e+01    0.1726119    0.1248624  55.92  0.001155688    1.076    0.071
        24  -9.3822     39.5662    229.1850   1.4552823043e+02   2.4056232506e+01    0.2972581    0.1249201  41.27   0.00171352    2.017    0.504
        25  -9.5219     94.7789    227.4468   1.3519320127e+02   1.7052772311e+01    0.2576193    0.1262076  55.58  0.001352261    1.802    0.445
        26 -10.0194     72.0710    223.3427   1.3914319147e+02   2.1036723937e+01     0.422298    0.2429839  48.24  0.002567288    1.402    0.287
        27 -10.3469     51.3255    250.0875   1.4480539816e+02   1.9055703909e+01    0.4668956    0.1442274  41.21  0.002419208    2.502    0.600
        28  -8.2422     30.2065    221.4284   1.4671041598e+02   2.6514620067e+01     0.159104   0.08649816  45.36 0.0008122932    1.573    0.364
        29 -11.6192     63.6198    248.1594   1.4260200013e+02   1.7833637894e+01     1.285731     0.231878  43.87  0.005419658    3.406    0.706
        30  -9.5026     52.1830    221.1088   1.4269674937e+02   2.4029440909e+01    0.3541918    0.1711201  35.16  0.001963224    2.178    0.541
        31  -8.3947     94.4785    221.5074   1.3464273950e+02   1.8157793555e+01    0.1242046   0.09744044  59.38 0.0001323767    1.013    0.013
        32  -8.6172    100.2449    221.9769   1.3356160149e+02   1.7196881374e+01     0.145081    0.1014401 -70.53  0.000565708    1.611    0.379
        33  -9.7985     44.9137    220.3890   1.4398674908e+02   2.5040515679e+01     0.319589   0.04809545  42.44  0.001261144    3.845    0.740
        34 -10.0019     13.1433    216.5094   1.4944292440e+02   2.9173946252e+01    0.3071809    0.1435476  55.37  0.001245279    1.637    0.389
        35  -8.4342     84.9723    222.5143   1.3659447308e+02   1.9376866317e+01    0.1866475   0.09891945  42.83  0.001033296    1.592    0.372
        36  -8.7563     34.0450    216.4733   1.4571420602e+02   2.7016285850e+01     0.215276     0.115809  76.72  0.001027102    1.629    0.386
        37  -8.4997     24.0088    216.9737   1.4755422103e+02   2.7998425942e+01     0.179391   0.09003443  65.56  0.001050462    1.607    0.378
        38  -8.6057     19.5482    215.6752   1.4827478827e+02   2.8696892329e+01    0.1852791   0.08269273  55.48 0.0008007219    1.738    0.425
        39  -9.0632     84.8363    214.9971   1.3587284592e+02   2.0785372100e+01    0.1771359    0.1367819 -38.83  0.001082126    1.999    0.500
        40  -8.6114     53.7070    211.9941   1.4170081050e+02   2.5562120527e+01    0.1644514    0.1280621  73.97  0.001158505    1.050    0.048
        41  -8.3714     44.0184    212.4838   1.4358804444e+02   2.6637372840e+01    0.1698077   0.09476151  42.88 0.0009889115    1.614    0.380
        42  -9.2315     65.3338    211.1058   1.3935932965e+02   2.4240865921e+01    0.1980886     0.150361  41.45  0.001272714    1.378    0.274
        43  -8.6696     22.5202    210.9765   1.4747721846e+02   2.9280544329e+01    0.2080549    0.1041835  55.26 0.0007500158    1.578    0.366
        44  -8.5178     12.9594    211.4614   1.4922064445e+02   3.0133505304e+01    0.1462955   0.08419506  46.54 0.0004803719    1.531    0.347
        45  -8.9804      9.0284    210.0421   1.4984515965e+02   3.0770948181e+01    0.2048379   0.09627432  58.35 0.0008528734    1.650    0.394
        46  -9.5125      6.4198    205.3612   1.5007935391e+02   3.1895474201e+01    0.2813665    0.1314136  76.44  0.001416994    1.772    0.436
        47  -9.7947     98.4361    210.1013   1.3259645114e+02   1.9660266432e+01     0.282755    0.1284777  52.94   0.00133576    1.999    0.500
        48 -11.0613     15.1760    241.1617   1.5024479022e+02   2.4594441285e+01    0.4231642    0.1880571  63.98  0.002065647    1.678    0.404
        49  -9.2020     77.7381    207.3853   1.3652116213e+02   2.3259694673e+01    0.1660029    0.1078037  34.98 0.0009527096    1.654    0.395
        50  -8.2274     18.1587    206.3849   1.4800880461e+02   3.0594652028e+01    0.1512826   0.07219644  50.88 0.0008230575    1.691    0.409
        51  -9.1550     12.9941    204.3873   1.4884224552e+02   3.1475806283e+01    0.2554015    0.1236661  76.77  0.001209936    1.748    0.428
        52  -8.8844      1.5768    205.3985   1.5094106711e+02   3.2317071046e+01    0.1926598   0.09903979 -83.15  0.001081418    1.606    0.377
        53  -9.4685     89.6642    203.8777   1.3369102128e+02   2.2198555861e+01    0.2261599    0.1610741  37.46  0.001338089    1.437    0.304
        54  -7.7554     18.6764    201.3177   1.4761791593e+02   3.1525477344e+01    0.1187913   0.05922275  65.63 0.0004705528    1.670    0.401
        55  -8.5311    178.0248    200.0409   1.1466544156e+02   7.4985211226e+00    0.1584912    0.1465015  18.26 0.0005489179    1.113    0.102
        56  -9.4725      3.8657    197.1808   1.5013748583e+02   3.3694463280e+01     0.315995    0.1311462  82.10  0.001362727    2.110    0.526
        57  -8.3380      3.5739    188.7483   1.4975780754e+02   3.5376672469e+01     0.151567   0.07737675  84.53 0.0008318483    1.580    0.367
        58  -8.7126    100.3454    247.6412   1.3609894014e+02   1.2841107169e+01    0.1846367    0.1043881  62.42  0.001093392    1.666    0.400
        59 -11.4104    173.5130    167.5042   1.0954185867e+02   1.4025019771e+01    0.3789685    0.2823505 -22.48  0.001893466    1.583    0.368
        60  -8.7692    203.0000    164.9342   1.0288271507e+02   8.4250328840e+00    0.2231976   0.08111197 -37.97 0.0007969342    2.904    0.656
        61 -10.5212    178.4930    150.4038   1.0484418427e+02   1.6156557080e+01    0.2932778    0.2158325 -78.07  0.001287401    2.144    0.534
        62 -11.4368    165.1059    149.0825   1.0752070285e+02   1.9304240993e+01     0.453416    0.2791016 -64.23  0.001796206    2.471    0.595
        63  -9.3608    196.0343    164.7277   1.0424143535e+02   9.8810873147e+00    0.2660672    0.1877851 -17.54  0.001295938    1.638    0.390
        64  -9.9859    194.8284    147.2060   1.0067614406e+02   1.3202614547e+01     0.375422    0.2100542 -12.19  0.001274268    3.397    0.706
        65 -11.7437    179.7493    144.8720   1.0333210840e+02   1.6923071955e+01    0.4119136    0.3660248 -45.79  0.002187102    1.217    0.179
        66 -11.3730    181.3403    165.4499   1.0744650634e+02   1.2784164604e+01    0.5641719    0.2162497 -48.15  0.001969256    3.217    0.689
        67 -12.0488    141.7338    142.0506   1.1146483991e+02   2.5725028247e+01    0.5309649    0.3456292  37.47  0.002382277    1.541    0.351
        68  -9.7173    204.3676    143.8194   9.7982010257e+01   1.1736905109e+01    0.2116289    0.1365738 -23.89 0.0009492674    1.713    0.416
        69 -10.7338    115.1411    143.7728   1.1847960827e+02   3.0646796455e+01    0.2631084    0.2446276  71.19 0.0009105843    1.035    0.034
        70  -9.1512    186.5243    184.5274   1.1013456383e+02   8.4303247168e+00    0.2732069    0.1395571 -40.15   0.00121547    2.185    0.542
        71 -11.6770      4.4415    137.7518   1.4619100884e+02   4.6036243467e+01    0.6220757     0.132507 -64.59   0.00260135    3.213    0.689
        72 -12.8013      5.0218    120.9164   1.4452605020e+02   4.9726895954e+01    0.9235047     0.503534 -81.20   0.00548102    1.491    0.329
        73 -11.9435      4.4121    109.1634   1.4347097990e+02   5.2387949210e+01    0.8080336     0.359151  87.50  0.003927114    2.461    0.594
        74 -10.8368    150.5247    142.0041   1.0933696495e+02   2.3870315763e+01    0.3054019    0.2129216  59.64   0.00137732    1.585    0.369
        75 -11.2242      8.0392     96.3142   1.4084252173e+02   5.5054195692e+01    0.7311716     0.297315  68.15  0.002696897    4.936    0.797
        76 -10.5393      5.8074    148.2158   1.4670290269e+02   4.3654554253e+01    0.3585314    0.1281705  56.58  0.001696596    2.934    0.659
        77 -11.2188    170.5628    159.5137   1.0854099799e+02   1.6130020112e+01    0.4221653    0.2816978 -11.27  0.001663455    2.282    0.562
        78  -8.6433      1.6899    177.1166   1.4948720756e+02   3.7873235099e+01    0.1816791   0.09758876  78.38  0.001109139    1.513    0.339
        79  -9.9252    186.7179    175.0262   1.0825538830e+02   1.0002187727e+01    0.2010163    0.1858791   0.75 0.0009740574    1.105    0.095
        80 -11.6255    158.1801    141.2132   1.0735460748e+02   2.2375365310e+01    0.4288625     0.312696  62.07  0.001979117    1.553    0.356
        81 -10.6471    169.1000    139.2443   1.0439697077e+02   2.0360769184e+01    0.2949785    0.2151061  63.38  0.001343826    1.602    0.376
        82 -11.0606    180.4510    158.6099   1.0620265996e+02   1.4214149799e+01    0.3093866    0.2805296  52.48  0.001252885    1.150    0.130
        83 -11.6716    175.1746    134.7510   1.0198505953e+02   1.9873230697e+01     0.512602     0.324014 -50.77  0.002207562    1.796    0.443
        84  -9.5354    195.8160    135.8066   9.7843115045e+01   1.5029491804e+01    0.2033954       0.1857 -81.99 0.0009874398    1.330    0.248
        85 -10.4560    140.9413    135.5000   1.1019194672e+02   2.7279359756e+01    0.3876139    0.1451123  46.55  0.001301027    2.594    0.615
        86 -10.8432    127.7701    135.5563   1.1351315194e+02   2.9999791041e+01    0.3085976    0.2219306  19.53   0.00138003    1.826    0.452
        87 -11.2686    157.9261    134.6974   1.0590938529e+02   2.3752247398e+01    0.3681541    0.2772331  61.76  0.001294486    1.470    0.320
        88  -9.0071    237.3362    134.3425   8.9740229271e+01   6.3686766287e+00     0.226552    0.1583022  10.32 0.0007574764    1.693    0.409
        89  -9.8134    202.5891    133.7563   9.5995311666e+01   1.3884951756e+01    0.2140583    0.1390265 -45.81 0.0009559408    1.677    0.404
        90 -11.0629    151.4322    128.7429   1.0604052336e+02   2.6416091439e+01    0.4273122    0.2801923 -73.67  0.001641143    2.499    0.600
        91 -10.0347      3.1411     99.6086   1.4274371193e+02   5.4590986835e+01    0.3317951    0.2412634 -71.90  0.002288415    1.066    0.062
        92 -10.9585    148.2293    136.4124   1.0862009589e+02   2.5524746337e+01    0.3348541    0.2191879  52.86  0.001399877    1.547    0.354
        93 -10.4406    183.8767    131.3194   9.9269478067e+01   1.8550836813e+01    0.2760437    0.2149079 -49.63 0.0009906299    1.408    0.290
        94 -11.5055    145.1660    128.4996   1.0751174371e+02   2.7848846363e+01    0.4529957    0.3415681 -68.64  0.001805742    1.636    0.389
        95 -10.1758    187.8690    164.4746   1.0587070399e+02   1.1607276839e+01    0.2927835    0.1931226 -17.06  0.001120542    1.959    0.490
        96 -10.9069    175.3790    128.3861   1.0040751978e+02   2.1055121905e+01    0.2984559     0.281443  75.63  0.001121011    1.159    0.137
        97  -9.6238    243.0085    126.1622   8.6926758861e+01   6.4852616861e+00    0.2412811    0.1515246  21.53   0.00108075    2.030    0.507
        98 -11.0802    155.1763    124.2775   1.0404973477e+02   2.6494869307e+01    0.3443342    0.3163972   1.52  0.001778317    1.171    0.146
        99 -10.0408    203.0392    125.4917   9.3923018864e+01   1.5240489258e+01    0.2380952    0.1466644  49.19  0.001040665    1.614    0.381
       100 -10.8177    137.1208    124.9257   1.0866640116e+02   3.0352829740e+01    0.4052738    0.2288207  47.76  0.001661611    1.739    0.425
       101  -9.7915    184.5818    123.7409   9.7265365591e+01   1.9810283167e+01    0.2195361    0.1458471 -48.04 0.0009546838    1.640    0.390
       102 -10.9974    148.7492    122.6359   1.0520027873e+02   2.8282081046e+01    0.3211582    0.2907242  33.94  0.001408351    1.099    0.090
       103  -9.0590    191.3119    122.6601   9.5587050340e+01   1.8445918383e+01    0.1550955    0.1235441 -77.05 0.0007045953    1.695    0.410
       104  -9.9277    118.2722    121.3283   1.1274127294e+02   3.5047262646e+01    0.3144007    0.2829335 -20.86  0.001555973    1.242    0.195
       105  -8.4840     24.6421    122.3284   1.3938195668e+02   4.7987263006e+01    0.1291092   0.07905655  69.32 0.0007043745    1.785    0.440
       106  -9.7700      1.7286     94.1556   1.4250535352e+02   5.5876372899e+01    0.3591418    0.1276864 -71.48  0.001748215    2.137    0.532
       107 -10.6894    198.1985    120.3115   9.3606855555e+01   1.7272317674e+01    0.3235003    0.2096065 -46.43   0.00118513    1.659    0.397
       108  -9.0102    196.3298    126.3340   9.5465581765e+01   1.6620821419e+01    0.1609127    0.1171927  11.95 0.0007052061    1.725    0.420
       109 -11.4968    160.1924    118.2793   1.0135031849e+02   2.6560610529e+01    0.3928901    0.3473859 -19.33  0.001726932    1.214    0.177
       110  -9.7078    179.5592    181.7086   1.1103865580e+02   1.0273576821e+01    0.2483076    0.1391751 -36.25 0.0009876948    2.031    0.508
       111  -9.8037    153.9610    119.5096   1.0314826651e+02   2.7747060847e+01    0.2480646    0.1515002  46.70  0.001031857    1.587    0.370
       112 -10.1642    176.7047    117.9892   9.7520431094e+01   2.2745664569e+01    0.2225507    0.2118965 -21.84 0.0007961321    1.069    0.065
       113  -9.6656    231.8595    116.8652   8.6593111658e+01   1.0278941199e+01    0.2299208    0.1918537   8.40   0.00100136    1.265    0.210
       114 -11.2733    132.2478    114.7160   1.0739079942e+02   3.3592754743e+01    0.4714786    0.3710811 -29.70  0.002256123    1.409    0.290
       115 -10.4330    142.7142    116.6067   1.0518315184e+02   3.0892392067e+01    0.2873346    0.1941633 -32.39  0.001054334    1.662    0.398
       116  -9.1619    241.5148    111.5129   8.3754378667e+01   9.0586615105e+00    0.1406105      0.12985 -20.35 0.0001245109    1.013    0.013
       117 -11.0886    184.6780    141.4241   1.0148203630e+02   1.6480716539e+01    0.2962285    0.2687373  76.12  0.001475059    1.286    0.222
       118 -11.0620    162.6729     93.8429   9.4183406008e+01   3.0752575417e+01    0.2897061    0.2731781  -6.87  0.001180452    1.102    0.092
       119 -11.8580    149.1496     92.5383   9.7024200647e+01   3.4293432401e+01    0.6304283    0.3789237  25.61  0.002326923    2.415    0.586
       120 -12.7040    156.4366     94.4364   9.5807382891e+01   3.2165196182e+01    0.9655714    0.4539234 -49.68  0.003370237    2.508    0.601
       121  -9.0387    179.3078    108.6563   9.4534498205e+01   2.3892587653e+01    0.1604153    0.1251977 -76.11 0.0007043562    1.694    0.410
       122  -9.4813    124.6363    107.7268   1.0761105552e+02   3.6722533746e+01    0.2918654    0.1896606  33.15  0.001252598    1.697    0.411
       123 -10.1296     14.8368    106.9952   1.4020626894e+02   5.2220588863e+01    0.2034309    0.1388753  50.26  0.001044542    1.651    0.394
       124 -10.5422    212.8237    116.3439   8.9817051194e+01   1.4596942353e+01    0.2631847    0.2220764 -24.47  0.001284092    1.170    0.145
       125  -9.4730    230.4705    104.5076   8.3838792403e+01   1.2560244469e+01     0.143841    0.1360172 -23.26 3.774176e-05    1.013    0.013
       126 -10.4309      8.8155    103.1804   1.4149511409e+02   5.3468383481e+01    0.2120601    0.1678206 -75.81  0.001123364    1.027    0.026
       127 -10.6137    142.0000    103.0005   1.0176189278e+02   3.3880147622e+01    0.3289703    0.1742577 -36.42  0.001254932    2.034    0.508
       128 -11.9857    151.6145     99.7852   9.8473679460e+01   3.2279658619e+01    0.5310141    0.4197189  58.83  0.002505177    1.316    0.240
       129 -10.9526    169.2560     99.2651   9.4207047376e+01   2.8109681930e+01    0.3372884    0.2200399 -46.42   0.00143837    1.616    0.381
       130  -9.2743    248.9861     98.4818   7.9553275006e+01   9.4693329779e+00    0.2056993    0.1380988  55.06  0.001042989    1.622    0.383
       131  -9.1288    196.6546     96.3140   8.7723440990e+01   2.1889012795e+01    0.1594826    0.1216299 -75.12 0.0007047256    1.714    0.416
       132  -9.1304    186.3362     95.6764   8.9585043028e+01   2.4548148342e+01     0.161768    0.1237103 -75.79  0.000430583    1.715    0.417
       133 -10.5987    175.2176     93.0317   9.1172395223e+01   2.7792168810e+01    0.4608824    0.1687883  39.89  0.001316385    3.603    0.722
       134  -9.0124    111.1913     92.3698   1.0719154866e+02   4.2796330052e+01    0.2225463    0.1399464  53.15 0.0009542257    1.760    0.432
       135  -8.1404    129.6647     91.3123   1.0169461593e+02   3.9070550056e+01    0.1579205    0.1253834 -88.63 0.0006042345    1.685    0.406
       136 -10.8674    142.2658     89.4832   9.7856371545e+01   3.6530295599e+01    0.3511916    0.2703958 -12.04  0.001593928    1.586    0.369
       137 -10.2177    123.8706     87.2484   1.0208585765e+02   4.1181197541e+01    0.3141515    0.2113066 -12.63  0.001266793    2.181    0.541
       138 -11.6282    152.5221     85.5223   9.4156108255e+01   3.4817600717e+01    0.6607487    0.3657509  71.62   0.00215897    3.159    0.683
       139 -10.9905      4.8496     83.7125   1.4009344288e+02   5.8029401994e+01    0.4264755     0.223912  72.34  0.002182104    2.640    0.621
       140  -9.0157     12.4926     80.5075   1.3700287843e+02   5.8315171499e+01    0.1187264   0.09583226 -66.20 0.0008101755    1.046    0.044
       141 -10.5743    143.3098     78.7351   9.4364306704e+01   3.8332499854e+01    0.2838839    0.2568302 -80.08  0.001435812    1.257    0.205
       142 -12.9950    159.1912    106.4409   9.8479223420e+01   2.9157287530e+01    0.9423038    0.6036903  37.87   0.00397865    1.634    0.388
       143 -11.5142    174.3731    154.0585   1.0654223317e+02   1.6354261585e+01    0.3647843    0.3482253 -17.08  0.002041899    1.100    0.091
       144  -9.5426    141.1817     71.8562   9.2750147293e+01   4.0105606439e+01    0.2249963    0.1866304  15.08  0.001084419    1.349    0.259
       145 -10.9569    129.7757     69.6904   9.5003851145e+01   4.3221709145e+01    0.3523805    0.3401247  76.52  0.001902018    1.124    0.110
       146  -9.8283      6.6085     69.7838   1.3721139878e+02   6.0986108921e+01     0.167981   0.09428857 -77.55 0.0009528005    1.707    0.414
       147  -8.4341    159.3338     67.6833   8.7168510760e+01   3.6284566141e+01    0.1611117    0.1229706 -75.67 0.0007047654    1.692    0.409
       148  -8.9421    165.6701     69.6854   8.6409460193e+01   3.4321317234e+01    0.1638827    0.1196508  23.25 0.0006604937    1.677    0.404
       149 -10.3741    139.7401     64.3754   9.0703120138e+01   4.1770030760e+01    0.3002855    0.1940959  42.96  0.001312189    1.519    0.342
       150  -9.0557    122.4923     60.5057   9.3922230490e+01   4.6542793676e+01    0.1517603    0.1429719  18.31 0.0001216263    1.014    0.014
       151  -9.1962    245.3125     54.6402   6.9551065165e+01   1.6608686096e+01    0.1494563   0.09212043 -59.93 0.0006258768    1.747    0.428
       152  -9.4715    120.7185     51.5739   9.1296775464e+01   4.8447020796e+01    0.2985154    0.1339871  47.03  0.001140269    2.112    0.526
       153  -9.1558    125.3429     26.0118   8.0688707350e+01   5.0940725611e+01    0.2388708   0.08583893 -46.28 0.0007050961    4.449    0.775
       154 -10.5646     83.8239    244.8135   1.3881246533e+02   1.5672551514e+01    0.2966668    0.1848784  54.94  0.001888954    1.211    0.174
