#   1 NUMBER                 Running object number                                     
#   2 MAG_AUTO               Kron-like elliptical aperture magnitude                    [mag]
#   3 X_IMAGE                Object position along x                                    [pixel]
#   4 Y_IMAGE                Object position along y                                    [pixel]
#   5 X_WORLD                Barycenter position along world x axis                     [deg]
#   6 Y_WORLD                Barycenter position along world y axis                     [deg]
#   7 A_WORLD                Profile RMS along major axis (world units)                 [deg]
#   8 B_WORLD                Profile RMS along minor axis (world units)                 [deg]
#   9 THETA_WORLD            Position angle (CCW/world-x)                               [deg]
#  10 FWHM_WORLD             FWHM assuming a gaussian core                              [deg]
#  11 ELONGATION             A_IMAGE/B_IMAGE                                           
#  12 ELLIPTICITY            1 - B_IMAGE/A_IMAGE                                       
         1 -15.1427      7.7399    146.8433   1.4348631447e+02   4.3488068342e+01     5.789922     1.611417 -77.76   0.02150049    3.726    0.732
         2 -13.3165    195.1445     30.1034   6.8942285943e+01   3.2969186772e+01     1.347265      1.17147  61.10  0.006899396    1.161    0.138
         3 -13.5541    210.6185     10.3592   6.2256934190e+01   3.1522850780e+01     1.200942    0.9106774  40.14  0.007078355    1.695    0.410
         4 -11.6892      2.3832     10.6564   1.1614238548e+02   7.0790485679e+01    0.5793831    0.1196786 -43.87  0.002619568    3.456    0.711
         5 -12.3899    141.5110    248.8198   1.2808231142e+02   3.5728877654e+00    0.7156278    0.3264487  38.79  0.003423416    1.999    0.500
         6 -11.9874    245.1189    246.2499   1.0860679962e+02  -1.3013585898e+01    0.5044559     0.333206  -0.73  0.003136546    1.529    0.346
         7 -11.3199    106.6163    247.0465   1.3433536670e+02   9.6226739455e+00    0.3547138     0.197294  29.07  0.001688841    2.710    0.631
         8 -10.9579    100.9955    245.7743   1.3522401309e+02   1.0738839812e+01    0.3335584    0.1923732 -83.16  0.001469815    2.112    0.527
         9  -9.8604     99.6821    249.3403   1.3584071261e+02   1.0301272922e+01     0.230157    0.1544911  65.00 0.0009788556    1.292    0.226
        10 -11.1966     97.4710    245.9336   1.3588275637e+02   1.1259113745e+01    0.4169679    0.2117767 -62.00   0.00225162    2.159    0.537
        11  -9.5528     66.9457    250.2566   1.4167611300e+02   1.4951146745e+01    0.1615434    0.1197982  62.03 0.0004314929    1.101    0.091
        12 -10.6765     46.1849    248.6764   1.4503245891e+02   1.7991740489e+01    0.3236935    0.1648562  81.71  0.001433055    1.871    0.465
        13 -10.7736     29.1717    249.8338   1.4785355221e+02   1.9844009975e+01    0.3590304    0.1626964  45.60  0.002192785    1.941    0.485
        14  -9.5858     30.2839    246.6510   1.4747304086e+02   2.0300647110e+01    0.2387082    0.1062837  67.09  0.001013719    1.946    0.486
        15 -11.7086     35.3434    244.3312   1.4650052655e+02   2.0134566472e+01    0.5135937    0.3948376  84.99  0.003909646    1.170    0.145
        16 -11.5519      3.0157    246.6376   1.5168913741e+02   2.3269280635e+01    0.7015468    0.2703143 -89.27  0.004052455    2.218    0.549
        17 -11.2021     15.5243    249.2500   1.4993810552e+02   2.1484628223e+01    0.4176164    0.2389646  45.73  0.002928832    1.714    0.417
        18 -12.4088     11.5999    240.2188   1.5003490963e+02   2.3570699264e+01     0.585943    0.2477555  77.19  0.003151533    2.121    0.529
        19 -11.0445     21.0751    243.9988   1.4876948051e+02   2.1842425111e+01    0.4045955    0.1454355  64.79  0.001576251    2.584    0.613
        20 -10.9394    234.6401    238.8523   1.0920915929e+02  -1.0497323519e+01    0.2773044    0.1842666 -51.35  0.001552541    2.332    0.571
        21 -11.4266    119.6548    238.0103   1.3084109073e+02   9.1367417714e+00    0.2935381    0.2020538 -89.06  0.001661749    1.704    0.413
        22 -14.5234      9.0203    207.3649   1.4840881480e+02   3.0280698612e+01     9.463943          nan  40.61   0.01572165    6.315    0.842
        23 -10.8576    197.7923    247.1488   1.1730394256e+02  -5.7095558204e+00    0.3665412    0.1984667 -22.65  0.001744301    2.808    0.644
        24 -10.9670    229.3118    229.5422   1.0856251176e+02  -8.3847887673e+00    0.5114446    0.3085994 -59.43  0.002250351    3.695    0.729
        25 -11.0145    150.8288    229.4235   1.2360939861e+02   5.3007579200e+00    0.3458249    0.1159901  40.26  0.001311101    2.727    0.633
        26  -8.9472    152.6510    212.9576   1.2068707279e+02   8.0082903636e+00    0.1765732    0.1681482 -85.52 0.0003703237    1.125    0.111
        27  -9.3613     34.8593    202.3518   1.4327798445e+02   2.8621232995e+01    0.1893357    0.1279638  87.81 0.0003560048    1.194    0.163
        28 -11.5825     61.4577    198.0320   1.3757296174e+02   2.6254579072e+01    0.2877486    0.2316658 -55.05 0.0005682106    1.493    0.330
        29  -8.7219     50.0814    196.4774   1.3971395879e+02   2.8073723320e+01    0.1614377    0.1150164  46.17 0.0003381004    1.467    0.318
        30  -9.6039    191.7259    192.7306   1.0900911787e+02   4.3370501295e+00    0.4630869    0.2395575 -66.82  0.001181855    7.149    0.860
        31 -10.1394    173.3271    222.4310   1.1805459251e+02   2.4688496322e+00    0.3196016     0.118343  41.21  0.001259793    2.413    0.586
        32 -11.8531     67.6187    189.8239   1.3530402540e+02   2.7231059219e+01    0.2870088     0.231834 -62.11 0.0006778566    1.314    0.239
        33 -10.8670     77.6086    177.1803   1.3139504049e+02   2.8672964014e+01     0.240288    0.2131647 -76.22 0.0003781686    1.116    0.104
        34 -13.1579     64.4441    175.1746   1.3408353900e+02   3.1002571800e+01     0.499312     0.275036 -46.65  0.001511685    2.216    0.549
        35  -9.7289     97.9687    174.4940   1.2630983627e+02   2.6085304123e+01    0.2890424    0.1908425 -63.21 0.0008536731    1.457    0.314
        36 -11.7848     85.1209    167.9282   1.2823710046e+02   2.9683127937e+01    0.6189691    0.5766184 -85.68   0.00376352    1.099    0.090
        37  -9.8813     97.8491    151.9895   1.2233718148e+02   3.1370885535e+01    0.3027719    0.2579672 -45.70 0.0008262913    1.252    0.201
        38  -9.1650    100.6570    148.0838   1.2087322299e+02   3.1812756889e+01    0.2273183    0.1927728 -31.94 0.0004465229    1.392    0.281
        39 -12.0300     86.4400    151.2189   1.2504184841e+02   3.3417255652e+01    0.2988524    0.2469311 -45.03 0.0007953875    1.308    0.235
        40 -12.2928     67.4705    143.7632   1.2850594613e+02   3.7970355757e+01    0.6993302    0.4685068  71.22  0.002992006    1.790    0.441
        41  -8.5174    192.0518    144.0130   9.8544692295e+01   1.3837731172e+01    0.1798359    0.1710985 -39.42 0.0003419841    1.036    0.035
        42  -9.6735    109.7004    137.0027   1.1625446509e+02   3.2804068482e+01    0.3742024    0.2360079 -29.47  0.001535094    2.253    0.556
        43 -11.2425     57.3267    131.6915   1.2901143756e+02   4.2134188028e+01    0.7903487    0.3158705 -75.82  0.002312546    5.101    0.804
        44 -10.5058     96.7213    134.3997   1.1906946370e+02   3.5714289716e+01     0.266422      0.22469 -33.37 0.0006375267    1.325    0.245
        45  -9.0233     79.7895    131.7867   1.2302078431e+02   3.9043509647e+01    0.1914871     0.156542  84.07 0.0006512242    1.338    0.253
        46  -9.8449     32.9095    132.4743   1.3554803967e+02   4.4615956312e+01    0.1632012    0.1238164  37.69  0.001016914    1.565    0.361
        47 -12.7015     34.8507    231.7989   1.4568726181e+02   2.2592448032e+01    0.2910577    0.2397434 -84.50 0.0007661239    1.314    0.239
        48  -8.9895    106.7055    123.8876   1.1406049063e+02   3.6397379086e+01    0.1965399    0.1769124 -61.05 0.0003346682    1.061    0.058
        49 -10.1549    167.8280    112.8899   9.6132643841e+01   2.5798247864e+01    0.3561928    0.2870516 -82.86 0.0007779864    1.494    0.331
        50  -9.2434    203.2466    111.5903   8.8506148867e+01   1.7729703273e+01    0.2085518    0.1435278  41.93 0.0003929796    1.585    0.369
        51  -8.7642    184.5040     77.4903   8.3254304326e+01   2.8533360440e+01     0.148932    0.1457098  55.95 -0.0001191909    1.078    0.072
        52  -9.6237     43.9862     68.0269   1.1866163362e+02   5.7583323036e+01    0.2434698    0.1704147  37.88 0.0007539556    1.737    0.424
        53  -9.0954     32.7747     62.5637   1.2106405624e+02   5.9749878271e+01     0.144595    0.1112979  35.56  0.000861891    1.630    0.387
        54 -10.4588     15.9710     55.9322   1.2535964076e+02   6.2366468463e+01    0.2080772     0.159724  25.11   0.00072092    1.609    0.379
        55 -14.5735     40.7227    224.0419   1.4405995209e+02   2.3428097030e+01     2.982487     1.546869  35.45  0.006322543    2.313    0.568
        56 -11.7235    125.0005    249.8128   1.3127293258e+02   6.1602820941e+00    0.5625318    0.1880539  39.87  0.002313504    2.767    0.639
        57 -11.0044     82.3611    248.4153   1.3883629202e+02   1.3088220787e+01    0.3284118    0.2347985  27.65  0.001970614    2.094    0.522
