#   1 NUMBER                 Running object number                                     
#   2 MAG_AUTO               Kron-like elliptical aperture magnitude                    [mag]
#   3 X_IMAGE                Object position along x                                    [pixel]
#   4 Y_IMAGE                Object position along y                                    [pixel]
#   5 X_WORLD                Barycenter position along world x axis                     [deg]
#   6 Y_WORLD                Barycenter position along world y axis                     [deg]
#   7 A_WORLD                Profile RMS along major axis (world units)                 [deg]
#   8 B_WORLD                Profile RMS along minor axis (world units)                 [deg]
#   9 THETA_WORLD            Position angle (CCW/world-x)                               [deg]
#  10 FWHM_WORLD             FWHM assuming a gaussian core                              [deg]
#  11 ELONGATION             A_IMAGE/B_IMAGE                                           
#  12 ELLIPTICITY            1 - B_IMAGE/A_IMAGE                                       
         1 -14.8022     68.5960    144.2777   1.0493815996e+02   3.7402184121e+01     5.281122     2.334674  60.95  0.003290536    4.460    0.776
         2 -13.9936      3.5003     11.5954   9.5417967598e+01   7.2615323161e+01     3.362387    0.7515399 -48.14   0.01447785    3.280    0.695
         3 -14.3413    199.0847     39.1933   4.5552160806e+01   3.0856210317e+01     1.540882     1.373831  11.09  0.004523709    1.388    0.279
         4 -14.5065    209.8672     28.1875   4.1423366375e+01   2.9669086761e+01     1.502946     1.108391  10.16  0.002339047    2.047    0.512
         5 -13.1635    234.5894      3.8615   3.3545924697e+01   2.6790607808e+01    0.8179373    0.4235872  76.29  0.004484771    1.797    0.444
         6 -10.3607     60.9751      7.5272   6.5077815365e+01   6.6079637538e+01    0.1834651    0.1080689  42.18 0.0004281091    1.563    0.360
         7 -11.4795    109.1786    201.7409   1.0370679806e+02   1.7968767499e+01    0.4037969    0.2959624  24.39  0.002161946    1.552    0.356
         8 -12.0550    139.6324    248.2468   1.0347282120e+02   4.5542624524e+00    0.4772573    0.3742733 -43.36  0.003141316    1.562    0.360
         9 -13.1240     14.2627    191.9169   1.2358215431e+02   3.2150866741e+01    0.6219159    0.2348484 -60.30  0.002427699    2.593    0.614
        10 -13.2955     50.4846    218.8622   1.1824049584e+02   2.2614267524e+01     1.960766     1.192302  87.84   0.01157098    1.593    0.372
        11 -15.0880     84.6554    222.1742   1.1156495272e+02   1.7474660502e+01     5.813273    0.8493788  42.90   0.01103741    4.672    0.786
        12  -9.5751     32.9173    204.2190   1.2063176566e+02   2.7665876329e+01    0.1823673    0.1282986  69.52   0.00053629    1.193    0.162
        13  -8.9415    161.4124    199.5472   9.1710830696e+01   9.4992468148e+00    0.1375206    0.1258318  24.30 8.028841e-05    1.012    0.012
        14 -10.4062    112.1725    196.8339   1.0231277963e+02   1.8520423678e+01    0.2878064    0.1982114 -14.54  0.001297261    2.514    0.602
        15  -9.9748    128.1065    194.6200   9.8317212569e+01   1.6315659056e+01    0.3562604    0.1916425 -75.26  0.001278593    3.600    0.722
        16 -13.3743     28.2741    216.0155   1.2240965428e+02   2.5688630995e+01      1.46184    0.4932773 -83.10  0.006392876    3.162    0.684
        17  -9.3251     25.0663    194.3560   1.2150589500e+02   3.0601592500e+01    0.2405862     0.104573  46.93  0.001248044    2.056    0.514
        18 -16.7079      7.0646    202.8846   1.2570571561e+02   3.0448479407e+01     8.560661    0.9842315 -74.42   0.02211102    5.836    0.829
        19 -14.4918     57.6796    241.0463   1.1861135090e+02   1.7399936374e+01    0.9192802    0.3893492  60.70  0.004576543    2.366    0.577
        20  -9.0906     70.8326    184.8885   1.1030548549e+02   2.7396059376e+01    0.1854916    0.1372138  68.74 0.0002824508    1.316    0.240
        21  -9.3545     92.1207    184.3113   1.0516439524e+02   2.4452373798e+01    0.1928473    0.1641243  50.99 0.0004896404    1.117    0.104
        22 -16.3154     35.6516    248.8963   1.2311950095e+02   1.8545562229e+01     9.503417     2.719603  27.54   0.02432423   12.097    0.917
        23 -10.9242    150.9071    179.4479   9.0392935671e+01   1.5381966857e+01    0.4536324    0.3037259 -76.87  0.001911507    2.470    0.595
        24 -11.5128    144.2068    178.8029   9.1823501324e+01   1.6760273824e+01    0.4671194     0.313191 -61.28  0.001677718    1.768    0.434
        25 -10.5770     99.1089    180.9065   1.0297121127e+02   2.4133050280e+01    0.3663826    0.2401921  27.89  0.001662659    1.720    0.419
        26  -9.4509    189.0187    178.0058   8.1704257719e+01   8.5175223641e+00    0.3877222    0.2005941 -54.51   0.00151186    2.756    0.637
        27  -9.7652    187.9192    173.2309   8.0958947103e+01   9.6164772764e+00    0.3009224    0.2119984 -62.08  0.001392774    2.023    0.506
        28 -10.1580     46.6704    177.2366   1.1511432967e+02   3.2180106394e+01    0.2683311    0.1761628 -75.70 0.0008599024    1.370    0.270
        29 -12.2108     69.7490    174.5028   1.0921430314e+02   2.9950533082e+01    0.4742135    0.3016789 -34.48  0.002233819    2.299    0.565
        30 -12.1377     73.8470    169.9426   1.0756195221e+02   3.0465186215e+01    0.3201621    0.2743197 -50.34 0.0009947809    1.272    0.214
        31  -9.8930     39.3063    177.0823   1.1682614124e+02   3.3029169801e+01    0.2178274    0.1584853  54.01   0.00053383    1.317    0.241
        32  -9.5877    204.4584    175.9301   7.8117999903e+01   6.0530655942e+00    0.2149395    0.1325672 -36.91  0.000640575    1.591    0.371
        33  -9.7097    196.3158    174.6326   7.9500288330e+01   7.7829964491e+00    0.2672391    0.2294803 -87.58  0.001416028    1.720    0.418
        34 -12.1692     55.1505    146.7046   1.0903403717e+02   3.8513803056e+01     2.362101    0.8408079 -52.30  0.009142107    2.628    0.619
        35 -16.7366      7.6052    244.4563   1.2766663750e+02   2.2259538719e+01     1.520148     1.373291 -86.80   0.01310247    1.475    0.322
        36 -10.1812    230.5897    167.3554   7.1358338671e+01   2.8765867647e+00    0.2692765    0.1093514 -48.23 0.0009567004    3.398    0.706
        37 -11.1757     34.0784    165.9929   1.1692329857e+02   3.6163322550e+01    0.4952005    0.2133436  49.11  0.002265354    2.349    0.574
        38 -13.2737     47.3687    107.5583   1.0454092641e+02   4.9010388845e+01     1.238092     1.092962  72.04  0.006192369    1.282    0.220
        39 -10.3949    156.6226    158.7402   8.4874719265e+01   1.8633724470e+01    0.4114699    0.2981078 -81.08 0.0008500093    2.159    0.537
        40 -13.8134     70.7952    156.1730   1.0628209814e+02   3.4193764191e+01    0.6169576    0.5401965 -30.99  0.003560626    1.357    0.263
        41 -12.2397     89.1763    154.2179   1.0106448648e+02   3.1974609967e+01    0.6239461    0.4603939 -22.51   0.00299995    1.861    0.463
        42 -11.3326    133.8325    144.7053   8.7383031076e+01   2.6263369185e+01     1.187386    0.3190484 -54.61  0.002835043    5.523    0.819
        43 -10.5204    174.6131    149.0198   7.8599964825e+01   1.7013993178e+01    0.2958324    0.2860359 -80.17 0.0009080853    1.172    0.147
        44  -8.8215    112.5331    150.5269   9.4156915332e+01   2.8932570112e+01    0.1492211    0.1435907  86.00 9.937279e-05    1.036    0.035
        45 -10.2161    187.5072    152.1040   7.6491678819e+01   1.3765356316e+01    0.2346566    0.2182064  75.17  0.001030208    1.297    0.229
        46 -10.9041     38.7483    146.2475   1.1341338916e+02   4.0432797032e+01    0.3231519    0.2314898  58.32 0.0007900397    1.458    0.314
        47 -10.9259    102.9806    139.4194   9.4434789182e+01   3.3267726904e+01    0.5776071    0.3718688 -19.74  0.002275287    2.545    0.607
        48 -12.5121     90.2388    139.4255   9.7982496814e+01   3.5397996043e+01    0.2900413    0.2589775 -39.39 0.0005393397    1.168    0.144
        49 -12.2908     44.1618    130.2101   1.0958639456e+02   4.3806767390e+01    0.5690246    0.3105188 -76.79  0.002406573    1.864    0.464
        50 -10.3388    111.9143    130.1319   8.9904844293e+01   3.3872310014e+01    0.3355807    0.2722111   1.04  0.001541088    1.529    0.346
        51 -11.3354     32.3458    130.1480   1.1300120688e+02   4.4978877479e+01    0.3259926    0.2373674 -50.97  0.001884877    1.321    0.243
        52 -10.9510    135.8245    127.5658   8.2856229412e+01   2.9745804345e+01    0.5743986    0.1909653 -49.19  0.001751414    3.110    0.678
        53  -9.9266    160.7587    128.2146   7.6838193861e+01   2.4291467393e+01    0.3589861    0.2232963 -47.63  0.001515993    1.631    0.387
        54 -11.0763     99.1580    126.0676   9.2579537610e+01   3.7140608391e+01      0.32338    0.2588774 -22.38 0.0009148043    1.459    0.315
        55 -11.0905    119.4975    123.0866   8.6122840261e+01   3.4068426137e+01    0.5932183    0.3896628   2.06  0.002202973    2.720    0.632
        56 -10.5947    135.0000    118.1364   8.0696547640e+01   3.2026981009e+01    0.6217007   0.09370656 -43.95  0.001269422    6.721    0.851
        57 -10.2636    134.5835    105.3415   7.7395987328e+01   3.4913862483e+01    0.4752614    0.1511885 -45.33  0.001428268    3.129    0.680
        58  -9.9423    108.0377    119.0138   8.8344246729e+01   3.7212567987e+01    0.2178441    0.2119185 -34.95  0.001177222    1.015    0.014
        59 -11.9523     35.2099    118.3392   1.1035407920e+02   4.7602448465e+01    0.3539694    0.2351307 -45.91  0.001405588    1.454    0.312
        60 -10.6147    106.0726    130.8471   9.1699434218e+01   3.4772826363e+01    0.3468416    0.3073003 -75.40  0.001131235    1.191    0.160
        61  -9.5445    168.2639    113.1249   7.1258090108e+01   2.5756413795e+01     0.297574    0.2142433  84.36   0.00122327    2.140    0.533
        62 -11.6813     18.3191    109.2056   1.1416607390e+02   5.1186402297e+01    0.4925479    0.2028907 -72.15   0.00220865    2.126    0.530
        63 -10.8807    116.8560    109.4837   8.3379842217e+01   3.7703029648e+01    0.5468572    0.3403548  47.02  0.002343312    1.691    0.409
        64 -10.0739    205.5037    110.1818   6.2903304220e+01   1.7961956648e+01    0.3108771    0.2135769  40.90 0.0009299121    1.577    0.366
        65 -11.7848    242.4613    101.9940   5.4910976368e+01   1.1635974777e+01    0.3375337    0.2249718 -53.95  0.001668183    1.574    0.365
        66 -11.1086    138.6010    170.3232   9.1531558907e+01   1.9620649650e+01    0.4257117    0.2791601  47.25  0.001958159    1.523    0.343
        67 -10.5428     33.2997     99.6518   1.0765172795e+02   5.2292107763e+01    0.2524384    0.1486514 -73.85  0.001244884    1.716    0.417
        68  -9.4074     29.1938     98.6456   1.0884783885e+02   5.2882803920e+01    0.1645157    0.1207998  -4.77 0.0009412355    1.665    0.399
        69 -13.0787     82.2742    161.1537   1.0406318055e+02   3.1353843723e+01     1.404334     0.590119  57.34 0.0004153487    3.864    0.741
        70  -9.2001     74.8978     84.7004   8.9607829319e+01   5.0764466878e+01    0.1857038    0.1772863   2.11 0.0003469243    1.097    0.088
        71  -9.9812    158.1799     81.8583   6.4884105864e+01   3.4191441376e+01    0.2312381    0.2118231 -69.11 0.0005343952    1.174    0.148
        72  -8.8229     70.7144     82.2504   9.0351686041e+01   5.1936039088e+01    0.1269798    0.1120152  78.34 0.0006846582    1.470    0.320
        73  -8.9552    184.3824     77.3036   5.8226637401e+01   2.8685948126e+01     0.157336    0.1155422  22.56 0.0007022214    1.784    0.439
        74  -9.1113     56.2614     66.4189   9.0874635779e+01   5.7333551644e+01    0.1737354    0.1259601  41.00 0.0005377804    1.634    0.388
        75 -10.5334    113.4473    206.7463   1.0345827390e+02   1.6248795991e+01    0.3233902    0.2298184  85.45  0.001222295    1.776    0.437
        76 -11.8467    194.4748    197.2529   8.4328740792e+01   4.1001707234e+00     1.245175    0.6738049 -62.72  0.003973015    5.448    0.816
        77 -12.4474    203.6761    199.1237   8.2832935395e+01   2.2121141207e+00    0.6886526    0.3211951  32.13  0.003019311    2.122    0.529
        78 -11.0635     13.3514     59.7931   1.0645676503e+02   6.2827966100e+01    0.2471467    0.2036285 -65.19 0.0004755026    1.263    0.208
        79 -11.5250    144.0464     48.7603   5.7817239535e+01   4.3113551301e+01    0.4907003    0.3256184 -84.34  0.001398472    2.368    0.578
        80 -10.2733    146.4864     42.9911   5.5429788912e+01   4.3336427758e+01    0.2681127    0.2038028  59.15 0.0003324155    1.258    0.205
        81 -11.1535     19.5714     33.0468   9.5431396903e+01   6.7721771099e+01    0.2458314     0.169053  20.66  0.001232249    1.602    0.376
        82 -11.7377     11.2210     30.9580   9.8857926248e+01   6.8729620801e+01    0.2507002    0.1470065  28.02  0.001404026    2.042    0.510
        83  -9.4942     69.0036     52.6653   8.1306457994e+01   5.8176966573e+01    0.1876425     0.162853  18.98  0.000662392    1.159    0.137
        84 -13.7277    189.2927     46.6017   4.8930299939e+01   3.2239008358e+01     1.197851    0.8419667  35.97 0.0008776803    1.736    0.424
        85  -9.6697    189.6919     15.0199   4.0334457874e+01   3.5983526710e+01    0.1791312    0.1642551 -56.18 0.0005821519    1.133    0.117
        86 -14.9500     49.5924    196.7777   1.1645252455e+02   2.7412897995e+01      3.19317      1.94143  64.12  0.008436237    1.563    0.360
