#   1 NUMBER                 Running object number                                     
#   2 MAG_AUTO               Kron-like elliptical aperture magnitude                    [mag]
#   3 X_IMAGE                Object position along x                                    [pixel]
#   4 Y_IMAGE                Object position along y                                    [pixel]
#   5 X_WORLD                Barycenter position along world x axis                     [deg]
#   6 Y_WORLD                Barycenter position along world y axis                     [deg]
#   7 A_WORLD                Profile RMS along major axis (world units)                 [deg]
#   8 B_WORLD                Profile RMS along minor axis (world units)                 [deg]
#   9 THETA_WORLD            Position angle (CCW/world-x)                               [deg]
#  10 FWHM_WORLD             FWHM assuming a gaussian core                              [deg]
#  11 ELONGATION             A_IMAGE/B_IMAGE                                           
#  12 ELLIPTICITY            1 - B_IMAGE/A_IMAGE                                       
         1 -10.5835     24.7062     16.7414   1.1364364380e+02   6.8961514176e+01    0.3497365    0.3150723 -40.15 0.0009099707    1.433    0.302
         2  -9.1628     31.3087     11.4202   1.0821157750e+02   6.9077036962e+01    0.3677967    0.1822753 -21.42  0.001871326    2.128    0.530
         3  -8.3093     76.4797      7.2574   8.9009025629e+01   6.2761814711e+01    0.2607877    0.1331239  35.25  0.001288686    1.887    0.470
         4  -9.4464     74.4896     13.0896   9.2361005175e+01   6.2464673258e+01    0.4917627    0.2695665 -15.11  0.002387386    1.863    0.463
         5  -8.6911     79.9349     12.5995   9.0412958860e+01   6.1520548466e+01    0.2594981    0.2407722 -24.66  0.001100894    1.293    0.227
         6  -9.6769     64.0563     14.2756   9.6451962403e+01   6.4114644867e+01    0.3865189    0.2252535  23.80 0.0007715054    1.827    0.453
         7  -9.3251    133.3288     13.7869   7.7695219236e+01   4.9745415171e+01    0.4771411    0.1991738  56.11  0.001960771    2.109    0.526
         8  -8.4079     97.1598     12.1664   8.5287501031e+01   5.8141454428e+01    0.2518141    0.1838102  27.25 0.0007842661    1.270    0.213
         9  -8.6351    105.6955     10.6067   8.2457596234e+01   5.6471251296e+01    0.2224834    0.2103801  39.65 0.0006924836    1.161    0.138
        10  -8.7398    137.1008      8.5065   7.5029006220e+01   4.9330551214e+01    0.3440763    0.1598479 -14.65  0.001430725    2.423    0.587
        11 -10.5427     20.2731      8.7276   1.1203523422e+02   7.0646163934e+01    0.2197425    0.1704987  -6.53 0.0003012735    1.170    0.145
        12  -7.3949     65.2571      9.3265   9.3682225002e+01   6.4524111689e+01     0.127336   0.08277287   5.39 0.0002437809    1.555    0.357
        13  -8.1251      1.9184      8.3057   1.2101127331e+02   7.2220457950e+01    0.1859544    0.1252896 -48.08  0.001320483    1.367    0.268
        14  -8.3004    128.4842      7.4803   7.6254359195e+01   5.1517458908e+01    0.1381335     0.123098  35.59 0.0002865445    1.009    0.009
        15  -7.9875    118.8429      7.3892   7.8163846320e+01   5.3805675940e+01    0.2035223    0.1048152  47.82  0.000855364    1.718    0.418
        16  -8.6310     56.3969      4.9900   9.4717571985e+01   6.6485494556e+01    0.3483491     0.183832   2.32  0.001633941    2.513    0.602
        17  -8.1526     84.3624      6.3220   8.6215852946e+01   6.1349849745e+01    0.1429318   0.08339073  22.53 0.0007041519    1.780    0.438
        18  -9.9791     49.1077      4.6430   9.7320088039e+01   6.7646950325e+01    0.2447679    0.1719899   0.04 0.0003638557    1.254    0.203
        19  -7.9204     12.9021      5.2434   1.1398132283e+02   7.1856366285e+01    0.2305518    0.1059846 -24.72   0.00123904    2.168    0.539
        20  -9.2030    110.9306      4.2498   7.8594713353e+01   5.5904857754e+01    0.3425773    0.1943022 -30.81 0.0007003932    1.857    0.461
        21  -8.3230     68.4835      4.5534   9.0274290270e+01   6.4502391191e+01     0.252799    0.1113263 -23.39  0.001199977    2.136    0.532
        22  -8.7807    125.3607      3.9714   7.5506521888e+01   5.2574071496e+01    0.3021759    0.1505813  46.61  0.001186546    1.777    0.437
        23  -8.0135    153.7771      3.3807   7.0471597689e+01   4.5615535837e+01    0.1937709     0.110785  55.08            0    1.548    0.354
        24  -8.2296    182.1507      2.1549   6.6338942953e+01   3.8470006330e+01      0.20282    0.1698518  52.39 0.0003955404    1.164    0.141
        25  -7.8314    143.1429      2.1096   7.1676215204e+01   4.8391852474e+01    0.1717956    0.1558241 -61.11 0.0003361389    1.244    0.196
        26  -7.8874      3.1683      1.2922   1.1712935726e+02   7.3246564706e+01    0.1216533   0.08796121  19.73 0.0003481404    1.646    0.393
        27  -7.8009    137.8245    235.1895   1.3044504716e+02   9.7820078051e+00    0.1547153      0.12021  32.15 0.0006323359    1.350    0.259
        28  -8.9870    249.1994    247.7023   1.1351045235e+02  -9.0330775249e+00    0.4264492    0.1270348 -26.11  0.001943165    4.182    0.761
        29  -8.0778    232.8509    250.6604   1.1652970344e+02  -6.9701089343e+00    0.1542667    0.0819023  43.75 0.0004072436    1.714    0.417
        30  -9.2330    212.7859    250.4241   1.1972610276e+02  -3.9643235813e+00    0.2787642   0.08313861  40.49  0.001286701    2.566    0.610
        31  -9.9615    200.9086    248.9821   1.2147210350e+02  -1.9922527468e+00    0.3889784    0.1964725  25.94  0.002116835    2.142    0.533
        32  -8.4515    183.0312    250.4932   1.2463338029e+02   6.0661002269e-01    0.1778903   0.08707468  42.10   0.00102373    1.563    0.360
        33  -8.1186    123.9253    250.4899   1.3448816709e+02   9.6913058871e+00    0.2430569   0.08967879  38.65  0.001180743    2.503    0.600
        34  -7.0910     26.2907    250.6756   1.4987912460e+02   2.2215133926e+01    0.1025751   0.04877709  66.73 0.0005023606    1.612    0.380
        35  -7.2308    129.6624    235.2711   1.3187839939e+02   1.1046743288e+01     0.117365   0.07405805  62.47 0.0006988837    1.602    0.376
        36  -7.8587     92.3263    234.3481   1.3823619883e+02   1.6731595405e+01   0.09674416   0.08759757   7.27 0.0007049471    1.753    0.429
        37  -9.3230    247.4703    231.5901   1.1125872745e+02  -7.2237477084e+00    0.3044044    0.1958395 -43.14  0.001595998    2.452    0.592
        38  -7.2995    152.7071    232.6676   1.2752522038e+02   7.7710655127e+00    0.1113163   0.08547852  16.56 0.0007023584    1.634    0.388
        39  -7.9957    194.8984    229.1745   1.1965685414e+02   1.3203863544e+00    0.1701355    0.1157625  26.06 0.0006435186    1.355    0.262
        40  -7.5854    100.4833    229.4967   1.3635531571e+02   1.6356070358e+01     0.114165   0.09091026  59.76 0.0001230495    1.025    0.025
        41  -8.4625    187.0737    226.8236   1.2067011899e+02   2.9168460719e+00    0.2614858    0.1676677  19.17  0.001489854    1.822    0.451
        42  -7.5030    175.0256    227.7703   1.2292684591e+02   4.7925821808e+00    0.1591095   0.08252321  42.84 0.0002400322    1.565    0.361
        43  -8.7184    246.8236    225.3485   1.1033957177e+02  -6.4839698719e+00    0.3403603    0.1603558  26.93  0.001816336    1.982    0.495
        44  -7.4916     70.1249    225.8743   1.4128546158e+02   2.1155695115e+01    0.1356864    0.1189388  55.61 0.0008431096    1.319    0.242
        45  -7.6117    223.5394    224.9510   1.1410931479e+02  -2.8212947708e+00    0.1567492   0.09029941  -0.77 0.0008070858    2.391    0.582
        46  -7.2891    200.3103    223.3478   1.1783002335e+02   1.1656116165e+00    0.1240569   0.08213706  14.59  0.000280613    1.710    0.415
        47  -7.5208    206.4699    222.4722   1.1662382852e+02   2.5430002179e-01    0.1228169   0.09660564  26.06 0.0008087835    1.048    0.046
        48  -8.6513    238.3296    221.2936   1.1104765952e+02  -4.7443476108e+00    0.1740424    0.1216237  22.69 0.0004987218    1.154    0.133
        49  -7.8758    239.6271    218.1770   1.1030899126e+02  -4.6006823162e+00    0.1709968    0.1150773  16.47   0.00056836    1.311    0.237
        50  -8.1701    130.1034    220.8597   1.3008037451e+02   1.3222792100e+01    0.1744602    0.1412075  14.70  0.001114989    1.691    0.408
        51  -7.5537     51.5009    221.4957   1.4411774845e+02   2.4242228630e+01    0.1069033   0.08294708  71.66 0.0008099095    1.062    0.058
        52  -8.4925    182.4123    219.8570   1.2045179950e+02   4.6410268074e+00    0.2405219    0.1494954  35.21 0.0008198961    1.388    0.279
        53  -7.3996     40.3658    220.2690   1.4590843765e+02   2.5750882588e+01   0.08473422   0.08302229 -63.35 0.0006995298    1.658    0.397
        54  -7.2201    217.4681    219.4543   1.1424527955e+02  -1.1874597356e+00    0.1217935   0.09689148  24.76 0.0001325629    1.003    0.003
        55  -7.6937    173.5022    219.0242   1.2192773209e+02   6.2740371178e+00    0.1492774    0.1025115  -5.01  0.000489165    2.223    0.550
        56  -8.4484    247.0477    215.3043   1.0860172428e+02  -5.4391260694e+00    0.2013665    0.1570497 -16.99 0.0006535103    1.337    0.252
        57  -8.5303    248.0060    211.5145   1.0778531700e+02  -5.1681292860e+00    0.2293972    0.1518081  18.99  0.001437203    1.298    0.230
        58  -7.7323    203.8232    216.3938   1.1611120998e+02   1.4717639098e+00    0.1799495   0.09466716  32.97 0.0005635845    1.709    0.415
        59  -7.5511    210.4939    215.4236   1.1478625062e+02   4.7211271419e-01    0.1251487   0.09802233  24.52 0.0001546839    1.066    0.062
        60  -8.3804    193.9367    215.1635   1.1766226700e+02   3.3180992086e+00    0.2595494     0.148373  35.65 0.0008710717    1.505    0.336
        61  -7.5160    179.3615    214.8135   1.2022921900e+02   5.8737355565e+00    0.1565329    0.1140019 -22.90 0.0004187374    1.697    0.411
        62  -8.6589    232.2129    212.0946   1.1050227477e+02  -2.7157334476e+00    0.3419158     0.174983 -11.43  0.001609723    2.802    0.643
        63  -8.1606    122.1278    213.1157   1.3057985059e+02   1.5782102497e+01     0.180783    0.1541208  31.98  0.000786126    1.333    0.250
        64  -8.2330    186.0905    210.8497   1.1838310046e+02   5.2738532352e+00    0.2642326    0.1640791  -9.59  0.001196619    2.611    0.617
        65  -7.7406     54.6642    210.6843   1.4271354326e+02   2.5803047077e+01   0.09446087   0.08635239 -44.61 0.0005222572    1.694    0.410
        66  -7.8050    162.9530    207.9755   1.2220072739e+02   9.7483169441e+00    0.1893021    0.1413729  16.61 0.0004557858    1.621    0.383
        67  -7.7691    204.8159    206.1711   1.1423362537e+02   2.6596060957e+00    0.2856326    0.1500551  -9.02  0.001078192    4.197    0.762
        68  -9.2988    124.0151    205.9911   1.2929871066e+02   1.6700267193e+01     0.176425    0.1493179  57.24 -0.007547014    1.004    0.004
        69  -7.4242    246.7691    205.0136   1.0683167545e+02  -4.2342486067e+00    0.1464838   0.09210131 -24.07 0.0008680527    1.603    0.376
        70  -8.6628    227.1548    203.6914   1.0988798543e+02  -8.5160733746e-01    0.3533973    0.1533039 -15.75  0.001238372    4.786    0.791
        71  -7.8273    215.8318    205.3778   1.1214904286e+02   8.6013802640e-01    0.1828651   0.09746131  32.99  0.000936189    1.689    0.408
        72  -8.1139    117.3463    205.0570   1.3045202129e+02   1.7944819015e+01    0.2021281    0.1650477  24.53 0.0005843997    1.536    0.349
        73  -7.2820     48.5088    205.4839   1.4338569282e+02   2.7501318346e+01    0.1106698   0.08652569  75.61 -3.42562e-06    1.036    0.035
        74  -8.0378    175.5573    204.5165   1.1930049367e+02   8.0600788330e+00    0.1277742    0.1094937  34.75 0.0001192018    1.021    0.020
        75  -7.9669    195.7141    200.7141   1.1493968081e+02   5.0275781992e+00    0.2516441    0.1357974  33.27  0.001248438    1.755    0.430
        76  -8.0603    243.4651    198.4972   1.0619030409e+02  -2.9297466702e+00    0.2058787    0.1065802 -16.50 0.0007776126    2.224    0.550
        77  -8.4788    166.2255    197.2007   1.1987084600e+02   1.0878974294e+01     0.286213     0.161308  31.89 0.0009774213    1.882    0.469
        78  -8.2231    250.5241    199.4433   1.0520276466e+02  -4.1878058482e+00    0.2274325     0.110084 -28.21   0.00108305    2.078    0.519
        79  -8.2007    192.7588    194.2694   1.1435605953e+02   6.5059370682e+00    0.2798838    0.1790599   8.74  0.001350867    2.225    0.551
        80  -7.4892    124.3088    193.3494   1.2748312076e+02   1.8907389247e+01    0.1208462    0.1014917  -1.72 0.0005833388    1.711    0.415
        81  -7.6406    150.7953    192.3965   1.2208531772e+02   1.4461960219e+01    0.1932734    0.1127357  35.39  0.000953794    1.716    0.417
        82  -7.5267     90.0714    192.2333   1.3415489880e+02   2.4534273667e+01    0.1591815   0.09317352  42.55 0.0006740931    1.620    0.383
        83  -7.5327    245.6744    190.6668   1.0435817126e+02  -2.3397324557e+00    0.1333883   0.08269879  11.13   0.00070512    1.712    0.416
        84  -7.6934    224.5266    189.9615   1.0782747192e+02   1.3896788658e+00    0.1828087    0.1028719  -6.04 0.0008099486    2.593    0.614
        85  -7.9959     64.7322    189.5316   1.3885251926e+02   2.8566990057e+01    0.1954343    0.1116047  35.49 0.0009253692    1.969    0.492
        86  -7.3212    231.4417    184.4935   1.0558108794e+02   9.0122148571e-01    0.1295373    0.1094907  12.60 0.0008077045    1.013    0.013
        87  -7.8646    165.3968    182.7176   1.1755289489e+02   1.3443216422e+01    0.1792875    0.1276656 -30.02 0.0009481084    1.665    0.400
        88  -7.4693    249.9418    182.2398   1.0202769903e+02  -2.0058559096e+00    0.1555371   0.09679046  39.82 0.0005149203    1.546    0.353
        89  -7.4786    130.6241    182.6825   1.2458155893e+02   1.9799213020e+01    0.1309304     0.104065   6.47  0.000702936    1.805    0.446
        90  -7.5492    156.3508    181.3065   1.1911116057e+02   1.5382636682e+01    0.1359784    0.1032401  12.24 0.0007042509    1.708    0.415
        91  -7.5626     96.7538    178.5856   1.3100456466e+02   2.6210183438e+01    0.1206862   0.09597474 -35.49 0.0006925727    1.720    0.419
        92  -7.3889    121.5555    177.5089   1.2563833155e+02   2.2363606567e+01    0.1312703    0.1190306  66.02 0.0002346477    1.006    0.006
        93  -7.6225     69.0264    178.0000   1.3670397517e+02   3.0319272828e+01    0.1861193   0.06455376  38.21 0.0005838907    2.890    0.654
        94  -7.9083     46.8404    175.6462   1.4099131646e+02   3.3548724571e+01    0.1572136    0.1320561 -78.48  0.001118899    1.197    0.164
        95  -7.2636    137.6817    175.6763   1.2196086282e+02   1.9857967437e+01    0.1313656    0.1069199   3.09 0.0007044501    1.671    0.402
        96  -8.3501    183.5818    172.6007   1.1207370234e+02   1.1668598552e+01    0.3606059    0.2183083 -12.51   0.00150684    2.734    0.634
        97  -8.0177    149.1612    174.5957   1.1938823202e+02   1.7939033473e+01    0.1971008    0.1211317  33.96 0.0009406236    1.720    0.419
        98  -7.8035     14.3171    170.3315   1.4701272631e+02   3.7939249318e+01     0.102695   0.07275497 -56.11 0.0006084383    1.687    0.407
        99  -8.6222    177.3332    167.3355   1.1227324555e+02   1.3792366409e+01    0.2201817    0.1614179  10.31  0.001096057    1.720    0.419
       100  -7.8692    199.2163    166.5585   1.0784578460e+02   9.5883422363e+00    0.1989807    0.1197079  33.22 0.0009366152    1.661    0.398
       101  -8.1927    168.7499    163.7704   1.1330023116e+02   1.6124782222e+01    0.2626312    0.2083559  -1.05  0.001187964    1.551    0.355
       102  -7.7390    122.9686    162.5332   1.2281744106e+02   2.5085483156e+01    0.1854005    0.1212127  18.59 0.0008090051    2.482    0.597
       103  -7.4247    160.4824    159.5389   1.1416591243e+02   1.8544509307e+01    0.1408449    0.1323498  35.52 0.0001059938    1.023    0.022
       104  -7.7700    168.9885    151.7984   1.1078187518e+02   1.8259430248e+01    0.2391658    0.1621678  18.18  0.001039946    1.986    0.496
       105  -7.4694    205.6644    151.6816   1.0346952850e+02   1.0704458368e+01     0.149531    0.1050617  11.98 0.0007048902    1.700    0.412
       106  -7.0878    145.6721    151.6747   1.1574904818e+02   2.2989806576e+01    0.1438871    0.1136764   2.80 0.0007049915    1.698    0.411
       107  -7.6946    107.0147    151.7578   1.2448194847e+02   3.0098356891e+01    0.1775657     0.111602  43.73  0.000703799    1.580    0.367
       108  -8.1598    133.5485    148.1239   1.1772550096e+02   2.6058575313e+01    0.2603305    0.1386755 -52.85  0.001123053    1.967    0.492
       109  -7.3830    119.6655    148.7163   1.2100579528e+02   2.8522767264e+01    0.1344222    0.1122384  -1.25 0.0007010676    1.620    0.383
       110  -9.3677     66.9268    144.6039   1.3269124614e+02   3.7712446945e+01    0.4562883    0.2745286  73.83  0.002271843    2.049    0.512
       111  -8.5341    139.3185    138.3544   1.1436026771e+02   2.6924012206e+01     0.378552    0.2535924 -12.51  0.001547963    2.590    0.614
       112  -7.9634     40.7950    140.3744   1.3829501545e+02   4.1743219122e+01    0.1439689    0.1191078  16.46 0.0005435697    1.674    0.403
       113  -8.2543     15.4687    139.0919   1.4403064444e+02   4.4389634668e+01    0.2853388    0.1548097 -28.41  0.001349004    4.011    0.751
       114  -7.5590    107.5024    137.4358   1.2165699860e+02   3.3084989362e+01    0.1367301    0.1317764 -80.41 0.0001914013    1.048    0.046
       115  -7.5376    125.0335    135.4695   1.1705761479e+02   3.0310421052e+01    0.2019352    0.1282601  19.12 0.0007263642    2.579    0.612
       116  -7.8084     55.0374    135.2985   1.3415089724e+02   4.1269963041e+01    0.1696313    0.1541427  88.04 0.0007702839    1.101    0.092
       117  -8.4167      4.8648    134.3601   1.4598613974e+02   4.6220861047e+01    0.2744491    0.1356034 -31.68  0.001276052    4.290    0.767
       118  -8.1006     68.4852    133.4919   1.3053179999e+02   3.9973155367e+01     0.130116    0.1149669 -70.87 -1.47289e-05    1.060    0.056
       119  -8.3073     24.1379    129.6695   1.4094814840e+02   4.5708459343e+01    0.2277723    0.1419373 -12.09  0.001190263    3.142    0.682
       120  -7.5630     40.6737    129.6791   1.3688029430e+02   4.4125957597e+01    0.1218236    0.0841593 -43.60 0.0007047337    1.684    0.406
       121  -7.3121    144.3106    126.3200   1.1047271694e+02   2.8354840802e+01    0.1497331     0.118685   0.90 0.0004019244    1.645    0.392
       122  -8.3568    128.9544    124.8907   1.1375752952e+02   3.1775408293e+01     0.207949    0.2057838  -6.69   0.00029893    1.057    0.054
       123  -9.4867     13.5734    120.2523   1.4242558829e+02   4.8638250519e+01    0.4175574    0.1781145 -42.84  0.001976107    3.146    0.682
       124  -9.3449    241.9460    120.3052   8.9916016053e+01   8.1340409032e+00    0.2864743    0.2459923  45.02 0.0004061175    1.261    0.207
       125  -7.5143     84.6722    121.6428   1.2418968157e+02   4.0306454216e+01    0.1403014    0.1037308 -27.14  0.000643279    1.782    0.439
       126  -7.2433    180.5058    120.5159   1.0112953125e+02   2.1562659577e+01    0.1542417    0.1410022   9.15 9.877994e-05    1.112    0.101
       127  -7.5159    119.3514    119.2860   1.1479521226e+02   3.4832357483e+01    0.1451453    0.1165244  -1.08 0.0007021649    1.662    0.398
       128  -7.6395     99.3218    119.3290   1.1989194553e+02   3.8450538107e+01    0.1416591    0.1105563 -19.19 0.0007048809    1.692    0.409
       129  -7.5321     59.6152    113.7104   1.2930214013e+02   4.5563439631e+01     0.130327   0.09486751 -29.95 0.0007013435    1.752    0.429
       130  -9.0465      2.4382    109.6551   1.4402433454e+02   5.1719750041e+01    0.3181889    0.1600965 -39.43   0.00176528    2.536    0.606
       131  -7.9852    133.7137    106.8008   1.0812486481e+02   3.4562995217e+01    0.2443449    0.1903555 -20.36  0.001175052    1.496    0.332
       132  -7.9361    124.0216    107.3282   1.1067096878e+02   3.6444880960e+01    0.3682297    0.1851145  24.99   0.00110964    4.263    0.765
       133  -9.2420     15.2988    104.9498   1.3999943532e+02   5.1877791043e+01    0.4529159    0.2058875 -33.27  0.002029122    3.681    0.728
       134  -7.6881    188.4832    106.5331   9.5935934653e+01   2.2249493825e+01    0.1535819    0.1439318   5.91 -1.343594e-05    1.062    0.058
       135  -7.9376     92.9044    104.0477   1.1804703652e+02   4.2887512045e+01    0.2298755    0.1726159 -15.53  0.001135492    1.800    0.444
       136  -9.4833    244.8606    100.5847   8.4737145359e+01   1.0461301921e+01    0.2986472    0.2001418 -58.56  0.001069113    1.955    0.489
       137  -9.7273      8.3914     96.7865   1.4076637632e+02   5.4149065557e+01    0.4042682    0.2125607 -14.59  0.002055198    3.431    0.709
       138  -9.3196     20.0515     92.2908   1.3668627589e+02   5.4314724637e+01    0.3722093    0.1266142 -53.01  0.001733717    2.294    0.564
       139  -8.6109     43.9258     92.0288   1.2947213442e+02   5.2215765085e+01    0.3720365    0.2011224 -29.68  0.001703036    2.724    0.633
       140  -7.4394     53.4217     92.4840   1.2670675766e+02   5.1060163069e+01    0.1307821    0.1100227 -57.12 0.0001136229    1.012    0.012
       141  -7.7500    130.0218     97.4786   1.0652940242e+02   3.7236443263e+01    0.2169321    0.1296835  23.59 0.0008102552    2.581    0.613
       142  -7.7061    110.0229     91.2340   1.1000019326e+02   4.2549133361e+01    0.1869839    0.1235635  42.78 0.0008697687    1.595    0.373
       143  -8.2557     96.3814     90.4242   1.1355101790e+02   4.5224329153e+01    0.3176799    0.2258385  -3.58  0.001444714    2.099    0.524
       144  -7.6181     57.5939     91.2317   1.2516439913e+02   5.0835733526e+01    0.1978671    0.1028087 -48.22 0.0005387639    1.687    0.407
       145  -8.6347     67.2888     86.0621   1.2095698467e+02   5.0706320144e+01    0.3944681    0.1955023  27.46  0.001734775    2.616    0.618
       146  -9.4340     35.8483     81.9086   1.2980526285e+02   5.5247527264e+01    0.4958571    0.2478428 -27.77  0.002161246    3.195    0.687
       147  -7.2910    127.3189     83.3605   1.0315285481e+02   4.0609993219e+01     0.158086    0.1179621   0.85 0.0007043054    1.766    0.434
       148  -8.3355    184.4982     78.3426   8.8947249733e+01   2.8052867418e+01    0.3018076     0.148844 -32.86 0.0007551953    1.995    0.499
       149  -7.6319    140.9615     79.5410   9.8622001806e+01   3.8310050825e+01    0.2217347    0.1248387  28.78 0.0007634837    2.513    0.602
       150  -8.3362     88.8177     78.6538   1.1239863184e+02   4.8978130127e+01     0.333697    0.2126601  14.99  0.001464108    2.364    0.577
       151  -8.7860     48.6250     76.8960   1.2450213817e+02   5.5009161282e+01    0.3087505    0.2332742 -27.43  0.001609095    1.422    0.297
       152  -9.4228      8.1559     76.8804   1.3767312414e+02   5.8487056595e+01    0.4083689    0.1939893 -44.16  0.001494852    1.946    0.486
       153  -9.0445     29.1853     69.1049   1.2906603939e+02   5.8606497455e+01    0.3960734     0.212336 -19.09  0.001883925    2.938    0.660
       154  -9.3888     24.0529     72.9989   1.3169545970e+02   5.8203948519e+01    0.3904183     0.145388 -52.94  0.001147659    1.999    0.500
       155  -7.8530     23.4966     69.4953   1.3110029315e+02   5.8995954277e+01    0.1814456    0.1630836 -59.99 -0.0001538585    1.146    0.127
       156  -7.9449     75.0914     74.3580   1.1532315448e+02   5.2059660284e+01    0.1800307    0.1702174 -17.18 0.0004801633    1.094    0.086
       157  -8.3566     61.7890     66.9941   1.1742914129e+02   5.5464407083e+01    0.3044316    0.1455792 -44.05 0.0008325385    1.816    0.449
       158  -9.6225     65.1295     61.3421   1.1456671979e+02   5.6139541023e+01    0.4168381    0.3157967 -19.25  0.002381522    1.385    0.278
       159  -8.2205     80.3448     67.9854   1.1173790457e+02   5.2529686887e+01    0.2010881    0.1554385 -38.02 0.0004023498    1.163    0.140
       160  -8.4455     83.9131     63.9464   1.0932540276e+02   5.2733386504e+01    0.3462975    0.2109306  17.41  0.001523666    2.383    0.580
       161  -8.5364     43.3672     67.6843   1.2384618208e+02   5.7535449353e+01    0.2367043    0.1774088 -15.44  0.001181728    1.543    0.352
       162  -9.5794     17.5947     62.5329   1.3154605387e+02   6.0910220338e+01    0.4781374    0.1951424 -45.83  0.001994656    1.995    0.499
       163  -7.8153    147.8665     63.6411   9.2032468442e+01   3.9482255636e+01    0.2367605    0.1774988  34.31 0.0005601537    1.403    0.287
       164  -8.9379     51.5109     60.4572   1.1895261401e+02   5.8094421940e+01    0.3173161     0.246695  53.99  0.001891337    1.726    0.421
       165  -9.2186     33.4822     60.4878   1.2534852197e+02   6.0019252178e+01    0.2633882    0.2577859 -45.43  0.001555164    1.230    0.187
       166 -10.5344     39.0311     57.2069   1.2241495954e+02   6.0141875625e+01    0.2846667    0.1947923 -34.06  0.001708471    1.336    0.252
       167  -7.6464    111.7742     58.3725   9.9249325726e+01   4.8512931353e+01    0.2058953    0.1301624  35.74 0.0009384356    1.689    0.408
       168  -9.4555      2.8222     55.8009   1.3535055515e+02   6.3234576386e+01    0.4304921     0.243807 -56.79  0.002741389    1.281    0.219
       169  -7.8301     99.4678     53.9919   1.0120285575e+02   5.1746171129e+01    0.2237613    0.1317475 -36.81  0.001034185    1.601    0.376
       170  -7.5901    118.7232     51.4135   9.4959197648e+01   4.8200243791e+01    0.1981401    0.1318151  37.51 0.0004103308    1.544    0.352
       171  -9.1110     75.2350     50.1851   1.0739529090e+02   5.6723530517e+01    0.2427155    0.2063924  -2.96 0.0003474291    1.157    0.136
       172 -10.3305     45.2671     49.0317   1.1755646592e+02   6.1072521555e+01    0.2480388    0.2035704 -21.41 0.0005974947    1.143    0.125
       173  -8.2259    106.6809     48.3804   9.7119906163e+01   5.1248458940e+01     0.257925    0.1969741  -6.47 0.0001999185    1.400    0.286
       174  -7.6507    135.4167     48.5418   8.9837489031e+01   4.4849419166e+01    0.1467439    0.1389018   4.74 8.733152e-05    1.011    0.011
       175  -9.5475     23.5790     47.4173   1.2531409502e+02   6.3527108031e+01    0.3552831    0.2160787  -1.01  0.001812479    2.142    0.533
       176  -9.4109     30.3291     44.7185   1.2183936057e+02   6.3458407009e+01    0.3989944    0.2282288  -9.12  0.002069484    2.462    0.594
       177  -9.9445     10.1341     47.4878   1.3058335764e+02   6.4496223144e+01    0.5675225    0.2521624 -30.75  0.002692688    2.551    0.608
       178  -8.9026      2.0026     45.3134   1.3321789421e+02   6.5406638491e+01    0.2707391    0.1269665 -45.80  0.001596103    1.614    0.380
       179  -9.1319    249.7726     44.1518   7.0180003686e+01   1.7215978948e+01    0.2721115     0.220941 -10.94  0.000654119    1.376    0.273
       180 -10.1729     83.0328     40.2520   1.0112956112e+02   5.7102407883e+01    0.3508131     0.239032  -9.24 -0.000430966    1.642    0.391
       181  -8.2973     93.8531     42.3744   9.8594147934e+01   5.4765117282e+01    0.4519362    0.1675899  38.14  0.001637436    3.103    0.678
       182  -8.2899     37.9977     42.2226   1.1800459856e+02   6.3165340482e+01    0.1566815    0.1141699  39.38 0.0006288521    1.753    0.430
       183  -8.1892     41.3164     40.3082   1.1603499297e+02   6.3156205048e+01    0.1688309    0.1179277  -2.38  0.000998158    1.623    0.384
       184  -7.1239    123.4838     40.5225   8.9830887785e+01   4.8804528344e+01    0.1482886    0.1314423  14.38  0.000232285    1.087    0.080
       185  -9.4640     18.1539     37.7470   1.2449470290e+02   6.5833894774e+01     0.441775     0.136581 -39.22  0.001888281    2.962    0.662
       186  -8.4716      3.6018     39.7889   1.3112933074e+02   6.6411536156e+01    0.2232345   0.07542627 -56.09 0.0007516338    2.055    0.513
       187  -9.0247     91.7266     37.2685   9.7257744525e+01   5.5968802017e+01    0.3233497    0.2122571  32.71  0.001269186    1.566    0.362
       188  -9.1230     96.0518     33.3111   9.4406349140e+01   5.5712161103e+01    0.3432193    0.2261124  -5.32 0.0003195516    1.738    0.425
       189  -9.5245     54.8503     36.7093   1.0951291759e+02   6.2113998289e+01    0.2969022    0.2201248  -9.18  0.001032761    1.349    0.259
       190  -8.4302    106.8085     36.5684   9.2655190049e+01   5.3037424179e+01    0.3431327    0.1979493  28.48  0.001509942    2.035    0.509
       191  -8.9015     70.4978     35.7926   1.0353014072e+02   5.9942996628e+01    0.3155507    0.1662765  22.93  0.001387629    2.562    0.610
       192  -9.1074      7.1565     34.1127   1.2798458897e+02   6.7295526246e+01    0.3947847    0.2298895 -35.61  0.002540404    1.443    0.307
       193  -7.3951    143.7379     34.0080   8.2931793813e+01   4.4878361162e+01    0.1756048    0.1253269 -24.88 0.0001755706    1.423    0.297
       194  -8.7221     37.2277     35.6101   1.1593098728e+02   6.4458624945e+01    0.3175321    0.1862298   0.34  0.001653057    2.342    0.573
       195  -7.8933     82.0288     32.2776   9.8271493864e+01   5.8522213630e+01    0.1834391     0.159796   6.76 0.0003126886    1.064    0.060
       196  -7.2108    155.4029     31.2913   7.9718997240e+01   4.2306978930e+01    0.1618752    0.1004254  33.07 0.0006080339    1.806    0.446
       197  -7.9665    105.2120     31.3987   9.1072647885e+01   5.4101653580e+01    0.1782899    0.1344306  59.37  0.000291564    1.532    0.347
       198  -9.3943      1.6932     28.9684   1.2876784488e+02   6.8590460198e+01    0.4433866   0.09421862 -54.81  0.001912569    2.967    0.663
       199  -8.1487    127.7377     30.1330   8.4987295548e+01   4.9228254900e+01    0.1964186    0.1718332   6.57 0.0003743311    1.115    0.103
       200  -7.6041    113.1919     29.6173   8.8282263425e+01   5.2614845251e+01    0.2053852    0.1185929  42.39 0.0009472128    1.672    0.402
       201  -7.8774    184.4009     27.4894   7.3732624540e+01   3.5317737645e+01    0.1397664    0.1365364  48.73 6.675714e-05    1.038    0.036
       202 -10.2721     71.3613     25.5991   9.8994329653e+01   6.1358812129e+01    0.6820554    0.2796876  49.68  0.001187975    3.010    0.668
       203  -9.5507     83.9982     21.9099   9.3288686158e+01   5.9610911487e+01    0.5084768    0.2338701  35.25   0.00182873    2.326    0.570
       204  -8.0229     61.6825     26.7147   1.0289024112e+02   6.2746152827e+01    0.1933475    0.1454039 -23.97 0.0006907135    1.146    0.128
       205  -8.8938     57.8232     25.0729   1.0360534604e+02   6.3574246749e+01    0.3546174    0.2265812  15.01  0.001946867    1.757    0.431
       206 -10.6519     48.2561     25.5665   1.0749307528e+02   6.4834843619e+01    0.2720218    0.2036126  11.41  0.000422191    1.350    0.259
       207  -7.4385    153.6453     26.7068   7.8481789072e+01   4.3300818669e+01    0.1563234    0.1009405  32.96 0.0005836181    1.686    0.407
       208  -7.3275    123.7329     26.6576   8.4595923543e+01   5.0597878593e+01    0.1468905    0.1012708  18.67 0.0005955304    1.604    0.377
       209  -7.7271    102.4578     25.4837   8.9448486884e+01   5.5465360586e+01    0.1404217    0.1208394  11.59 6.776856e-05    1.058    0.055
       210  -7.4654    144.4437     24.4586   7.9421530293e+01   4.5867054116e+01     0.142682    0.1331581  33.16 0.0001664654    1.008    0.008
       211  -8.2939    130.6915     21.7184   8.1197164914e+01   4.9536389532e+01    0.2292599    0.1715382  26.55 0.0002361563    1.347    0.258
       212  -8.7322    151.1325    249.4573   1.2983689528e+02   5.7025578181e+00    0.2195559   0.08793838  40.28  0.001127463    2.021    0.505
       213  -8.3684     92.2412     20.8075   9.0356125927e+01   5.8150970315e+01    0.2593433    0.2060129  24.40 0.0009642963    1.168    0.144
       214  -8.2819     45.3072     20.1551   1.0630221152e+02   6.6060763450e+01    0.2541146    0.1225913 -34.06  0.001314566    1.774    0.436
       215  -9.9363      8.7984     20.0552   1.2240479182e+02   6.9755460047e+01    0.2264182    0.1811157 -14.48  0.000383237    1.232    0.189
       216  -8.3769     12.4986     18.4889   1.2004670337e+02   6.9750900844e+01    0.1854461    0.1397289 -25.56 0.0006540414    1.093    0.085
       217  -8.0557    116.9872     20.2187   8.3670233426e+01   5.2912222001e+01    0.1912291    0.1687086  22.35 0.0003488573    1.032    0.031
       218  -9.7602    157.3116    245.9804   1.2838538500e+02   5.2008579363e+00    0.2834712    0.2159464 -22.52  0.001949941    1.872    0.466
       219  -7.1808    146.5708     19.4592   7.7254186492e+01   4.5891994429e+01    0.1432083    0.1291513  34.40 7.674189e-05    1.053    0.051
       220  -8.2680    127.7923     16.9192   7.9995810105e+01   5.0754367142e+01    0.2111713     0.170033  25.60 0.0003746944    1.199    0.166
       221  -9.2081     66.4015    246.4783   1.4350692430e+02   1.8238960443e+01     0.187692    0.1597907  80.67   0.00157686    1.283    0.221
       222  -7.9663     32.0518    247.4449   1.4886347871e+02   2.2109117408e+01    0.1423651   0.07616642  46.12  0.001027208    1.598    0.374
       223  -9.0690    243.4473    244.8071   1.1397493512e+02  -7.9404003629e+00    0.2586152    0.1578888  -5.63  0.001695125    1.754    0.430
       224  -8.1996    218.5270    245.3810   1.1807050229e+02  -4.3013797538e+00    0.1930253    0.1081471 -30.37  0.001200848    2.138    0.532
       225  -8.5448     50.4585     15.0613   1.0190297158e+02   6.6097209824e+01    0.2630504    0.1700377  13.58   0.00109367    1.624    0.384
       226  -7.0796    207.3328     15.7408   6.7395322166e+01   3.0749035947e+01     0.141629   0.09657309 -67.34 0.0001926276    1.570    0.363
       227  -8.2027    146.7791     14.1755   7.5351999842e+01   4.6386404807e+01    0.1920073    0.1860315  82.87 0.0003595625    1.107    0.096
       228  -8.1759    210.4788    245.9796   1.1947617873e+02  -3.1350797449e+00    0.1267845    0.1002485 -70.57 0.0007343283    2.487    0.598
       229 -10.0246    192.8640    244.0676   1.2213576746e+02  -1.7314249906e-01    0.2506271    0.2144989 -44.00  0.001248792    1.571    0.364
       230  -8.5374     88.9424     13.0428   8.7933650936e+01   5.9726234442e+01     0.333669     0.137956  40.39  0.001427733    2.333    0.571
       231  -7.9957     81.3441    246.3003   1.4109777836e+02   1.6333420378e+01   0.09116986   0.08091565  27.88 0.0002541988    1.677    0.404
       232  -8.8083    233.3184    244.1969   1.1549812379e+02  -6.3999816114e+00    0.2546182    0.1382757   5.50  0.001391045    2.468    0.595
       233  -7.9986     15.4938     10.4847   1.1516810352e+02   7.0818388556e+01    0.1503324   0.09492873   1.97  0.000973162    1.681    0.405
       234  -8.6819    176.6852    242.5635   1.2466534198e+02   2.5766750493e+00    0.2311643    0.1565313 -25.44   0.00148155    1.998    0.499
       235  -9.1261    166.0746    244.4998   1.2671727767e+02   4.0140517331e+00    0.1817942   0.08999093  42.82 0.0007623831    1.569    0.363
       236  -8.0115     95.9414    243.5321   1.3846823965e+02   1.4770147727e+01    0.1356783   0.08982747  24.93 0.0004967676    2.398    0.583
       237  -8.8747    170.2870    239.6684   1.2537744272e+02   3.9727130944e+00    0.2418121    0.1799093  16.53  0.001204306    1.568    0.362
       238  -7.8523     26.5719    241.1413   1.4935614663e+02   2.3710297333e+01    0.2423301   0.06927285  34.80  0.001097616    4.650    0.785
       239  -8.6339    249.3206    238.8769   1.1212767244e+02  -8.2155731229e+00    0.2558336    0.1257461 -20.48  0.001497726    2.251    0.556
       240  -7.3179    214.3049    239.3304   1.1787787564e+02  -2.9942162805e+00    0.1174556   0.07368982  16.69 0.0003445912    1.656    0.396
       241  -7.5234    121.5137    239.4711   1.3375031703e+02   1.1662667076e+01    0.1142306   0.08950672  53.25 8.353404e-05    1.016    0.015
       242  -9.1077    242.0307    236.8812   1.1297414352e+02  -6.9537004166e+00    0.2596595    0.1611707   2.43  0.001153981    1.677    0.404
       243  -8.0685    224.4557    238.4975   1.1607694444e+02  -4.4724943125e+00    0.1165877   0.08669591  23.72 0.0008085727    1.046    0.044
       244  -7.7802     79.7478    238.4008   1.4071296349e+02   1.7798721958e+01    0.1425593   0.08920336  40.51 0.0008982051    1.579    0.367
       245  -7.4477    148.4901    237.5546   1.2887331773e+02   7.7502784229e+00    0.1172014    0.0923288  46.16 0.0002839989    1.009    0.009
       246  -8.6164    195.5620    236.3620   1.2059602924e+02   3.2115532925e-01     0.235673    0.1165214  38.75 0.0009374346    1.610    0.379
       247 -10.1427    188.9509    234.4164   1.2144817163e+02   1.6304843379e+00    0.2723088    0.2157262  45.69 0.0009918541    1.202    0.168
       248  -8.4337    161.8684    234.4775   1.2615428836e+02   6.0310111906e+00    0.2087454    0.1577248  24.52  0.000678096    1.411    0.291
