#   1 NUMBER                 Running object number                                     
#   2 MAG_AUTO               Kron-like elliptical aperture magnitude                    [mag]
#   3 X_IMAGE                Object position along x                                    [pixel]
#   4 Y_IMAGE                Object position along y                                    [pixel]
#   5 X_WORLD                Barycenter position along world x axis                     [deg]
#   6 Y_WORLD                Barycenter position along world y axis                     [deg]
#   7 A_WORLD                Profile RMS along major axis (world units)                 [deg]
#   8 B_WORLD                Profile RMS along minor axis (world units)                 [deg]
#   9 THETA_WORLD            Position angle (CCW/world-x)                               [deg]
#  10 FWHM_WORLD             FWHM assuming a gaussian core                              [deg]
#  11 ELONGATION             A_IMAGE/B_IMAGE                                           
#  12 ELLIPTICITY            1 - B_IMAGE/A_IMAGE                                       
         1 -13.7618    224.5782      7.7865   3.5092132529e+01   2.7444586064e+01     2.533112      1.51235  38.36   0.01283308    2.461    0.594
         2 -13.2549    195.5903     41.0055   4.6510805885e+01   3.0461127265e+01    0.9885219    0.9142764 -49.48  0.003619694    1.035    0.034
         3 -13.2842    202.1942     33.5276   4.3687050048e+01   2.9804480399e+01    0.9418767    0.9043555  17.22  0.001460558    1.215    0.177
         4 -11.9150     39.7541     16.5901   7.8107290546e+01   7.1093146480e+01    0.4433959    0.2741415  -5.94  0.002036273    2.368    0.578
         5 -12.3688     44.4958      3.5552   6.7255119734e+01   7.2270774953e+01     1.035005    0.4383614  36.91  0.004397985    2.517    0.603
         6 -13.1204    182.1078     51.5517   5.1336299182e+01   3.2335790243e+01     1.261654     1.047133  19.05  0.000823837    1.460    0.315
         7  -9.3737    168.4805    233.4496   9.2553460287e+01   5.9887497621e+00    0.2159981    0.1564199  41.85  0.001476299    1.399    0.285
         8 -11.2331    139.8669    249.0159   9.9685527470e+01   7.7856010207e+00    0.3065646    0.2363116  32.38  0.002303875    1.056    0.053
         9 -10.6755    120.1465    194.0495   9.7124791186e+01   1.9132901758e+01    0.2646065    0.2141443 -88.84 0.0006528183    1.573    0.364
        10  -8.9654     93.2899    205.9142   1.0455237566e+02   2.0913777438e+01    0.2245681    0.1842367  14.15 0.0008431052    1.433    0.302
        11 -10.9270    184.3140    210.3231   8.6402646798e+01   6.8042210122e+00    0.3432154    0.2059223 -39.59  0.002048904    1.946    0.486
        12  -9.1490     92.4287    184.4999   1.0228093306e+02   2.5149099152e+01    0.2493398    0.1145219  35.38 0.0006894255    1.905    0.475
        13 -10.4965     99.0840    180.8753   1.0021717472e+02   2.4882581308e+01    0.3367604    0.2130221  28.84 0.0008435238    1.579    0.367
        14  -9.1288    143.4577    179.4773   8.9770806414e+01   1.7993967690e+01    0.1334335    0.1170916  30.00 0.0001443364    1.003    0.003
        15  -8.5963     96.3758    202.2256   1.0346112719e+02   2.1159629502e+01    0.2014631    0.1181069 -62.89  0.001096987    2.016    0.504
        16 -11.7080     53.3764    165.8989   1.0998592918e+02   3.4439512219e+01     1.271315    0.3688619 -47.72  0.003470701    7.186    0.861
        17 -11.4776     47.5333    172.4716   1.1213799003e+02   3.3668265641e+01    0.4065838    0.3093379  42.76  0.001113819    1.194    0.162
        18 -10.0185    188.2736    176.5432   8.0089816822e+01   1.0999386394e+01    0.3259911    0.2995559 -58.54  0.002124253    1.506    0.336
        19  -8.5800    149.0125    176.3502   8.8038245351e+01   1.7610692783e+01    0.1827072    0.1549337  32.92 0.0005253151    1.048    0.046
        20  -9.8853     84.2666    173.9018   1.0294351362e+02   2.8530968686e+01    0.2306479    0.1779004  33.09 0.0002880849    1.258    0.205
        21  -9.4693    146.5053    172.0382   8.7847610542e+01   1.8805387739e+01    0.2709527    0.1954619 -70.06  0.001389541    2.021    0.505
        22  -8.7120    194.1134    171.5006   7.8075376446e+01   1.0794601865e+01    0.1880064    0.1150505  37.14 0.0007494797    1.525    0.344
        23  -9.3646    185.4476    169.7667   7.9391111332e+01   1.2501384536e+01    0.2257007    0.1236373 -42.85 0.0009452038    2.019    0.505
        24 -10.2998    240.3110    169.1023   6.9841830915e+01   3.9731452295e+00    0.1675678    0.1284057 -12.54 0.0005817907    1.100    0.091
        25  -9.8527    137.5901    168.7236   8.9273199357e+01   2.0954709731e+01    0.3106103    0.2186299  39.38  0.001659189    1.278    0.217
        26  -8.9914    110.8481    168.0987   9.5503978294e+01   2.5610835883e+01    0.2148883    0.1747614  63.73 0.0007197541    1.285    0.222
        27 -10.8605     51.6368    171.7198   1.1101530074e+02   3.3350555556e+01    0.3610559    0.2191071  55.14 0.0005434044    1.471    0.320
        28  -8.4970     87.3539    204.2153   1.0569655587e+02   2.2046981101e+01    0.2858205    0.1192128 -77.89  0.001098515    4.312    0.768
        29 -11.5672     92.7884    151.7570   9.7527283630e+01   3.2055962217e+01     0.663749    0.5201787 -22.32  0.003454781    1.723    0.420
        30 -10.8504    133.8471    145.3819   8.5812169947e+01   2.6185018243e+01     1.124584    0.3205276 -54.63  0.003031038    5.450    0.817
        31  -9.1941    112.6384    151.0206   9.2182042566e+01   2.8874075520e+01     0.242889     0.182636  50.27 0.0005325332    1.274    0.215
        32  -9.1078    174.8981    149.1369   7.7449983325e+01   1.7732627417e+01    0.2008678     0.189946  65.19 0.0006589389    1.275    0.216
        33 -10.3120    105.2153    138.0533   9.1723897732e+01   3.3016958442e+01    0.5336056      0.33402 -28.35   0.00222203    2.435    0.589
        34 -10.3512    106.0789    130.7866   9.0037324224e+01   3.4490747848e+01    0.3557419    0.3291742  87.78  0.001263127    1.108    0.097
        35 -11.3531    164.1275    213.1998   9.0648056817e+01   9.3499064751e+00    0.3124639    0.2714723  -1.23  0.002157422    1.192    0.161
        36 -11.7067     92.9449    137.7499   9.5068718231e+01   3.5208320257e+01    0.2711368     0.262085 -26.01 0.0004046628    1.169    0.144
        37 -10.7606    112.1360    205.6189   1.0037415502e+02   1.8274957835e+01    0.2462664    0.2258934  78.36 0.0004728432    1.246    0.197
        38 -10.3997    135.7867    128.9947   8.1866128270e+01   2.9147633016e+01    0.5632449      0.20099 -54.10  0.001728056    3.818    0.738
        39 -10.5963    113.5968    129.2594   8.7659171910e+01   3.3431770622e+01    0.3356563    0.3142184  54.79  0.000841791    1.027    0.026
        40  -9.3360    160.9032    127.9790   7.5808461105e+01   2.4244818928e+01    0.3256942    0.1977185 -56.71  0.001396097    2.136    0.532
        41  -8.3737     96.1856    128.2081   9.2308750064e+01   3.6854798905e+01    0.1951514    0.1598704  68.69 0.0002292068    1.286    0.222
        42 -10.3030    100.7254    125.0259   9.0345014300e+01   3.6776674708e+01    0.2932985     0.258197  -7.09 0.0009588547    1.373    0.272
        43 -11.0734    119.6087    123.2459   8.4718751084e+01   3.3587487283e+01    0.5199323    0.3681079   9.38  0.002250588    2.110    0.526
        44  -9.9460    135.0996    119.8503   7.9926010639e+01   3.1169945839e+01    0.3287688    0.1597133 -42.99  0.001089598    2.132    0.531
        45  -9.3804    109.0768    118.3522   8.6494547963e+01   3.6728369108e+01    0.2494812    0.2137808 -65.69 0.0003109912    1.219    0.180
        46 -10.0614    231.3603    113.7091   5.9945960228e+01   1.2747843855e+01    0.2659653     0.216565 -15.82 0.0007696497    1.099    0.090
        47  -8.8666    167.9404    112.9326   7.0729976922e+01   2.5538806897e+01    0.2360515    0.1845393 -79.19  0.001133246    1.776    0.437
        48 -11.9296    117.8824    108.5450   8.1671715468e+01   3.7143105548e+01    0.7927011    0.6264096 -69.41  0.003222801    1.444    0.307
        49  -9.4443    205.4367    110.2992   6.3136906650e+01   1.8169146594e+01    0.2807286    0.2047231  33.62 0.0009422231    1.470    0.320
        50  -8.1228    143.7361    110.6430   7.5556017778e+01   3.1207988349e+01    0.1513659     0.118747  -4.63 0.0006983612    1.628    0.386
        51  -9.9477    134.3848    105.0483   7.6414060217e+01   3.4372403827e+01    0.7196434    0.1692038 -47.46  0.001852479    4.737    0.789
        52  -9.1788     66.4978    104.3471   9.6710563422e+01   4.7486785274e+01    0.2545987    0.1350064  34.87  0.001081573    1.919    0.479
        53 -12.7237    107.9484    203.8476   1.0107853556e+02   1.9200067524e+01    0.9075276    0.4912902 -35.24 0.0004740535    2.985    0.665
        54 -11.7781    196.5132    204.5661   8.3291135903e+01   5.8038894199e+00    0.5254736    0.2341537  27.94  0.002602743    2.152    0.535
        55 -10.8939    192.7422    194.5989   8.2367083214e+01   7.6981575055e+00    0.8955913    0.5488852 -64.88  0.003309605    6.073    0.835
        56  -8.3844    156.6600     82.2895   6.4924325484e+01   3.3644017511e+01    0.1545275    0.1188408 -78.02 0.0004546402    1.644    0.392
        57  -8.8175    184.4942     77.4460   5.8298554403e+01   2.7880800874e+01    0.1431395    0.1379509 -31.79 8.795817e-05    1.023    0.023
        58  -9.3046     63.3919     69.8355   8.8984075869e+01   5.6323693407e+01    0.2429318    0.1955912  51.61 0.0005934652    1.333    0.250
        59  -8.4229    168.4359    248.3831   9.4398500842e+01   4.1474007391e+00    0.1101221   0.07940938  27.66 4.774075e-06    1.042    0.041
        60 -19.0628     12.9548    172.2597   1.2086067967e+02   3.7200549911e+01     17.13037      4.25886 -85.19    0.0625879    4.183    0.761
        61 -10.4761    142.3145    237.2426   9.7932980508e+01   9.0454299597e+00    0.2665157    0.1428926 -58.99  0.001505009    2.872    0.652
        62  -9.7949     81.0324    193.8900   1.0605871915e+02   2.4894939200e+01    0.4516534     0.283374  69.50  0.002437507    1.802    0.445
        63 -10.2238    149.5489    187.7142   8.9785416447e+01   1.5567812715e+01    0.2738972    0.2408061  56.77  0.001197164    1.309    0.236
        64 -15.3055     71.2832    147.2970   1.0278360436e+02   3.6355141107e+01     10.33574     4.536859  70.46   0.01413976    6.729    0.851
        65  -9.5090    189.6659     15.1125   3.9730201393e+01   3.4922331421e+01    0.2366811    0.1753023 -77.53 0.0007481346    1.304    0.233
        66  -9.3790     74.7503     13.1629   6.0116824261e+01   6.4735920856e+01    0.2274305    0.1453688 -69.81 0.0008661476    2.763    0.638
        67  -8.9200    158.0415    235.5051   9.4750655662e+01   7.1406134396e+00    0.1751992   0.08863559  34.27 0.0004848453    1.520    0.342
