#   1 NUMBER                 Running object number                                     
#   2 MAG_AUTO               Kron-like elliptical aperture magnitude                    [mag]
#   3 X_IMAGE                Object position along x                                    [pixel]
#   4 Y_IMAGE                Object position along y                                    [pixel]
#   5 X_WORLD                Barycenter position along world x axis                     [deg]
#   6 Y_WORLD                Barycenter position along world y axis                     [deg]
#   7 A_WORLD                Profile RMS along major axis (world units)                 [deg]
#   8 B_WORLD                Profile RMS along minor axis (world units)                 [deg]
#   9 THETA_WORLD            Position angle (CCW/world-x)                               [deg]
#  10 FWHM_WORLD             FWHM assuming a gaussian core                              [deg]
#  11 ELONGATION             A_IMAGE/B_IMAGE                                           
#  12 ELLIPTICITY            1 - B_IMAGE/A_IMAGE                                       
         1 -14.3692      2.8153     48.0732   1.2499434243e+02   6.5054566437e+01     4.938904    0.8036911 -59.61   0.01271275    9.376    0.893
         2 -14.6445      7.3015    150.1595   1.4138647231e+02   4.2851244119e+01     7.427533     2.833649  77.99   0.02321017    5.977    0.833
         3 -14.6950      2.0899    127.0913   1.4000773789e+02   4.8514174459e+01     5.589559          nan -68.49   0.01310052    8.569    0.883
         4 -13.4163    200.6319     28.8696   6.4611152510e+01   3.1993983621e+01     1.343229     1.192255  51.53  0.006932523    1.318    0.241
         5 -13.4942    216.6910     11.0244   5.8812027770e+01   3.0365188536e+01     0.934747    0.7942144  62.93  0.003163027    1.339    0.253
         6 -13.2517     13.2242    121.9830   1.3633003379e+02   4.8931573012e+01    0.8471969    0.6086669  75.11  0.002741845    1.582    0.368
         7 -12.6617    173.1606    249.6726   1.1844328853e+02  -2.8428621496e+00    0.7834997    0.3255605  45.26  0.003507566    2.177    0.541
         8 -11.6981    123.9567    250.1004   1.2812189781e+02   5.2984803284e+00    0.5829058    0.1594065  40.26  0.002141175    3.184    0.686
         9 -12.0372    126.6071    245.2553   1.2699047633e+02   5.7429430132e+00    0.4770254    0.2572817  57.38  0.002323682    1.919    0.479
        10 -11.4467     46.0965    248.6236   1.4246958531e+02   1.7119310343e+01    0.3777487    0.2163852  87.54  0.001642631    1.592    0.372
        11 -12.7683     35.5774    245.2678   1.4404669602e+02   1.9083110172e+01    0.6662896    0.5352117 -85.81  0.004912043    1.272    0.214
        12 -12.0566     29.6796    248.1698   1.4525498916e+02   1.9221204364e+01    0.4206219    0.3226265 -71.22  0.003065557    1.507    0.337
        13 -12.5937      6.5481    227.1334   1.4783007833e+02   2.5929438919e+01    0.7498717    0.5175762  70.60    0.0054187    1.129    0.114
        14 -13.4104      5.7693    246.4954   1.4907558990e+02   2.2182982906e+01     1.281919    0.9847385  50.16   0.01002648    1.486    0.327
        15 -12.6662     10.7919    239.0787   1.4783770829e+02   2.3102283862e+01     1.008872    0.2931234  46.32   0.00514115    2.679    0.627
        16 -10.6987     81.6548    249.0613   1.3607984529e+02   1.2129041634e+01     0.227563    0.1392995  56.44  0.001013694    1.359    0.264
        17 -11.0676     64.8104    248.3347   1.3911086303e+02   1.4682958275e+01    0.3163767    0.2056283  80.56  0.000822785    1.398    0.284
        18 -11.4305    139.4160    246.6981   1.2465176027e+02   3.3364522476e+00    0.3404245    0.2293867 -87.96  0.001765843    2.164    0.538
        19 -10.3700     53.8294    238.6652   1.4026778115e+02   1.8087610867e+01    0.1916272    0.1440104 -77.11 0.0006419633    1.312    0.238
        20 -11.6608    217.5960    248.8566   1.0981553977e+02  -9.8385123694e+00    0.4619774    0.1578294  45.15  0.001848375    3.282    0.695
        21 -12.9379     43.9254    212.7980   1.3980826964e+02   2.4812493471e+01    0.9902042    0.7325548 -83.63  0.004814979    1.156    0.135
        22 -12.8966     28.4349    230.4733   1.4422024118e+02   2.2900219462e+01    0.3104923    0.2504286  81.98 0.0007436277    1.145    0.127
        23 -14.0466     33.6039    223.8656   1.4276385009e+02   2.3675616211e+01    0.8461006    0.5927074  68.25  0.002560876    1.164    0.141
        24 -11.7784    129.3703    231.8962   1.2463720897e+02   7.8005838688e+00    0.4496249    0.1727582  39.73  0.001822119    2.379    0.580
        25 -13.1492    103.5330    229.6729   1.2963294795e+02   1.2576171951e+01     1.349144     0.245552  44.63  0.004092541    4.442    0.775
        26  -9.5519    228.9711    228.4753   1.0420311250e+02  -8.6079909656e+00    0.1594644    0.1081693  57.89 0.0006173236    2.385    0.581
        27 -12.2811     89.8116    226.5706   1.3204641943e+02   1.5400612856e+01    0.9116311    0.1808531  47.06  0.002822395    4.433    0.774
        28 -12.3311    239.2977    247.3270   1.0558633221e+02  -1.2812152697e+01    0.4614677    0.3185965  14.33  0.002934936    1.284    0.221
        29 -12.2996    247.8684    246.5360   1.0392518648e+02  -1.3898850972e+01     0.554167    0.4866244  58.13  0.003788117    1.911    0.477
        30 -10.4813      6.8666    215.2728   1.4701449503e+02   2.8351176415e+01    0.1959755     0.147647 -88.07 0.0005791628    1.135    0.119
        31  -8.2265    221.7049    213.7026   1.0287678461e+02  -5.1127155325e+00     0.133184   0.09466904   1.02 0.0002491165    1.567    0.362
        32  -8.4451    152.5390    213.0335   1.1685773048e+02   7.3945107989e+00    0.1844723     0.139982 -52.09 0.0001285087    1.425    0.298
        33 -12.4734      9.8325    206.9343   1.4589089447e+02   2.9837810824e+01    0.6687973    0.4297872  36.67  0.003092599    1.841    0.457
        34 -10.5987     54.1677    204.1192   1.3683680227e+02   2.5443074822e+01    0.4378626    0.2080015  66.48  0.001930783    2.477    0.596
        35  -9.6502     34.8881    202.5210   1.4064450989e+02   2.8165349380e+01    0.1821435     0.136633 -88.32 0.0004416665    1.075    0.070
        36 -11.7215     56.6033    197.2600   1.3554742315e+02   2.6685468289e+01    0.2883117    0.2397728 -68.07  0.000518739    1.244    0.196
        37  -9.3305    192.1739    193.5556   1.0488260550e+02   3.7643469746e+00    0.2866475    0.1716711 -73.09  0.000942055    4.239    0.764
        38 -11.9360     63.3571    188.9384   1.3303991442e+02   2.7710356900e+01    0.2723472     0.245685 -77.95 0.0004764362    1.161    0.139
        39 -10.7567      3.3460    183.3106   1.4534532995e+02   3.5612152209e+01    0.2903853    0.1506798  68.64  0.001451813    1.862    0.463
        40 -10.8378     74.3237    176.2590   1.2872481830e+02   2.9170227781e+01    0.2454995    0.2204112 -80.21 0.0003320851    1.069    0.065
        41 -13.2633     60.7427    174.0465   1.3164031846e+02   3.1603322447e+01    0.5510579      0.27854 -47.01  0.001851985    2.318    0.569
        42  -8.9862     93.2974    170.4575   1.2317935673e+02   2.7612359932e+01    0.1953793    0.1306508  53.97 0.0007103135    1.534    0.348
        43 -11.8382     82.1977    167.0559   1.2534342221e+02   3.0211182237e+01    0.7171587    0.5309309 -47.84  0.003724075    1.437    0.304
        44 -11.6288    199.2135    247.9103   1.1313422631e+02  -6.8313384109e+00    0.3483046    0.2724112  62.04  0.002081413    1.772    0.436
        45 -10.1848     95.5150    151.8278   1.1918101005e+02   3.1768958776e+01    0.2950625    0.2848033 -43.49 0.0008237152    1.139    0.122
        46 -11.9914     83.9901    150.6411   1.2196688392e+02   3.3939790879e+01    0.3164412    0.2472053 -47.82 0.0004143355    1.294    0.227
        47  -9.1821     98.8457    147.7499   1.1749223383e+02   3.2190176153e+01    0.2132586    0.1965102 -41.78 0.0004832461    1.158    0.136
        48 -12.0915     68.1600    143.1469   1.2478161263e+02   3.8113828115e+01    0.6035206    0.4332074 -87.01  0.001993363    1.545    0.353
        49 -10.9427     64.6861    141.6741   1.2544979602e+02   3.8947314442e+01    0.3733146    0.2005289 -47.04  0.001007136    1.852    0.460
        50  -9.7815    108.1558    136.9807   1.1271580355e+02   3.3118757580e+01    0.4279698    0.2879236 -11.80  0.001656795    2.679    0.627
        51 -10.5430     95.0558    134.1841   1.1563677831e+02   3.6123355868e+01     0.247826    0.2155354 -45.01  0.000329408    1.142    0.124
        52  -8.9627    105.8787    123.6450   1.1023387729e+02   3.6692976991e+01    0.1942331    0.1810166  50.55  0.000344668    1.122    0.109
        53  -9.3408    167.4878    112.6431   9.1948848885e+01   2.5982583600e+01    0.2924382    0.2237818  86.03 0.0009276108    1.646    0.393
        54 -10.3469    243.2476     95.7529   7.4247864334e+01   1.2087876354e+01    0.2098888     0.105984  46.25  0.000899796    2.450    0.592
        55  -9.7341    243.3284     91.3286   7.3267828025e+01   1.2834119518e+01    0.1308554    0.1104148   4.66 0.0007051046    1.707    0.414
        56 -10.3912     62.0880     78.9907   1.1181552582e+02   5.3542671326e+01    0.4326035    0.2329088  45.22  0.002018399    2.328    0.570
        57  -9.5823    159.2379     77.6076   8.4370742611e+01   3.4723089325e+01    0.2134952    0.1356352  45.51 0.0005492656    1.600    0.375
        58  -9.2132     52.1503     72.4331   1.1332348082e+02   5.6116978397e+01    0.2163323    0.1849049  61.80  0.001319685    1.643    0.391
        59 -12.1072     98.3439    246.8973   1.3269602055e+02   1.0005903710e+01    0.4658233    0.3253175  73.05  0.002022876    1.391    0.281
        60 -10.4399     88.8202    249.1746   1.3474969504e+02   1.1035940769e+01    0.1962551    0.1419718  67.47 0.0006263693    1.189    0.159
        61 -10.3282      1.7376    215.9558   1.4797061239e+02   2.8696639767e+01    0.2375187    0.1055749 -80.27  0.001349039    1.777    0.437
