#   1 NUMBER                 Running object number                                     
#   2 MAG_AUTO               Kron-like elliptical aperture magnitude                    [mag]
#   3 X_IMAGE                Object position along x                                    [pixel]
#   4 Y_IMAGE                Object position along y                                    [pixel]
#   5 X_WORLD                Barycenter position along world x axis                     [deg]
#   6 Y_WORLD                Barycenter position along world y axis                     [deg]
#   7 A_WORLD                Profile RMS along major axis (world units)                 [deg]
#   8 B_WORLD                Profile RMS along minor axis (world units)                 [deg]
#   9 THETA_WORLD            Position angle (CCW/world-x)                               [deg]
#  10 FWHM_WORLD             FWHM assuming a gaussian core                              [deg]
#  11 ELONGATION             A_IMAGE/B_IMAGE                                           
#  12 ELLIPTICITY            1 - B_IMAGE/A_IMAGE                                       
         1 -14.9307     68.5198    144.2165   1.0596402800e+02   3.7408137996e+01     5.080714      2.22751  60.31  0.003503294    4.161    0.760
         2 -14.2789    197.7321     38.4187   4.6308535859e+01   3.0842745570e+01     1.505479     1.360513 -11.51  0.004259682    1.292    0.226
         3 -14.7446    208.1995     27.6856   4.2197019165e+01   2.9627416244e+01     1.980759      1.42437  24.60  0.002399204    2.010    0.503
         4 -10.5844     61.5107      7.9734   6.5824579754e+01   6.5979950050e+01    0.1911128    0.1465091  28.31 0.0004504361    1.146    0.127
         5 -13.1356    232.4498      3.5776   3.4219321882e+01   2.6666935042e+01    0.8422484    0.4029648  75.55  0.004324409    1.938    0.484
         6  -9.4911    151.2990    196.0045   9.4546044708e+01   1.1805737236e+01    0.1894545    0.1832768  24.89 0.0004808653    1.066    0.062
         7 -11.7969    139.7612    249.3004   1.0473551094e+02   4.3919734737e+00    0.3586629    0.2997533  89.99   0.00242605    1.530    0.346
         8 -13.3155     17.8190    191.6961   1.2359532862e+02   3.2059727793e+01    0.7214819    0.2516461  47.49  0.001267036    2.478    0.596
         9 -14.0358     48.3538    221.5143   1.1974693084e+02   2.2525721871e+01     2.011998     1.012714  56.80  0.008536881    1.712    0.416
        10 -15.1756     47.3792    202.7722   1.1836600787e+02   2.6514957823e+01     5.339477     1.039763  49.80   0.01724379    4.951    0.798
        11 -13.8864     56.8033    190.0434   1.1508326954e+02   2.8139995864e+01    0.9423821    0.8724982 -80.32  0.006359176    1.212    0.175
        12 -14.1159     68.2746    242.9769   1.1769512067e+02   1.5909484768e+01    0.7087674     0.462497  69.04  0.001559266    1.365    0.267
        13 -16.8969      6.3607    210.6022   1.2698105179e+02   2.9169903860e+01     7.880624    0.8797649 -72.28   0.02755988    5.443    0.816
        14  -9.4352     81.4683    194.5414   1.1006810326e+02   2.3789227956e+01    0.2807191    0.1808337  83.42  0.001430014    1.762    0.432
        15 -10.2075     71.5464    186.0262   1.1126898344e+02   2.7092926388e+01    0.2290746    0.1753342  50.93 0.0002010329    1.228    0.186
        16  -8.7402     93.5115    185.5389   1.0608341349e+02   2.3958287720e+01    0.1388378    0.1226523  69.91 8.072786e-05    1.034    0.033
        17 -10.9175    145.2865    180.9664   9.3201101452e+01   1.5927652167e+01    0.3152918     0.259666 -22.71 0.0009355907    1.402    0.287
        18 -10.5188     98.9909    180.8882   1.0409320999e+02   2.4127315489e+01    0.3505103    0.2521695  19.14  0.001742951    1.816    0.449
        19  -9.0897    150.3056    178.6523   9.1614648886e+01   1.5455084556e+01    0.1472445    0.1155679  79.52 0.0007042139    1.699    0.411
        20  -9.5059     41.1230    178.1809   1.1738593478e+02   3.2682268769e+01    0.1740995    0.1502111 -86.48 0.0002467752    1.101    0.091
        21 -10.1159    204.4772    176.1039   7.9430756952e+01   5.5749413778e+00    0.3091416    0.2253939 -58.14  0.001038912    1.919    0.479
        22 -10.0161    196.9363    176.2994   8.0995506363e+01   6.9554589237e+00    0.3184293    0.2510432  40.62  0.001340305    1.280    0.219
        23 -12.3102     70.6469    175.0299   1.1006100091e+02   2.9735975187e+01    0.5526683     0.355114 -30.96  0.002549358    2.549    0.608
        24 -12.0243     74.9352    170.0726   1.0832538542e+02   3.0292771544e+01    0.2795875    0.2425106 -17.02  0.001605232    1.543    0.352
        25 -10.0782    188.5162    174.9107   8.2454533151e+01   8.8143517933e+00    0.3317517    0.1958107 -55.32  0.001398915    2.312    0.567
        26 -14.2214     42.8108    127.8448   1.1052293575e+02   4.4537168652e+01      4.02778     1.742151 -83.89   0.01380672    3.772    0.735
        27 -11.2081    133.4895    171.9987   9.4284602221e+01   2.0048820740e+01    0.4363669    0.2147809  37.17  0.001660929    2.018    0.504
        28 -10.2144     45.5208    166.0446   1.1502373745e+02   3.5008317838e+01    0.3809366     0.267078 -24.51  0.001999812    2.274    0.560
        29 -10.3289     32.2941    164.9657   1.1809213322e+02   3.6674827883e+01    0.2643327    0.1508874 -63.51 0.0008735785    1.573    0.364
        30  -9.4724    186.8401    165.1954   8.0764971972e+01   1.0967494763e+01     0.204897    0.1673844  -0.87 0.0005094053    1.302    0.232
        31 -10.6840    158.3904    161.2633   8.6241923346e+01   1.7480962988e+01    0.3696392    0.2959293 -88.36  0.001187917    1.709    0.415
        32  -9.2702     49.8097    161.2137   1.1337744618e+02   3.5659604335e+01    0.1678796    0.1441268 -54.38  0.000377738    1.280    0.219
        33  -9.7547     37.7343    161.6103   1.1641475451e+02   3.6905094156e+01    0.2152134    0.1279951  24.42 0.0007861732    2.105    0.525
        34 -12.3560     90.0225    154.2428   1.0193109812e+02   3.1782492212e+01    0.6527601    0.4703397 -26.63  0.003097581    1.919    0.479
        35 -13.8597     43.4269    110.6789   1.0735671049e+02   4.8660684117e+01      2.26423     1.420216  62.90   0.01022821    2.111    0.526
        36 -10.1374    188.2282    152.7146   7.7721463355e+01   1.3087175002e+01    0.2762337    0.1901155 -85.84  0.001025167    3.135    0.681
        37 -11.3984    133.7454    144.4738   8.8555234587e+01   2.6141230408e+01     1.194255    0.3244759 -54.52  0.002882136    5.396    0.815
        38  -9.1860    112.5689    150.7582   9.5352408561e+01   2.8753435437e+01    0.2016933    0.1435557 -67.73 0.0003974591    1.541    0.351
        39 -10.0302     84.3165    173.9432   1.0658669695e+02   2.8012638595e+01    0.1903328    0.1648747 -75.62 0.0002881539    1.112    0.100
        40 -10.8379    174.5647    148.9171   7.9826749104e+01   1.6690174185e+01    0.3028119    0.2669141  48.85 0.0008452348    1.183    0.155
        41 -10.6217    143.8762    146.2292   8.6416934997e+01   2.3686826424e+01    0.3644358      0.22892 -63.03  0.001478932    2.033    0.508
        42  -9.6110     84.1395    143.7855   1.0160371064e+02   3.5235197183e+01    0.2131443    0.1852398  79.13 0.0004035121    1.174    0.148
        43 -11.0673    103.4398    139.6039   9.5483978791e+01   3.3040023908e+01    0.5703264      0.34118 -30.97  0.002259283    2.360    0.576
        44 -12.4335     90.8727    139.5692   9.8933125389e+01   3.5188464385e+01    0.2875346    0.2680744 -64.31 0.0004245661    1.031    0.030
        45 -13.8786     71.5600    156.3104   1.0711819167e+02   3.4047938764e+01    0.5953031    0.5193011 -40.55  0.002317121    1.319    0.242
        46 -17.0252      7.6838    244.5032   1.2836541121e+02   2.2577258354e+01     9.902821      1.65485 -78.20   0.01868901    5.443    0.816
        47 -10.5519    113.6973    207.9814   1.0469508366e+02   1.5950577557e+01    0.3268338    0.2011912  64.39  0.001582775    1.920    0.479
        48 -10.6659    105.9389    130.7394   9.2856363191e+01   3.4707865696e+01    0.3610779    0.3112884 -71.02  0.001375887    1.202    0.168
        49 -11.2123     33.7116    131.0650   1.1361247580e+02   4.4657274223e+01    0.2528355     0.235658 -56.81  0.001069254    1.177    0.150
        50 -11.5509    135.7800    128.0010   8.4165513729e+01   2.9450813803e+01    0.6506998    0.2083057 -50.31  0.001902629    3.394    0.705
        51 -10.1032     48.5132    171.2933   1.1491243437e+02   3.3432330043e+01    0.4293936    0.2279532 -41.83  0.001934696    2.735    0.634
        52 -10.3950    160.8318    127.9502   7.7956968851e+01   2.4025081337e+01    0.3887689    0.2307045 -42.94  0.001599908    1.673    0.402
        53 -11.6086    118.9242    124.1682   8.7712534766e+01   3.3778849140e+01    0.6907098    0.4333721 -27.20  0.002743436    2.144    0.533
        54 -11.0971     99.4535    126.2065   9.3653591975e+01   3.6955714439e+01    0.3146942    0.2512457 -27.16  0.000968385    1.435    0.303
        55 -11.3288    139.6704    171.9168   9.2799193253e+01   1.8897765025e+01    0.4906282    0.3062116  54.42  0.001664491    1.764    0.433
        56 -10.5252    112.2263    130.0708   9.0961615440e+01   3.3696855690e+01    0.3452472    0.2695248 -13.06 0.0008669394    1.660    0.398
        57 -10.5214    134.5764    106.2625   7.8804337275e+01   3.4522703942e+01     0.409362    0.1522178 -45.75  0.001316269    2.688    0.628
        58 -10.0280    108.3123    119.0800   8.9426484694e+01   3.7023786580e+01    0.2283813    0.2056573  20.20 0.0002699045    1.194    0.163
        59  -9.8593    168.0170    112.9611   7.2432686183e+01   2.5507675336e+01    0.3772373    0.2616264 -81.00  0.001458453    2.405    0.584
        60 -12.9890     83.0879    161.3591   1.0494186200e+02   3.1158201096e+01     1.190161    0.5340465  59.22 0.0003813522    3.422    0.708
        61 -11.7200    117.8227    108.7942   8.4070404553e+01   3.7521224579e+01    0.7160655    0.6135771 -43.22  0.003604469    1.137    0.121
        62 -10.2527    205.3848    110.0919   6.4013878205e+01   1.7476901325e+01    0.3181037    0.2277273  44.29 0.0009560114    1.474    0.321
        63 -11.2762     33.4322    100.1862   1.0859853196e+02   5.2152714577e+01    0.2987739    0.2146608 -74.59 0.0009368138    1.339    0.253
        64 -11.4972     52.8111     93.3745   1.0055923706e+02   5.1754967152e+01    0.4888238     0.374517  89.92  0.002379622    1.669    0.401
        65 -11.2743     18.4774    110.6298   1.1513872997e+02   5.0862884702e+01    0.2718452    0.1694804  76.36  0.001202164    1.899    0.473
        66 -10.0338    157.9329     81.3302   6.5842757833e+01   3.4081489125e+01    0.2236892    0.2015918  46.66 0.0006248642    1.108    0.097
        67  -9.1305    184.5192     76.9940   5.9115970118e+01   2.8308333820e+01    0.2081927    0.1367822  -3.83 0.0006301535    2.408    0.585
        68  -9.9513     59.0800     67.7364   9.1194103369e+01   5.6672873922e+01    0.2593336    0.1799128  42.96  0.001356423    1.725    0.420
        69 -13.8816    187.9009     46.1201   4.9844247005e+01   3.2256896214e+01     1.335618    0.9192902  31.81  0.001004354    1.864    0.464
        70  -9.5520     72.9171    226.7969   1.1538825275e+02   1.8326948337e+01    0.1692437    0.1563001  46.44   0.00119574    1.296    0.228
        71  -9.8968     35.0856    206.0811   1.2115824420e+02   2.7222164745e+01    0.2633035    0.1025946  55.18  0.001259882    2.351    0.575
        72  -9.0734     73.2633     54.4168   8.1342513122e+01   5.7161187701e+01    0.1831347    0.1306792  46.81 0.0009401865    1.659    0.397
        73 -11.8910    146.9076     51.1036   5.8877104048e+01   4.1886509423e+01    0.5525116    0.3616808 -80.35  0.001554596    2.457    0.593
        74 -16.5963     38.2941    249.1614   1.2348457238e+02   1.8488562213e+01     10.64676     3.433504  27.49   0.02829677   11.630    0.914
        75 -10.8431    148.4915     44.5900   5.6417037290e+01   4.2437704190e+01    0.2753327    0.2498325 -82.87 0.0002708438    1.196    0.164
        76 -10.2144     31.5451     35.8613   9.1560822467e+01   6.6134025853e+01    0.1868347    0.1388346  20.43 0.0008945028    1.447    0.309
        77 -11.1706     23.8838     34.2192   9.4555730002e+01   6.7165514653e+01    0.2392676    0.1664043  15.56     0.001089    1.522    0.343
        78 -10.6464    108.0054    203.7002   1.0535087581e+02   1.7745788623e+01    0.1966024    0.1641841  54.42  0.001164025    1.068    0.063
        79  -9.8596    189.6790     14.9740   4.0987939914e+01   3.5606893396e+01    0.1842145    0.1664708 -59.30 0.0005855862    1.119    0.106
        80 -11.0397    111.9045    197.5671   1.0360656395e+02   1.8381012943e+01    0.2921205    0.2696458 -11.36  0.001760289    1.333    0.250
