#   1 NUMBER                 Running object number                                     
#   2 MAG_AUTO               Kron-like elliptical aperture magnitude                    [mag]
#   3 X_IMAGE                Object position along x                                    [pixel]
#   4 Y_IMAGE                Object position along y                                    [pixel]
#   5 X_WORLD                Barycenter position along world x axis                     [deg]
#   6 Y_WORLD                Barycenter position along world y axis                     [deg]
#   7 A_WORLD                Profile RMS along major axis (world units)                 [deg]
#   8 B_WORLD                Profile RMS along minor axis (world units)                 [deg]
#   9 THETA_WORLD            Position angle (CCW/world-x)                               [deg]
#  10 FWHM_WORLD             FWHM assuming a gaussian core                              [deg]
#  11 ELONGATION             A_IMAGE/B_IMAGE                                           
#  12 ELLIPTICITY            1 - B_IMAGE/A_IMAGE                                       
         1 -13.1930    204.3406     21.3815   5.6304389922e+01   3.0969424342e+01     1.712897     1.111912  25.19  0.008048601    1.958    0.489
         2 -12.1603    210.7597     14.9287   5.3788657551e+01   3.0025210914e+01    0.6115098    0.4864302   9.88    0.0014041    1.479    0.324
         3  -9.5320     13.0000     11.9840   1.1189510492e+02   7.2510232115e+01    0.1996866   0.05589508 -54.88 0.0008094802    2.991    0.666
         4  -9.5214     33.0000      7.0041   9.7353576937e+01   7.1504427589e+01    0.3414007   0.06116934 -42.91  0.001056064    4.977    0.799
         5 -10.1507     17.1281      3.2629   1.0505495692e+02   7.3779189820e+01    0.2798958    0.1309926 -51.48  0.001430039    2.168    0.539
         6 -10.8580    225.8638      1.9480   4.8984455847e+01   2.7591679263e+01    0.5417216    0.2260955  75.39  0.001975074    2.375    0.579
         7 -10.5241    150.8132    228.4934   1.1433187407e+02   9.7650389089e+00    0.2900744    0.1570634  51.57   0.00157221    1.995    0.499
         8 -12.6343    140.6852    248.5918   1.1852879627e+02   8.5058774831e+00    0.9623237    0.3093365  41.76  0.004689438    2.297    0.565
         9 -12.0634    126.7971    249.3466   1.2111497397e+02   1.0328494108e+01    0.5579345    0.3858478  26.31  0.003899841    1.413    0.292
        10 -12.2775     38.4266    222.6964   1.3523786379e+02   2.5333742316e+01    0.4752066    0.3395233 -51.82 0.0007465266    2.008    0.502
        11 -14.8264     48.2709    211.3162   1.3270222679e+02   2.6291177142e+01     5.572007      1.22797  42.78   0.02517476    2.995    0.666
        12 -10.8701     33.0178    166.9973   1.3270566199e+02   3.6469051880e+01    0.5852643    0.1311245 -74.68  0.002148502    4.306    0.768
        13 -12.0250     85.8314    164.4987   1.1991727795e+02   3.0813862678e+01     1.276442     0.493537  51.05  0.001392069    2.900    0.655
        14 -12.9774     66.4175    142.6427   1.2181916905e+02   3.8152078303e+01     1.561836    0.7772112  75.80  0.004026589    3.694    0.729
        15  -9.6608     99.3326    148.4815   1.1410349893e+02   3.2211874529e+01    0.2819421    0.2310895 -24.99  0.001237466    1.495    0.331
        16  -8.6699    102.3643    144.8096   1.1268494553e+02   3.2520600955e+01    0.2290248    0.1750859 -13.52 0.0005190015    1.788    0.441
        17 -11.1044     87.8011    147.7799   1.1696713545e+02   3.4111873260e+01    0.2527381    0.2324891 -38.11 0.0004301817    1.219    0.180
        18 -11.4162     32.3846    145.1847   1.3097958468e+02   4.1225308194e+01    0.5400897    0.1716842 -75.25  0.002245496    2.967    0.663
        19  -9.4583     39.6397    146.6695   1.2928592354e+02   4.0217178615e+01      0.22948     0.143361  34.95  0.001336548    1.638    0.390
        20  -9.3423    134.0000    144.0041   1.0450457390e+02   2.7169092082e+01    0.3799236   0.08300722 -48.09  0.001045008    4.877    0.795
        21  -9.4949    110.2933    135.2873   1.0881471520e+02   3.3257470047e+01    0.2975883    0.2262707 -10.32 0.0009916624    1.767    0.434
        22 -10.4016     32.6408    123.9939   1.2868058665e+02   4.5998420836e+01    0.2937939    0.1025069 -71.09  0.001251223    2.506    0.601
        23  -9.9217     97.6716    131.8414   1.1154376040e+02   3.6117247346e+01    0.2732474    0.2333406 -22.07 0.0007390968    1.360    0.265
        24 -10.9057     17.0592    124.5045   1.3307622897e+02   4.7101619592e+01    0.2789746    0.1427257 -75.33  0.001465857    1.637    0.389
        25  -8.6277    107.1755    122.4813   1.0700364529e+02   3.6595645582e+01    0.2028161    0.1401497  37.91 0.0004385309    1.431    0.301
        26 -10.7109     32.7224    157.3266   1.3198536024e+02   3.8545647912e+01    0.5540857    0.1095514 -74.96  0.001797457    5.190    0.807
        27 -13.2005     10.4527    206.8776   1.3960170722e+02   3.0723812540e+01     1.003722     0.611905  27.88  0.005393755    1.873    0.466
        28  -9.7710    164.4091    225.7058   1.1137796496e+02   8.0948130212e+00    0.1885687    0.1195482 -48.64  0.001140852    2.115    0.527
        29 -15.8061      7.3425    240.2006   1.4128808184e+02   2.5377503239e+01     10.83005     4.051705 -83.68   0.06967331    2.577    0.612
        30  -9.9366    167.8581    112.9116   8.9164430300e+01   2.6278606362e+01    0.3406118    0.2913599 -75.92 0.0009276669    1.568    0.362
        31 -11.0774    190.0410     38.1095   6.3145855368e+01   3.2708123969e+01    0.4991502    0.2912069 -42.79  0.002212096    1.766    0.434
        32 -10.8247     69.9149    183.8070   1.2590966151e+02   2.8978416516e+01    0.2489034    0.2274733 -50.78 0.0007039661    1.344    0.256
        33  -8.8985    192.6555    193.9820   1.0104491264e+02   7.9748335180e+00    0.1815058    0.1067595 -60.08 0.0007050639    4.435    0.775
        34 -10.7289     64.4571    190.7171   1.2777464705e+02   2.8290927461e+01    0.3264211    0.2303464 -40.09  0.001448281    2.023    0.506
        35  -9.1209    189.7607     15.5828   5.6333050007e+01   3.5286702147e+01    0.1957764    0.1316272  85.86 0.0005960643    1.589    0.371
        36 -10.2158     79.2750    172.4915   1.2250864365e+02   3.0055079318e+01    0.2216308    0.2102834  45.81 0.0005137261    1.148    0.129
        37 -10.7817    141.8062    231.4104   1.1640290425e+02   1.0689572729e+01    0.3077616    0.1398825  35.21  0.001627657    1.763    0.433
        38 -12.4299     66.5604    169.5543   1.2515462499e+02   3.2294819902e+01     0.447502    0.2629023 -44.38  0.002035264    2.220    0.550
