#   1 NUMBER                 Running object number                                     
#   2 MAG_AUTO               Kron-like elliptical aperture magnitude                    [mag]
#   3 X_IMAGE                Object position along x                                    [pixel]
#   4 Y_IMAGE                Object position along y                                    [pixel]
#   5 X_WORLD                Barycenter position along world x axis                     [deg]
#   6 Y_WORLD                Barycenter position along world y axis                     [deg]
#   7 A_WORLD                Profile RMS along major axis (world units)                 [deg]
#   8 B_WORLD                Profile RMS along minor axis (world units)                 [deg]
#   9 THETA_WORLD            Position angle (CCW/world-x)                               [deg]
#  10 FWHM_WORLD             FWHM assuming a gaussian core                              [deg]
#  11 ELONGATION             A_IMAGE/B_IMAGE                                           
#  12 ELLIPTICITY            1 - B_IMAGE/A_IMAGE                                       
         1 -14.1826    201.3602     17.5243   6.5178758069e+01   3.2897406515e+01     2.437793     1.522145  27.96   0.01138221    2.646    0.622
         2 -12.6431      2.2859     12.3461   1.1781022593e+02   7.0552641812e+01     1.815036     0.174583 -48.51  0.005417311    8.241    0.879
         3 -13.1556     13.9890     12.6965   1.1253459608e+02   6.9640187717e+01     1.118285    0.7052253 -37.93  0.007960368    1.435    0.303
         4 -11.7422    140.1504    249.9830   1.2861279760e+02   3.6329611383e+00    0.4748751    0.2482218  52.57  0.002458638    1.689    0.408
         5 -10.4402    248.6076    249.5208   1.0856623619e+02  -1.4025961092e+01    0.2594328    0.1410705  25.67  0.001495423    1.628    0.386
         6 -11.9400    126.0569    249.4834   1.3117860347e+02   6.0832231648e+00    0.6248128    0.1851722  39.00  0.002331385    3.351    0.702
         7 -11.5097    128.4123    244.7565   1.3016458707e+02   6.5050144519e+00    0.2442992    0.2074203 -54.29  0.001605985    1.450    0.310
         8 -12.7557    100.2824    247.2889   1.3567697246e+02   1.0642481360e+01      0.59705    0.3952645  54.53    0.0029493    1.214    0.177
         9 -10.0934     66.9518    250.0318   1.4183335043e+02   1.5083151037e+01    0.1774326    0.1345913  69.46 0.0004403708    1.035    0.033
        10 -11.1286     46.4728    248.8867   1.4518708492e+02   1.8017540638e+01    0.3224565    0.1621922  57.26  0.001077926    1.562    0.360
        11 -14.3815     29.9515    245.3798   1.4763826212e+02   2.0679875517e+01     5.123744     1.402472  34.20   0.01867491    6.285    0.841
        12 -11.1661     41.5449    206.5510   1.4262300439e+02   2.7021664489e+01    0.3136252    0.1867955  67.54  0.001858849    1.491    0.329
        13 -13.1816      6.2667    244.4350   1.5128655826e+02   2.3449265152e+01     1.633438    0.6925056 -82.05    0.0101506    1.930    0.482
        14 -14.8760      8.5508    205.3804   1.4859824259e+02   3.0808663887e+01       4.0328     1.166731 -72.64    0.0128607    2.688    0.628
        15 -15.3021     15.7895    164.5544   1.4384833627e+02   3.8899268342e+01     6.470286     2.114455 -84.14   0.02378206    3.949    0.747
        16  -8.9328    152.6584    213.0156   1.2084254528e+02   7.9914414220e+00    0.1775001    0.1686141  81.62 0.0003967404    1.112    0.101
        17 -10.3073    155.1659    228.8332   1.2279589406e+02   4.6289607899e+00    0.1855945    0.1527708  23.50  0.001091485    1.359    0.264
        18  -9.9279    192.0219    193.0427   1.0912706104e+02   4.1529108028e+00     0.435804    0.2308166 -66.72  0.001267064    5.521    0.819
        19 -11.4343     65.9901    195.8693   1.3662789753e+02   2.6174411448e+01    0.3657733    0.2398992 -47.75  0.001482139    1.967    0.492
        20 -10.5457    144.1765    243.1668   1.2696660389e+02   4.0866692310e+00    0.1881825    0.1591441  38.40 0.0005136365    1.177    0.150
        21 -11.6902     71.1113    188.1545   1.3459195248e+02   2.7170326322e+01    0.3789402    0.2645524 -82.46 0.0006679333    1.319    0.242
        22  -9.0407    120.0161    188.4784   1.2384039514e+02   1.9107685057e+01    0.1927568    0.1287801  17.19 0.0008100382    2.541    0.606
        23  -8.9949    125.8108    185.8309   1.2209888827e+02   1.8618948298e+01    0.3123535    0.1065688  36.60 0.0009210907    3.492    0.714
        24 -10.9053     80.6150    176.2211   1.3083279778e+02   2.8491228674e+01    0.2441805    0.2151477 -68.91 0.0004184673    1.163    0.140
        25 -13.1356     67.7822    173.9989   1.3344172967e+02   3.0865142998e+01    0.4884487    0.2737933 -45.54  0.001515272    2.240    0.554
        26 -11.9098     87.6297    167.2061   1.2779795552e+02   2.9498402211e+01    0.7609726    0.5260758  59.62  0.003925699    1.472    0.321
        27 -10.6083     75.1028    157.6126   1.2924958395e+02   3.3654412004e+01    0.7872439    0.3761022  74.23  0.002181283    6.002    0.833
        28  -9.8844     99.8061    151.1670   1.2197624454e+02   3.1259785303e+01    0.3238475    0.2650344 -59.26 0.0008974521    1.169    0.145
        29  -9.2960    102.7633    147.0520   1.2042487795e+02   3.1715601381e+01     0.317985    0.1859947 -35.06  0.001284657    2.368    0.578
        30 -12.0091     88.6572    150.3795   1.2463095025e+02   3.3296972708e+01    0.2834006    0.2514938 -43.23 0.0005521234    1.254    0.203
        31 -12.5758     67.2430    144.1611   1.2896412660e+02   3.7938705127e+01    0.7847583    0.5311194  80.52  0.003964251    1.753    0.429
        32 -12.0902     58.0900    132.7067   1.2935409590e+02   4.1826279711e+01     1.838487    0.6035455 -72.37   0.00409923    8.540    0.883
        33  -9.0970    134.3174    148.4842   1.1286506847e+02   2.5364634077e+01    0.2600825    0.1396465 -51.00 0.0005869102    1.861    0.463
        34 -14.8174     55.2637    210.6495   1.4037736500e+02   2.4434855671e+01     8.276179    0.5438862  47.68   0.02092229    8.246    0.879
        35  -8.6783    192.1589    144.1956   9.8719959648e+01   1.3694638273e+01    0.2023697    0.1786024 -80.58 0.0003876353    1.285    0.222
        36  -9.7170    110.7053    136.7022   1.1622480491e+02   3.2708858031e+01    0.3424824    0.2393333 -28.48   0.00125817    1.894    0.472
        37 -10.3806     98.2467    133.6815   1.1883202990e+02   3.5647551155e+01    0.2753714    0.2193926 -30.97 0.0003677696    1.472    0.320
        38 -11.1034     50.2013    129.8757   1.3096382115e+02   4.3426732097e+01    0.2643664    0.2221141  82.33 0.0006015213    1.233    0.189
        39 -12.5867     40.6016    229.5611   1.4473342411e+02   2.2433783776e+01    0.3331261    0.2455264 -70.25 0.0007425566    1.472    0.321
        40 -14.1077     47.6465    220.2026   1.4270029353e+02   2.3434755034e+01     1.240507    0.7248906  50.46  0.006035165    1.531    0.347
        41  -9.3968    107.6779    123.5328   1.1403935430e+02   3.6321971150e+01    0.2391323    0.1857432 -51.22 0.0004221369    1.231    0.188
        42  -9.2993     91.9663    214.3076   1.3352074822e+02   1.8351109239e+01    0.2839526    0.1663709  77.46   0.00138154    2.003    0.501
        43 -10.5031    168.0470    113.1277   9.6366582883e+01   2.5658382610e+01    0.3608463    0.2883289 -84.88 0.0006924064    1.524    0.344
        44  -8.8658    203.4966    111.5087   8.8596989305e+01   1.7586327238e+01    0.1519399    0.1479379 -57.26  0.000810535    1.021    0.020
        45  -9.9090     19.0864    229.4821   1.4838893082e+02   2.4921252402e+01    0.1499953   0.09090661  49.43 0.0005862237    1.546    0.353
        46 -11.7602     81.1204    248.6590   1.3924921835e+02   1.3307630926e+01    0.3433599    0.2832166  56.29  0.002427642    1.236    0.191
