#   1 NUMBER                 Running object number                                     
#   2 MAG_AUTO               Kron-like elliptical aperture magnitude                    [mag]
#   3 X_IMAGE                Object position along x                                    [pixel]
#   4 Y_IMAGE                Object position along y                                    [pixel]
#   5 X_WORLD                Barycenter position along world x axis                     [deg]
#   6 Y_WORLD                Barycenter position along world y axis                     [deg]
#   7 A_WORLD                Profile RMS along major axis (world units)                 [deg]
#   8 B_WORLD                Profile RMS along minor axis (world units)                 [deg]
#   9 THETA_WORLD            Position angle (CCW/world-x)                               [deg]
#  10 FWHM_WORLD             FWHM assuming a gaussian core                              [deg]
#  11 ELONGATION             A_IMAGE/B_IMAGE                                           
#  12 ELLIPTICITY            1 - B_IMAGE/A_IMAGE                                       
         1 -10.3021     10.4130     18.7745   1.2030853821e+02   7.1158019913e+01     1.278018    0.4654734 -23.31  0.004356137    6.100    0.836
         2 -10.7693     37.1972      9.5203   1.0273722216e+02   6.9949325005e+01    0.8049895    0.4700095 -34.07   0.00253709    1.510    0.338
         3 -11.1097     23.8667     32.5890   1.1915244037e+02   6.7603483937e+01     1.878789    0.3885437 -43.31  0.005327152    3.767    0.735
         4 -10.0893      4.7684     41.4547   1.3056631486e+02   6.7238706555e+01    0.6953363    0.2817969 -69.74  0.003295433    2.707    0.631
         5  -9.9935      7.1910     28.3454   1.2547213339e+02   6.9641631422e+01    0.2928889     0.256259  53.02   0.00101042    1.659    0.397
         6 -10.2348     76.0648     31.7576   9.7624448334e+01   6.0830150803e+01    0.4518063    0.3834049 -79.20  0.001281769    1.805    0.446
         7  -8.2912    111.4749     21.5051   8.2823880450e+01   5.5036194263e+01    0.4030902    0.1775481 -28.59  0.001694594    2.267    0.559
         8  -9.0348    110.0989     32.9238   8.7740425625e+01   5.3868810444e+01    0.5359143    0.2383763 -41.77  0.001130937    2.439    0.590
         9  -9.2590    102.9505     21.8914   8.5181569049e+01   5.6880201713e+01    0.7353163    0.2675417 -25.53  0.001654646    2.897    0.655
        10  -8.3157    104.3584     15.2190   8.2009717647e+01   5.7347202726e+01    0.4216413    0.2012756  26.58  0.001625545    2.965    0.663
        11 -10.2711     50.7533     15.0157   9.9572779850e+01   6.7336738138e+01     1.040096    0.5266424  -6.83  0.004189042    3.612    0.723
        12  -9.9463    142.1674     29.5105   7.9021588720e+01   4.6708725979e+01     0.599364    0.3617996  -1.13 0.0006114539    2.339    0.572
        13  -8.7943    128.5231     25.0139   8.0228798623e+01   5.0621950727e+01    0.5991353    0.3062933 -10.98   0.00151429    2.659    0.624
        14  -8.6186     95.8262     17.0722   8.5077025802e+01   5.8977502096e+01    0.2545159    0.2143617  -8.54 0.0004005686    1.144    0.126
        15  -8.7732     96.9921     12.2688   8.2660789913e+01   5.9266516634e+01    0.4027876    0.2222576  11.59  0.001762303    2.466    0.594
        16  -8.9279     97.4431      5.7933   7.9683304781e+01   5.9822222253e+01    0.3377396    0.2302703  13.23  0.001126291    1.531    0.347
        17  -8.3818     95.7040      2.6807   7.8731506718e+01   6.0483776895e+01    0.2942839    0.1710074  36.30  0.000600206    1.613    0.380
        18  -9.0587     40.8023     20.9654   1.0666183611e+02   6.7802832560e+01    0.3460328    0.1399618 -38.16 0.0005150966    2.133    0.531
        19  -8.5772    124.9278     13.1449   7.6446591004e+01   5.2811686189e+01    0.2965913    0.2468978  48.28 0.0007718239    1.105    0.095
        20  -8.6709    119.6155     17.1799   7.9171535891e+01   5.3649306109e+01    0.3807293    0.2097028  23.12  0.001602584    2.405    0.584
        21  -8.7842    121.0045      5.5314   7.4252177722e+01   5.4479770920e+01    0.3108782     0.164338  56.46  0.001388663    1.669    0.401
        22  -9.2888    126.6837      8.9480   7.4467154219e+01   5.2800755202e+01    0.3270237    0.2622401 -77.62  0.001054345    1.502    0.334
        23  -8.8710    125.5926      4.7283   7.3042000890e+01   5.3450383231e+01    0.2882474    0.2254088  -1.41 0.0006803169    1.373    0.272
        24  -9.8800     63.6620      3.1112   8.8570211711e+01   6.6718681016e+01    0.4932354    0.2727245 -32.23  0.002702501    1.834    0.455
        25  -8.4023     67.5192      8.5760   8.9973437176e+01   6.5440873553e+01    0.2054429    0.1725986  33.84 0.0006750633    1.217    0.178
        26  -9.5114     63.1255     21.5286   9.7778716296e+01   6.4521053346e+01    0.4030005    0.2587793 -43.17  0.001032963    1.735    0.424
        27  -9.7602     64.3158     13.6085   9.3591270208e+01   6.5388680447e+01    0.3831509    0.2585745 -11.19  0.001291695    1.424    0.298
        28  -9.8163     73.5697     17.4944   9.2155606540e+01   6.3281103766e+01    0.8109059    0.2422695 -28.89  0.002989843    3.396    0.706
        29  -8.5497     76.9626      6.6712   8.5899882366e+01   6.3912747666e+01    0.2599305     0.174784 -16.09 0.0008187107    1.427    0.299
        30  -8.6702     78.6829      3.1311   8.3650987549e+01   6.3938104635e+01    0.2459837    0.2358609 -23.45 0.0009320281    1.283    0.221
        31  -8.9370    115.1728      4.1098   7.4872204634e+01   5.5981623931e+01    0.3198689    0.2320315 -42.17  0.001085171    1.582    0.368
        32  -8.8987    110.6950      6.2858   7.6738959705e+01   5.6822273169e+01    0.5845658    0.2306731  -9.27  0.002101762    3.649    0.726
        33  -9.3363    113.7965     10.1700   7.7651632529e+01   5.5737065098e+01    0.4304862    0.2228148  34.24 0.0003795104    2.083    0.520
        34  -9.5023      2.0723     14.1005   1.2280834861e+02   7.2524805813e+01     0.535199    0.2180282 -60.55  0.002667784    2.812    0.644
        35 -10.0542      5.9616      5.0611   1.1662425409e+02   7.3763807687e+01    0.3898554    0.2328158 -34.35  0.001435641    1.254    0.202
        36  -9.1941      2.5068      3.4949   1.1785464755e+02   7.4258864354e+01    0.2622521    0.1369751 -48.65  0.001663465    1.669    0.401
        37  -9.5768     85.1570     12.9540   8.6330800403e+01   6.1631726662e+01    0.4236072    0.2705503 -54.27  0.001396277    2.450    0.592
        38  -7.8964     80.6369     12.6692   8.7589846995e+01   6.2548798107e+01    0.2583792    0.1287161 -43.82  0.001144018    2.616    0.618
        39  -8.6854     85.0933      4.8779   8.2598116277e+01   6.2495035538e+01    0.4812873    0.2227974  -8.60  0.002065786    2.713    0.631
        40  -8.7313     88.9575      2.4965   8.0408242105e+01   6.1927525120e+01    0.4121228     0.201682 -34.21  0.001736236    2.201    0.546
        41  -8.2348    132.4451     10.2354   7.3854303524e+01   5.1271309812e+01    0.2041766    0.1369731 -21.10  0.001041944    1.585    0.369
        42  -9.9838     20.3101     10.2222   1.1135958537e+02   7.1734674660e+01    0.6699468    0.3920216  43.77  0.003896525    2.714    0.632
        43  -9.6410     18.0745      3.9680   1.0935751215e+02   7.2889262728e+01    0.2981915    0.2916509  49.65  0.001468234    1.736    0.424
        44  -8.7732    101.9104      8.2656   7.9647439531e+01   5.8609530621e+01    0.2034707    0.1747758 -33.93 0.0005088134    1.298    0.230
        45  -8.2400     71.9424      8.5562   8.8448753890e+01   6.4647665251e+01    0.2126209     0.150349  -6.26 0.0006373769    1.344    0.256
        46  -7.3592    137.3328      8.6671   7.2381448343e+01   5.0211014453e+01    0.1428144    0.1009131 -63.80 0.0007052228    1.730    0.422
        47  -8.8802    131.6479      5.7590   7.2314282970e+01   5.1883717214e+01    0.4345832    0.1284354  47.35  0.001523702    3.076    0.675
        48  -9.5354    235.6167      3.3425   5.9342029229e+01   2.5923789934e+01    0.3439098    0.2194504 -36.46  0.001310008    1.484    0.326
        49  -8.6868    104.2014      2.0345   7.6402592127e+01   5.8673447242e+01    0.2325507    0.1749326  54.42 0.0007494891    1.242    0.195
        50  -8.1599    135.6807      1.4896   7.0018555712e+01   5.1256591102e+01    0.2827034    0.1236817  67.18   0.00119366    2.107    0.525
        51  -7.9643    152.5453    115.5210   1.0337901501e+02   2.8984190682e+01    0.1525994    0.1507217 -64.27 4.080166e-05    1.020    0.020
        52  -8.2796    221.8261    250.1843   1.1554178688e+02  -6.4502470591e+00    0.1569884    0.1068776  17.85  0.001068526    1.318    0.241
        53 -10.1980    199.9133    248.0647   1.1890631874e+02  -2.9008841536e+00    0.4297635    0.2604038  35.31  0.002732819    1.295    0.228
        54 -10.4883    184.7801    246.8243   1.2132667818e+02  -3.8530114864e-01     0.380327    0.2376988  26.98  0.002336981    1.561    0.359
        55 -10.0174    192.0958    248.2048   1.2025637166e+02  -1.7046485201e+00    0.3567303    0.2696323 -33.32  0.002520106    1.646    0.392
        56  -9.2088     58.1947    249.7513   1.4336028358e+02   1.7982357870e+01     0.172244    0.1356425  69.28 0.0003380444    1.171    0.146
        57 -10.0373     91.9652    113.0806   1.1834970201e+02   4.1682277785e+01    0.5856068    0.3863978  78.68  0.001629051    2.188    0.543
        58 -10.1685     78.0562    112.9365   1.2223171568e+02   4.3937688721e+01    0.5392569    0.3125819 -78.50  0.001661848    2.308    0.567
        59  -8.0006     77.6741    105.6615   1.2072566892e+02   4.5690438657e+01    0.2846116    0.1963321 -15.81 0.0009259263    2.359    0.576
        60  -9.5602     81.4316     99.2901   1.1810241763e+02   4.6577806030e+01    0.7542354    0.2583063 -52.70  0.002469161    2.616    0.618
        61 -10.6096     62.9892     94.6469   1.2260685269e+02   5.0320037758e+01     1.070047    0.4211023 -54.89  0.002087705    2.166    0.538
        62  -9.5347     67.4002    103.9102   1.2336684677e+02   4.7582450224e+01    0.5110965    0.3263662 -15.43  0.002185303    2.915    0.657
        63 -10.0041     65.9282    111.1028   1.2532572916e+02   4.6101563583e+01    0.5309957    0.3296621  81.51  0.001332591    2.299    0.565
        64  -9.9615     14.0711    111.1710   1.4023186114e+02   5.1413728509e+01    0.5172283    0.2498023  77.58  0.002459986    2.602    0.616
        65  -8.9591     14.0646    104.9792   1.3942145589e+02   5.2830692803e+01     0.236984    0.1567989 -44.72  0.000773704    1.621    0.383
        66  -7.4683    167.4250    114.2249   9.9691120346e+01   2.5846503316e+01    0.2204928     0.143224 -52.73 0.0004317082    1.647    0.393
        67  -7.7793    183.2387    112.9582   9.6024590639e+01   2.2407164742e+01    0.2070858    0.1943491 -30.28   0.00108905    1.064    0.060
        68  -8.3035    158.4978    111.7073   1.0102667511e+02   2.8415379889e+01    0.2688211    0.2076279 -61.77 0.0005771415    1.427    0.299
        69  -9.1070     35.0815    111.4477   1.3431677986e+02   4.9579011372e+01     0.454754    0.1870745 -74.39  0.001849357    2.396    0.583
        70  -8.1455     39.9047    107.1358   1.3219256717e+02   5.0108666032e+01    0.1951341    0.1533295  88.04 0.0005248434    1.261    0.207
        71  -9.0836     36.4061    105.2095   1.3289449269e+02   5.0905142042e+01    0.2227865    0.1981671  19.65  0.001182667    1.420    0.296
        72 -10.8530     20.5194    100.6363   1.3689401991e+02   5.3346724216e+01     1.321818     0.557722 -89.95  0.003877029    3.809    0.737
        73 -10.2779     32.7488     63.8380   1.2525314781e+02   6.0563253513e+01     1.035633    0.4322329 -37.25  0.003838043    2.702    0.630
        74 -10.4218     25.8575     78.2260   1.3113995904e+02   5.8012416436e+01    0.6374665    0.3738716  83.20  0.001942182    2.553    0.608
        75 -10.1002     34.5426     90.8902   1.3082828893e+02   5.4390732893e+01    0.6031184    0.2671159 -78.20  0.001767599    3.033    0.670
        76 -10.4574     36.7247     81.1689   1.2806068520e+02   5.6388966787e+01    0.7842042    0.4111434 -17.65  0.003198878    3.820    0.738
        77  -7.8649    187.3071    108.0098   9.3924010501e+01   2.2384927950e+01    0.2156829    0.1879261 -37.23 0.0001662434    1.127    0.113
        78  -7.2272    159.6110    107.6895   9.9715805689e+01   2.8973593222e+01    0.1640144    0.1238474  13.14 0.0007014023    1.823    0.451
        79 -10.8328     44.4597    102.3372   1.2995454837e+02   5.0752942064e+01     0.781517     0.417611  74.22   0.00288486    3.252    0.692
        80  -9.8834    139.1595    103.4628   1.0340530583e+02   3.4510396855e+01    0.8619809     0.347965 -48.23  0.001925376    2.526    0.604
        81  -9.6252    138.7296     92.0938   1.0033171235e+02   3.6962583765e+01    0.6975815    0.3585843 -38.38  0.001849984    1.974    0.493
        82  -8.6746     91.6575    104.2243   1.1633223103e+02   4.3771715424e+01    0.4170999    0.2786731 -24.17  0.001417311    2.207    0.547
        83  -9.4729    149.4476    103.4362   1.0091734527e+02   3.2189578348e+01    0.4124278    0.2778549 -57.50  0.000921546    1.649    0.394
        84  -8.5905     56.6198    114.7273   1.2870843203e+02   4.6450251985e+01    0.2526028    0.1565112 -73.92   0.00113196    1.548    0.354
        85  -9.4849      5.5208    103.9111   1.4173859785e+02   5.3642299102e+01    0.3548586    0.2651806  48.04  0.002048906    1.561    0.359
        86  -8.6604    165.8525    103.7555   9.7272391150e+01   2.8294389499e+01    0.3001577    0.2145426 -49.52  0.000457115    1.420    0.296
        87  -7.7951     73.8064    102.9862   1.2125141307e+02   4.6886716391e+01    0.2256246    0.1503304 -83.90 0.0006219624    1.924    0.480
        88  -8.8600    159.1113    101.3835   9.8126205479e+01   3.0357039798e+01    0.3510189    0.2274141 -57.31 0.0007344449    1.773    0.436
        89 -10.0394     19.9838     83.6357   1.3419495979e+02   5.7256120165e+01    0.7069592    0.1870436 -57.81  0.002336503    2.568    0.611
        90  -8.6832    150.6682     96.2223   9.8634055899e+01   3.3372649368e+01    0.4333631    0.1944082  37.58  0.001418676    2.948    0.661
        91  -9.3315     94.4022     97.3715   1.1379809046e+02   4.4848841653e+01    0.3517949      0.27122 -75.53 0.0006463219    1.478    0.323
        92  -8.6010     96.1034     90.9060   1.1155657268e+02   4.5981752975e+01    0.4380118    0.2865036  -7.86  0.001697944    2.957    0.662
        93  -8.3538    240.1812     96.6205   8.1934598031e+01   1.2182084698e+01    0.1971746    0.1288262  43.91 0.0009480811    1.710    0.415
        94  -7.7785    171.3542     96.0919   9.3989837822e+01   2.8464253022e+01    0.2321311    0.1364095 -48.91 0.0004782449    1.771    0.435
        95  -8.4639    164.2674     93.8491   9.4886440288e+01   3.0606814661e+01    0.3803967    0.2228723 -37.47  0.001294767    1.703    0.413
        96 -10.2105      4.3527     89.8709   1.4023839903e+02   5.6874501440e+01    0.5559286     0.268233  87.45  0.001800514    2.398    0.583
        97  -9.0588    150.2186     89.4018   9.6788139740e+01   3.4833631918e+01    0.4561739    0.2562437 -34.40  0.001754268    1.870    0.465
        98  -8.1710    157.4977     91.1677   9.5627234061e+01   3.2754169126e+01    0.2376318    0.1518756 -41.27  0.001012535    1.538    0.350
        99  -8.8252    108.9329     90.7296   1.0781821050e+02   4.3600067148e+01    0.5825322    0.2689137  31.98  0.001988372    3.202    0.688
       100  -8.7547    113.3958     88.1972   1.0584239378e+02   4.3246859646e+01     0.351978    0.2614859  76.65  0.001083873    1.803    0.445
       101 -10.5162     48.0823     83.2571   1.2471912981e+02   5.4735354486e+01     1.007128    0.4023803 -53.61  0.002041424    2.034    0.508
       102 -10.5523     55.1882     71.0083   1.1908559571e+02   5.6591213136e+01    0.7119439    0.4801559  79.84  0.001263141    2.600    0.615
       103 -10.2027     62.0787     60.9173   1.1357635738e+02   5.7790790055e+01     0.673212     0.310395  31.69   0.00106033    2.541    0.606
       104 -10.0861     85.2467     86.5843   1.1361592166e+02   4.8812911610e+01    0.4626327    0.3261051 -82.30 0.0008091551    2.016    0.504
       105  -9.3004     87.4058     78.6643   1.1066199775e+02   5.0159953897e+01    0.5196756    0.3503985  12.07  0.001822518    2.228    0.551
       106  -7.7801    174.4642     88.5147   9.1217960571e+01   2.9127998553e+01    0.1556301    0.1503038 -63.39 0.0004927986    1.025    0.024
       107  -7.0921    207.9828     87.0191   8.4551100216e+01   2.1170363963e+01    0.1713593    0.1669181  83.66            0    1.060    0.056
       108  -8.2502    163.5152     86.2811   9.2886319379e+01   3.2231460404e+01    0.3972651     0.219392 -26.87 0.0008614491    2.194    0.544
       109  -9.4233    240.1438    108.6571   8.4846535562e+01   1.0277765837e+01    0.3116132    0.2099126 -44.66  0.001119872    1.441    0.306
       110 -10.2650    103.8709     82.6310   1.0689898158e+02   4.6310378635e+01    0.5482736     0.293178 -54.34 0.0008895673    2.008    0.502
       111  -9.2794    105.1782     71.0848   1.0291976100e+02   4.8409850123e+01    0.7060366    0.4856187 -24.20  0.002677895    1.681    0.405
       112  -8.6423    156.5713     70.5831   8.9687203521e+01   3.6811875120e+01    0.4440453    0.2145279 -32.04  0.001352197    2.183    0.542
       113  -8.7361    157.5888     83.1236   9.3263262479e+01   3.4271232319e+01    0.4181833    0.2315967 -36.80  0.001132763    1.802    0.445
       114  -8.6584    157.1194     76.8703   9.1494222541e+01   3.5546110596e+01    0.5409994    0.2887512 -60.47  0.001557147    2.925    0.658
       115  -9.1961    140.4528     82.0424   9.6936905748e+01   3.8568515782e+01    0.9828675    0.3299617 -34.51  0.002891304    3.527    0.716
       116  -8.8525    139.9419     75.5125   9.5053941306e+01   3.9938882151e+01    0.4839379    0.2760003 -46.08  0.001433346    1.776    0.437
       117  -8.0504    170.1817     83.1746   9.0569953846e+01   3.1166735469e+01    0.2277021    0.1812882 -65.58 0.0008875103    1.407    0.289
       118  -9.5136     59.7644    110.1159   1.2691741751e+02   4.7141373330e+01    0.4131955     0.221209  59.08  0.001543341    2.512    0.602
       119  -8.6362    149.8864     80.2981   9.4166531750e+01   3.6668106781e+01    0.4344723    0.2059387 -42.28  0.001336772    2.071    0.517
       120  -8.6090    119.0116     80.4848   1.0198996972e+02   4.3672827820e+01    0.3197655    0.2175033 -61.94 0.0007832161    1.781    0.439
       121  -8.1812    119.8955     76.0618   1.0037400387e+02   4.4366427200e+01    0.2944021    0.2269171  -1.59 0.0007458286    1.696    0.411
       122  -9.0475     74.2281     79.1868   1.1500364848e+02   5.2183952414e+01    0.6505748    0.2293314 -50.98  0.002021698    2.545    0.607
       123  -9.5896      6.1305     78.6888   1.3795060922e+02   5.9264976402e+01    0.6609815    0.2600871 -29.47   0.00277274    4.196    0.762
       124  -9.0861    209.2635    250.0258   1.1760409496e+02  -4.5576456920e+00    0.2100683    0.1200412  46.01  0.001279031    1.624    0.384
       125 -10.7792    170.2748    247.9922   1.2398859376e+02   1.7572932082e+00    0.4831928     0.203155  42.81  0.002515927    1.849    0.459
       126  -9.6139     15.8878     70.9194   1.3312147927e+02   6.0371608917e+01    0.4489066    0.1917458 -57.77  0.001323235    1.725    0.420
       127  -9.7861     17.1165     61.3449   1.3055080299e+02   6.2358623531e+01    0.7875009    0.2339614 -59.19   0.00347951    2.416    0.586
       128  -7.5503     83.4634    246.4280   1.3890877754e+02   1.5193286576e+01    0.1132045   0.08224627  61.15 0.0001675037    1.012    0.012
       129 -10.7845     21.8942     53.7273   1.2673771961e+02   6.3610109352e+01    0.7559463    0.4138603 -83.29  0.002804011    3.380    0.704
       130  -9.7394     14.9087     44.4375   1.2701378042e+02   6.6015417932e+01     0.505302    0.2169513 -38.30  0.001214273    2.129    0.530
       131  -9.9662    156.3688    244.6355   1.2600228891e+02   4.4304788200e+00    0.2670158    0.1233505  37.97   0.00102686    1.854    0.461
       132  -9.4849      6.7237     32.5798   1.2708220038e+02   6.8867645610e+01    0.2258613    0.1831976 -23.14 0.0007697243    1.227    0.185
       133  -7.4819    125.5054    237.4949   1.3066838569e+02   1.0413575483e+01    0.1195869   0.09468964  52.76 -0.0001970344    1.024    0.023
       134  -8.8021    166.1462     78.6511   9.0085179352e+01   3.2990350613e+01    0.2941765    0.2257335 -31.66 0.0005607872    1.329    0.248
       135  -8.1130    184.1152     78.1070   8.6348405962e+01   2.8590639413e+01    0.2320688    0.2122376  12.87 0.0005019468    1.220    0.180
       136  -9.5367    127.6126     73.7267   9.7587584216e+01   4.3118936553e+01    0.8273948    0.3713031 -33.84  0.001473075    2.430    0.588
       137  -8.5664    130.6047     64.2008   9.3723702723e+01   4.4201159075e+01     0.504836    0.2089609 -45.00  0.001787112    2.523    0.604
       138  -9.7893     81.6282     72.5645   1.1063577635e+02   5.2417846431e+01    0.4263398    0.2972555 -73.54 0.0009463685    2.029    0.507
       139  -9.0078     83.4105     64.5033   1.0747054455e+02   5.3758531717e+01    0.5432199    0.3366006 -14.06  0.002262598    2.595    0.615
       140  -9.0176    115.2426     72.0951   1.0038375102e+02   4.6138946298e+01    0.5639908    0.2387204 -36.09  0.001820424    2.487    0.598
       141  -7.8235    162.7842     73.0897   8.9123960378e+01   3.4822670955e+01    0.2387032    0.2024114 -64.39 0.0007407626    1.264    0.209
       142  -9.1924     55.3087     63.1043   1.1670282536e+02   5.8244745614e+01    0.4399285    0.3344153   8.78  0.001516853    1.570    0.363
       143  -8.3633    169.5840     70.9111   8.7063267318e+01   3.3496188351e+01    0.3168002    0.1795285 -49.00 0.0007955655    1.882    0.469
       144  -9.3165    146.8832     68.6725   9.1256520803e+01   3.9531217055e+01    0.5499049    0.2551514 -43.89  0.001626948    2.181    0.541
       145  -9.5496     94.8206     68.4742   1.0517109018e+02   5.0928109016e+01    0.4084804    0.2497905 -53.79 0.0007601961    1.764    0.433
       146  -9.3053     97.0258     58.9017   1.0125125123e+02   5.2349655855e+01    0.7524421    0.4265605 -10.23  0.002483683    4.016    0.751
       147  -7.7445     22.8503     69.1205   1.3021576815e+02   6.0259714554e+01    0.1636848    0.1151817 -43.13 0.0002543737    1.281    0.220
       148  -9.2977    137.9997     65.5724   9.2351686923e+01   4.2220226653e+01    0.5160832    0.2552756 -34.82  0.001258905    2.038    0.509
       149  -9.0816    121.0867     65.8201   9.6733543286e+01   4.6063479611e+01    0.4001518    0.2865903 -60.66 0.0008901881    1.697    0.411
       150  -8.2336    122.0085     61.4764   9.5027119505e+01   4.6647856563e+01     0.297047    0.2255813  28.44 0.0008339114    1.473    0.321
       151  -7.7763     75.6253     66.7055   1.1076031026e+02   5.4598248473e+01    0.1919217     0.121902 -53.75 0.0003735702    1.566    0.362
       152  -8.8312    191.0587     65.0939   8.1351825958e+01   2.9004462608e+01    0.2151297    0.2120169 -42.87 0.0002924344    1.053    0.050
       153  -7.8236    171.0384     65.2264   8.5053085337e+01   3.4090110966e+01    0.2484794    0.1745964 -84.54 0.0007022457    1.889    0.471
       154  -9.1943    109.8703     63.9910   9.9214562252e+01   4.8816244068e+01    0.3688696    0.2550566 -52.62 0.0007572904    1.575    0.365
       155  -8.8851    110.6522     57.9844   9.6924146529e+01   4.9749667304e+01    0.3324566    0.2632294 -16.16  0.000905109    1.360    0.265
       156  -8.5481    157.6370     62.8609   8.7039268111e+01   3.7876927503e+01    0.3711062    0.2207947 -38.39  0.001150388    1.657    0.396
       157  -9.8979     73.0305     59.2663   1.0918431728e+02   5.6497499985e+01    0.4717894    0.2539814 -54.37 0.0009004496    2.027    0.507
       158  -9.6128     75.7852     50.3203   1.0506656746e+02   5.7750780076e+01    0.6087693    0.3662887   8.90  0.002550331    2.830    0.647
       159  -8.0879      9.5668     60.2087   1.3317909403e+02   6.3087880075e+01    0.2264207   0.09609554 -68.25  0.001130483    2.042    0.510
       160  -7.8087    152.0652     60.3262   8.7421831918e+01   3.9694746823e+01    0.2116795    0.2003738  76.83 0.0006575453    1.077    0.071
       161  -8.5289    146.4709     58.9992   8.8224301593e+01   4.1301882070e+01    0.3241445    0.2130723 -51.30 0.0006459702    1.673    0.402
       162  -8.9169    147.5729     54.0127   8.6331958987e+01   4.1844086836e+01    0.5044683     0.223614 -25.47  0.001754018    2.755    0.637
       163  -9.2611     87.7155     56.5409   1.0333977581e+02   5.4533483281e+01    0.7904159    0.3212931 -33.66  0.002458381    2.779    0.640
       164 -10.2053     85.1008     48.1466   1.0112196475e+02   5.6525378986e+01    0.3874529    0.2939665 -60.67  0.001049036    1.698    0.411
       165  -9.3194    138.8663     56.2893   8.9065143517e+01   4.3608185286e+01    0.5694156    0.2109599 -36.60  0.001579205    2.625    0.619
       166  -8.5341    129.9593     57.6246   9.1671131378e+01   4.5501030088e+01    0.3264089     0.204567 -46.77 0.0005882569    1.681    0.405
       167  -7.9662    130.6794     53.6604   9.0129363308e+01   4.5996993620e+01    0.2572673    0.1631889  14.79  0.001001778    2.499    0.600
       168  -9.4966    118.3211     54.9108   9.3735812005e+01   4.8619951742e+01    0.5185513    0.3305513 -48.02  0.001451891    1.689    0.408
       169  -9.5360    121.4155     45.6965   8.9621747967e+01   4.9429593203e+01    0.7490025    0.3173417 -23.30  0.001197029    3.241    0.691
       170 -10.0081     49.7641     53.4374   1.1566835883e+02   6.0897999328e+01    0.6706097    0.2785082 -56.73  0.002558153    2.636    0.621
       171  -9.3952     56.0652     43.2261   1.0961462066e+02   6.2031561950e+01    0.7258102    0.3994417  -7.67  0.002795567    3.770    0.735
       172  -8.8394    162.8870     54.3140   8.3252012592e+01   3.7931987056e+01    0.3295155     0.225289 -47.17 0.0009153374    1.508    0.337
       173  -7.8110    164.8295     60.8060   8.4915439477e+01   3.6398879512e+01    0.2127169    0.1794441 -76.84 0.0005760919    1.309    0.236
       174 -10.3329     89.5211     38.3374   9.5885351715e+01   5.7333060852e+01    0.8111056    0.3165122  35.65  0.002735522    3.296    0.697
       175  -9.4653     44.2718     53.2701   1.1772932492e+02   6.1576356391e+01    0.3668199    0.1832644 -37.54  0.001122376    1.903    0.474
       176  -7.7828    152.5933     53.7725   8.5174267198e+01   4.0627534631e+01    0.2131023    0.1359516 -44.58 0.0004178752    1.609    0.379
       177  -9.0723    105.1699     52.1358   9.6406462105e+01   5.1926509929e+01    0.5280446    0.2763809 -37.25  0.001520696    1.846    0.458
       178  -9.9641    246.3841     51.9134   7.0148719073e+01   1.7477229036e+01    0.2567195    0.2506689  15.64 0.0003166359    1.217    0.178
       179  -8.7799    250.0473     47.7209   6.8737467916e+01   1.7223514449e+01    0.2595725    0.1782137 -42.45 0.0006291296    1.270    0.213
       180  -8.6013    157.4309     49.2427   8.2696411477e+01   4.0104110819e+01    0.2126266    0.1363132 -43.55 0.0005008438    1.591    0.371
       181  -8.5503    141.9135     48.6606   8.5775179680e+01   4.4085393131e+01    0.3084008    0.2065632 -37.22  0.000390178    1.495    0.331
       182  -7.9866    142.3528     44.4217   8.4219528458e+01   4.4617879896e+01    0.2902455    0.1316501  52.38  0.001120467    2.094    0.522
       183  -8.7560    139.4556     39.7040   8.3202845818e+01   4.6018210117e+01      0.48894    0.2218948 -30.84  0.001644539    2.227    0.551
       184  -9.6983    130.4987     46.2114   8.7558202166e+01   4.7227668201e+01     0.885165    0.3610203 -22.29  0.002056366    3.615    0.723
       185  -8.7058    132.8610     36.0965   8.3370404317e+01   4.8136623496e+01    0.3147465    0.2403467 -31.27  0.000666531    1.330    0.248
       186  -9.8962    133.9701     31.1259   8.1313586715e+01   4.8531676876e+01    0.2604615    0.2278935  36.67            0    1.116    0.104
       187  -8.2613    149.7981     48.0911   8.3877202298e+01   4.2210220794e+01    0.2927525     0.193699 -41.10 0.0006442427    1.530    0.346
       188 -10.1175    151.8624     41.8919   8.1368091410e+01   4.2600016119e+01    0.6615759    0.3957132  38.59  0.001965476    1.878    0.468
       189  -8.4446    111.8889     46.7733   9.2541795296e+01   5.1390650534e+01    0.2693247    0.1958451 -40.59 0.0005354771    1.388    0.280
       190  -8.5114    113.4865     41.9998   9.0327526455e+01   5.1790101820e+01     0.450076    0.2704493  10.18  0.001746807    2.792    0.642
       191 -10.3408     37.3370     41.6592   1.1657268117e+02   6.4600440287e+01    0.5679291    0.3602771 -76.33  0.002327664    3.185    0.686
       192 -10.5190     35.8876     37.9696   1.1584311257e+02   6.5445657355e+01    0.4195184    0.2639287 -19.38 0.0003700359    1.745    0.427
       193  -7.6688    162.1938     46.3835   8.0838096346e+01   3.9310900807e+01    0.2115435     0.142103  76.42 0.0004910997    1.691    0.408
       194  -8.9055     69.8760     26.1380   9.7374298684e+01   6.2739065358e+01    0.4068432    0.2149471  31.03  0.001956208    2.094    0.523
       195 -10.0602     69.3353     40.6085   1.0363595261e+02   6.0523049892e+01    0.8350772    0.3585919 -38.99  0.002191253    2.130    0.531
       196  -9.7725    187.8874    233.6272   1.1895351542e+02   8.3764828991e-01    0.2941835    0.2389629 -88.16  0.001532427    1.938    0.484
       197  -9.2093     84.7343     21.9681   9.0515825266e+01   6.0616251728e+01    0.2900563    0.2472935  25.05 0.0009116899    1.103    0.094
       198  -7.5150    240.2896     42.3308   6.8452270569e+01   2.0181607051e+01    0.1302707    0.1069378  20.48 0.0003023376    1.624    0.384
       199  -7.5086     51.0238    234.2602   1.4352522151e+02   2.1530167996e+01    0.1316547   0.07645901  47.54 0.0002983686    1.459    0.314
       200  -7.2140    130.7232    232.3357   1.2913093959e+02   1.0411946560e+01    0.1198117   0.08075617  68.99 0.0001927418    1.608    0.378
       201  -8.4983    110.2156     26.7927   8.5274768350e+01   5.4664620168e+01    0.3248028    0.2009301 -25.46  0.001364356    1.635    0.388
       202  -9.1079    104.8602     40.9727   9.2317703060e+01   5.3819434217e+01    0.3709701    0.2474308 -52.87  0.001034692    1.858    0.462
       203  -8.4704    106.0505     36.4568   9.0228882594e+01   5.4246752948e+01    0.3269082    0.2121699  24.84  0.001010778    1.818    0.450
       204  -8.6782    246.5952     41.3008   6.7541920220e+01   1.8863406448e+01     0.228758     0.156527  46.94  0.001190171    1.781    0.439
       205  -8.5625     53.2739     39.3204   1.0920442332e+02   6.3114457139e+01    0.3988327    0.1552205 -32.41  0.001543166    3.072    0.675
       206  -8.5164    160.2886     39.0343   7.8794970610e+01   4.0844169819e+01    0.3129122    0.1727519 -37.98 0.0009542052    1.808    0.447
       207  -9.9674     79.0989     24.1139   9.3287886210e+01   6.1394337029e+01    0.6083431    0.3000966  29.65  0.001676564    2.491    0.599
       208  -7.5541    187.7788     38.4803   7.4048772332e+01   3.3777596907e+01    0.2084518    0.1278817  52.21 0.0009348837    1.642    0.391
       209  -8.5012    144.0325     36.4812   8.1100938859e+01   4.5328166869e+01    0.2544032    0.1922501 -47.39 0.0004334582    1.412    0.292
       210  -8.7748    118.8185     34.4660   8.6091029091e+01   5.1685281972e+01    0.3349768    0.1996145 -29.24 0.0007003549    1.690    0.408
       211  -8.5180     36.0145    227.8409   1.4566473874e+02   2.4463179065e+01    0.1708449    0.1205446  80.73 0.0004186992    1.128    0.114
       212  -6.9912     56.2774    217.2624   1.4135028144e+02   2.3991334905e+01   0.09170057   0.08656911 -88.16            0    1.475    0.322
       213  -9.4633    101.0092     31.8812   8.9827247961e+01   5.5978895813e+01    0.5291701    0.1976421 -37.49  0.001533884    2.642    0.621
       214  -8.7405    153.2000     34.5303   7.8615351047e+01   4.3269296667e+01    0.2663559     0.208439 -29.02 0.0006782884    1.320    0.242
       215  -9.4825     60.1077     33.4788   1.0417698165e+02   6.3149902543e+01    0.4409433    0.2448381 -47.41  0.001568877    1.929    0.482
       216  -8.5636     63.0680     26.6642   1.0011729413e+02   6.3775364832e+01    0.3619595     0.148009  33.21 0.0008362286    2.868    0.651
       217  -8.3932     45.3871     15.7693   1.0220626997e+02   6.7987201006e+01    0.1794946    0.1300743 -22.97   0.00114409    1.167    0.143
       218  -7.3857      2.6732    217.6852   1.5071971890e+02   2.9782058210e+01   0.08845958   0.07089261 -69.44  0.000643009    1.671    0.401
       219 -10.1628     46.2644     29.9157   1.0824298063e+02   6.5660840132e+01     0.450319    0.2627387 -53.08 0.0009433758    2.087    0.521
       220  -8.7602     42.1807     27.8895   1.0911999340e+02   6.6510831100e+01    0.2393045    0.1483583 -30.01            0    1.413    0.292
       221  -7.8799     68.7711     79.4939   1.1687033137e+02   5.2924723358e+01     0.314411    0.1363368 -43.35  0.001287635    2.208    0.547
       222  -8.1296    159.3669     31.7999   7.6567393554e+01   4.2039297360e+01    0.1944169    0.1414165 -13.67 0.0005729405    1.571    0.363
       223 -10.0077     10.0845    207.5750   1.4898242579e+02   3.0989210475e+01    0.4536376     0.241852  32.88  0.002907445    2.295    0.564
       224  -9.1072    152.1313     26.8872   7.6204185373e+01   4.4509169086e+01    0.3646549     0.229778  88.83  0.001586535    2.053    0.513
       225  -8.3217    136.1472     27.0987   7.9380018862e+01   4.8505852427e+01    0.2164361    0.1846225  24.53 0.0004666684    1.209    0.173
       226  -8.3368    124.0005    206.0052   1.2710112919e+02   1.6071577455e+01    0.1825899    0.1523723  58.11            0    1.014    0.014
       227  -9.2090    132.2384     17.4288   7.6596989440e+01   5.0585984116e+01    0.4722273    0.2884681  64.96  0.001884476    1.610    0.379
       228  -9.1713     91.1951     26.1175   9.0318548257e+01   5.8792369774e+01    0.3638691    0.2339268 -45.61  0.001215042    1.834    0.455
       229  -8.5165     92.2824     20.8307   8.7722982835e+01   5.9259176042e+01     0.300443    0.1762774  24.93 0.0007454199    1.985    0.496
       230  -7.5308     55.6166    205.1964   1.4047348870e+02   2.6414011463e+01    0.1476327   0.09603198 -67.65 0.0005099922    1.586    0.369
       231 -10.0870    180.2431    198.7148   1.1489727526e+02   7.3389841773e+00    0.2200444    0.2118012  50.49 0.0003030456    1.135    0.119
       232  -8.7640    191.2061    193.2142   1.1183927109e+02   6.2103709803e+00    0.5206652    0.2695264 -61.48  0.001851619    4.494    0.777
       233  -7.2319    181.0276    183.9984   1.1213957213e+02   9.6529663985e+00     0.159541    0.1428294  36.35 0.0009460488    1.016    0.016
       234  -7.3459     55.3897    164.2192   1.3637656646e+02   3.5116392809e+01    0.1076494   0.09811006 -21.50  0.000685912    1.620    0.383
       235  -8.8820    139.2143     22.1865   7.6974256519e+01   4.8329197555e+01    0.3689484     0.208671 -63.94  0.001106098    2.751    0.636
       236  -8.2948      8.7894    154.1884   1.4583786043e+02   4.2130037606e+01    0.1458652     0.110443 -70.84 0.0003610171    1.289    0.224
       237  -9.4520    118.8780     21.5454   8.1063370478e+01   5.3327431576e+01    0.3300051    0.2359813 -50.61 0.0005883838    1.669    0.401
       238  -8.6480    133.5124    145.3550   1.1479162593e+02   2.6644050167e+01    0.5609179    0.1462748 -51.61  0.001616544    4.078    0.755
       239  -7.5798     10.7252    148.3259   1.4492943663e+02   4.3264073716e+01    0.1200101   0.06826214  74.31 0.0001758048    1.585    0.369
       240  -7.0837    195.3131    147.7057   1.0192139034e+02   1.3206442847e+01    0.1411941    0.1170516 -85.90 0.0002165253    1.596    0.374
       241  -9.4430     67.0016    144.5518   1.3095582396e+02   3.8099344201e+01     0.460203    0.2791714  68.38  0.002059308    1.857    0.461
       242  -8.5665    125.8925    144.6630   1.1645199694e+02   2.8289900810e+01    0.2149157    0.1933117 -48.69 0.0003170465    1.176    0.150
       243  -8.6373    190.9063    135.0587   9.9906295423e+01   1.6482014894e+01    0.2213025    0.2084655   1.07 0.0003395566    1.077    0.071
       244  -8.4761    136.0816    132.7549   1.1144430381e+02   2.8861530145e+01    0.5409626    0.1824395 -52.30  0.001703302    3.237    0.691
       245  -7.4656     56.4496    135.2255   1.3221175859e+02   4.1646546864e+01    0.1822931    0.1117898 -80.91 0.0009283382    1.585    0.369
       246  -8.2618    112.2534    133.9800   1.1757613268e+02   3.3269774005e+01     0.272875    0.1929449  72.52 0.0009434065    1.693    0.409
       247  -9.5208     98.7205    129.0250   1.2000849909e+02   3.6833777216e+01    0.5809656     0.343481  76.28  0.002240604    2.805    0.643
       248 -10.4023    236.7780    127.4649   8.9806130538e+01   7.9643717427e+00    0.2760477    0.2699338 -33.62 0.0005832443    1.125    0.111
       249  -8.1511    139.9607     18.2876   7.5416830601e+01   4.8579067649e+01    0.1981447    0.1759549  60.52 0.0004718694    1.070    0.066
       250  -7.7368    160.9822    128.6855   1.0471797123e+02   2.4377003194e+01      0.26544    0.1603194 -74.45 0.0008934125    3.233    0.691
       251  -8.7911    126.0357     83.8260   1.0112997977e+02   4.1478989344e+01    0.5861062    0.3523278  16.03  0.001933686    3.603    0.722
       252  -8.6422    112.3041     15.6480   8.0238100484e+01   5.5513635527e+01    0.2530596    0.2081982 -47.03 0.0005797175    1.405    0.288
       253  -9.9816    117.6316    125.7895   1.1442051261e+02   3.4104633570e+01    0.9682994    0.6069961  81.58  0.003702692    2.720    0.632
       254 -10.3196    131.7825    119.8240   1.0945114968e+02   3.2581212227e+01    0.8351808    0.5242029  88.50  0.002315565    3.101    0.678
       255 -10.5498    133.3414    109.2653   1.0639615459e+02   3.4547174595e+01     1.470845    0.4767631 -50.89  0.004389059    3.435    0.709
       256 -10.1914    108.5689    114.4531   1.1413739986e+02   3.8403481311e+01     0.857402    0.4346697 -64.53  0.002304161    2.579    0.612
       257 -10.4231    127.7857    102.5477   1.0602435175e+02   3.7182930665e+01    0.7720174    0.5729186  68.00  0.002519723    1.592    0.372
       258 -10.5045    108.5526     99.8639   1.1044458059e+02   4.1681015134e+01    0.9820638    0.7212211 -83.14  0.004532915    1.802    0.445
       259 -10.2804    123.3807     91.2995   1.0403565552e+02   4.0512845198e+01    0.8159556    0.5407292 -38.79  0.002236057    1.511    0.338
       260 -10.1137     70.2894    126.1187   1.2701191765e+02   4.1966621854e+01    0.5689806    0.5091543 -65.99   0.00194832    1.099    0.090
       261  -8.1305    141.1882     12.7942   7.3203604954e+01   4.8845962852e+01    0.2053733    0.1519074  38.99   0.00104992    1.347    0.258
       262  -7.2222    134.3286     13.3009   7.4646751870e+01   5.0503622688e+01    0.2199653    0.1348035  -8.15  0.000888334    1.924    0.480
       263 -10.1057     58.3332    124.7844   1.3002122144e+02   4.3867031617e+01    0.6582952    0.3510031  74.07  0.002583321    2.903    0.656
       264 -11.0661    120.6833    110.8139   1.1003419601e+02   3.6853117420e+01     1.368701     0.623639 -49.33  0.003098611    2.136    0.532
       265  -9.5300     27.3991    123.0580   1.3813049568e+02   4.7590543043e+01    0.5023251    0.2335217  69.59  0.002096866    2.995    0.666
       266  -9.0068     41.1302    121.9372   1.3425773088e+02   4.6516724755e+01     0.410111    0.1989228 -79.71  0.001601637    2.148    0.534
       267  -8.4637    129.4145    123.2624   1.1086746397e+02   3.2315904802e+01    0.2131027    0.1417597 -59.62 0.0009436525    1.590    0.371
       268  -9.9720    140.4739    117.8022   1.0681999338e+02   3.1169955203e+01    0.8282097    0.3109135 -45.69  0.001299043    2.635    0.621
       269  -7.7544    157.8239    121.6335   1.0370769907e+02   2.6531135752e+01    0.2201552    0.1439537  58.67 0.0009419117    1.668    0.401
       270  -7.5218    165.9988    119.3339   1.0130558803e+02   2.5149369830e+01    0.2102827    0.2014763  69.13  0.000519601    1.054    0.052
       271  -8.3648      1.3517    116.2726   1.4425863784e+02   5.1110990530e+01    0.2280219   0.07868657 -71.31  0.000921193    2.092    0.522
       272  -9.8082      8.7006     47.2135   1.3041150931e+02   6.5851222875e+01    0.6723009    0.2090218  26.67  0.003191886    3.682    0.728
