#   1 NUMBER                 Running object number                                     
#   2 MAG_AUTO               Kron-like elliptical aperture magnitude                    [mag]
#   3 X_IMAGE                Object position along x                                    [pixel]
#   4 Y_IMAGE                Object position along y                                    [pixel]
#   5 X_WORLD                Barycenter position along world x axis                     [deg]
#   6 Y_WORLD                Barycenter position along world y axis                     [deg]
#   7 A_WORLD                Profile RMS along major axis (world units)                 [deg]
#   8 B_WORLD                Profile RMS along minor axis (world units)                 [deg]
#   9 THETA_WORLD            Position angle (CCW/world-x)                               [deg]
#  10 FWHM_WORLD             FWHM assuming a gaussian core                              [deg]
#  11 ELONGATION             A_IMAGE/B_IMAGE                                           
#  12 ELLIPTICITY            1 - B_IMAGE/A_IMAGE                                       
         1 -16.6545    206.6119    107.8285   5.0079537891e+01   1.8772312101e+01     8.885072     6.126266 -80.34   0.03558272    2.010    0.503
         2 -15.0265    219.1063     65.2122   3.8883579187e+01   2.3358472001e+01     1.365141     1.220022 -62.66  0.009052899    1.111    0.100
         3 -16.5111    235.6344     38.0856   3.1658040174e+01   2.3859767235e+01     8.318028     1.223579  61.59    0.0255959    5.605    0.822
         4 -14.5019    249.3047     23.2984   2.7856433404e+01   2.3123413957e+01     1.092132    0.4583156 -37.53  0.005998458    2.261    0.558
         5 -15.6294    231.8141     58.8432   3.6138563309e+01   2.1775501995e+01     2.125416     1.376489 -79.89   0.01237656    1.603    0.376
         6 -14.9537    179.5618     77.3635   4.7393277737e+01   2.9917066334e+01     5.707016     1.638667 -37.54   0.01863166    3.488    0.713
         7 -13.2460    234.1403      2.5276   2.5089442263e+01   2.8261051153e+01    0.3486703    0.2499531 -37.10  0.001519634    1.615    0.381
         8 -12.4779    228.8591      2.2021   2.5353525968e+01   2.9310330251e+01    0.2422485    0.1873744 -44.76  0.001229415    1.413    0.292
         9 -13.6124    231.7400     13.4135   2.7251951404e+01   2.7560273910e+01    0.4998289    0.2669786 -29.55  0.001836033    2.364    0.577
        10 -12.7862    227.9922      9.2981   2.6735387789e+01   2.8737502641e+01     0.363107     0.219313 -83.25  0.001367305    1.407    0.289
        11 -11.2769    125.8507     14.6212   3.9294587855e+01   5.0780056372e+01    0.1997948    0.1743041  14.12 0.0008298652    1.362    0.266
        12 -11.8505    214.1014     12.2286   2.8318572460e+01   3.1206808957e+01    0.2030469    0.1575907 -64.89 0.0003790057    1.108    0.098
        13 -10.3074    145.6716      8.9569   3.4580300183e+01   4.6682406893e+01    0.2514943    0.1786194 -44.99  0.001111107    1.543    0.352
        14 -10.1945     81.6562     10.1009   4.7389195666e+01   6.1052613772e+01    0.1918231    0.1488644  55.15 0.0003533356    1.185    0.156
        15 -10.5720    159.4715      4.5822   3.1711366805e+01   4.3889996717e+01    0.4727722    0.1301268 -24.16  0.001777616    4.751    0.790
        16 -10.0612    217.2649      6.8793   2.7019731092e+01   3.1126141955e+01     0.141213    0.1173688 -72.07 0.0002684016    1.140    0.123
        17 -11.3940    135.3916      4.8639   3.4852050606e+01   4.9413961015e+01    0.2294161    0.2227963  44.05 0.0004930153    1.222    0.182
        18 -11.5971    243.1813      3.1190   2.4665186936e+01   2.6501774988e+01    0.1939584    0.1464674 -82.54   0.00048296    1.143    0.125
        19 -12.4571    249.5974      3.1902   2.4319864027e+01   2.5321726664e+01    0.2540924    0.1807134 -69.33  0.001515371    1.003    0.003
        20 -11.5305    160.8759    128.5938   6.4001019858e+01   2.4086779513e+01      0.43027    0.3501259 -54.06  0.001791383    1.244    0.196
        21 -10.9447    134.9999    121.5539   6.8629140036e+01   3.1106514830e+01    0.5638856    0.1925545 -47.67  0.001740224    2.927    0.658
        22 -11.8892    162.7685    120.9033   6.1685110397e+01   2.5332171608e+01    0.3499626     0.282761 -51.17 0.0004417946    1.218    0.179
        23 -11.7791    167.1129    114.9855   5.9259899179e+01   2.5632869041e+01    0.5007012     0.428475   1.52  0.002541916    1.398    0.285
        24 -11.1978    135.0000    110.6151   6.5774955511e+01   3.3531037943e+01    0.8652038    0.2323915 -41.83  0.002370077    3.845    0.740
        25 -10.5252    134.5973    104.1828   6.4150033268e+01   3.4994703958e+01    0.5716553    0.3314535 -56.23  0.002255727    2.044    0.511
        26 -10.6514    183.8680    212.1521   7.6497673555e+01   2.2714139253e+00    0.3404159    0.1659335  10.42  0.001096001    4.177    0.761
        27 -11.7976    232.1674    207.8074   6.6134990750e+01  -3.7953354790e+00    0.3872233    0.1979131 -28.62  0.001575276    1.775    0.437
        28 -11.4170    123.9971    109.2896   6.8378616452e+01   3.6174262607e+01    0.4113035     0.391309  39.79  0.001490148    1.065    0.061
        29 -10.6062    127.2424    105.5304   6.6466353544e+01   3.6302873278e+01    0.3766099    0.2412395 -48.15  0.001003331    1.580    0.367
        30 -10.6763    134.0000    147.5848   7.5214627114e+01   2.5229459550e+01     0.605736    0.1604715 -51.96  0.001560661    4.197    0.762
        31  -9.6633    142.8613    105.3643   6.2381535233e+01   3.2931027442e+01    0.2246647    0.1416685  35.41 0.0009351136    1.776    0.437
        32 -11.4406    149.9452    101.3891   5.9623842981e+01   3.2173263549e+01    0.3593493    0.2932291  20.86 0.0007245188    1.456    0.313
        33 -12.8099    160.6573     95.8189   5.5763626072e+01   3.0866439758e+01    0.7355174     0.397125  35.02     0.002817    2.498    0.600
        34 -12.1950    241.2554    199.6407   6.3028451222e+01  -3.6122273015e+00    0.5510353    0.3719914  62.21  0.002529134    3.855    0.741
        35  -9.4788     86.3145    146.2395   8.8640625729e+01   3.4248676664e+01    0.1517891    0.1195308 -14.59 0.0002509574    1.506    0.336
        36 -15.2067    235.8283     81.0275   4.0207390886e+01   1.7669298640e+01      1.96922     1.203695 -71.06   0.01042583    1.891    0.471
        37 -12.3384    232.2478    201.3847   6.4935867821e+01  -2.7305349493e+00    0.4612706    0.2507078 -44.63   0.00235546    1.832    0.454
        38 -10.7735    135.4898     97.6197   6.2120872424e+01   3.6157766246e+01    0.3012775    0.2567167 -88.34  0.001142578    1.397    0.284
        39 -11.4044    143.7206     91.6006   5.8436811860e+01   3.5506110118e+01     0.339361    0.2922871  60.11 0.0009344225    1.184    0.155
        40 -12.8321    159.6059     86.1269   5.3429415587e+01   3.2915851425e+01    0.3593162    0.2908223 -35.15  0.001788789    1.279    0.218
        41  -9.6132    132.4789    138.4693   7.3485625918e+01   2.7701441097e+01    0.2350133    0.1535805 -58.07 0.0009657451    1.687    0.407
        42 -10.6142    160.1815     77.8938   5.1115718995e+01   3.4243821570e+01    0.2148674    0.1872375 -75.47  0.000305521    1.180    0.153
        43 -12.3047    248.2755    177.1208   5.7636179385e+01  -7.5956449395e-01    0.3483039    0.2569482 -28.71  0.002166062    1.077    0.072
        44 -12.8893    237.0272    173.2892   5.8747478372e+01   1.4715237459e+00    0.4577884    0.2818646 -57.88  0.002210219    2.336    0.572
        45 -11.1517    197.8305     65.4320   4.1677597000e+01   2.7789227875e+01     0.315917    0.2132169 -70.32 0.0009094637    1.570    0.363
        46  -9.8215    215.5064    174.5059   6.2807618302e+01   4.5020614496e+00    0.1395875    0.1189765 -25.49 0.0008105698    1.018    0.017
        47 -10.8475    175.9939    172.4494   7.0467409186e+01   1.1604426075e+01    0.4293671    0.1716118 -31.70  0.001285851    3.751    0.733
        48 -12.4566    190.9894    151.1411   6.2682659268e+01   1.3325847543e+01    0.6925737    0.3330979 -60.00  0.002197606    3.834    0.739
        49 -11.7766    234.2751    196.6024   6.3682306829e+01  -2.1900582439e+00    0.3237329    0.1977469 -36.91  0.001379451    1.396    0.284
        50 -10.4189    195.2503     38.4729   3.5777268642e+01   3.2142963143e+01    0.2043509    0.1613869 -42.78 0.0005859327    1.318    0.241
        51 -11.6596    124.4780     37.8396   4.6859866466e+01   4.8593648576e+01    0.2784147    0.2226695  61.19 0.0009908098    1.136    0.120
        52 -10.1112    190.0061     36.0677   3.5838030938e+01   3.3605024648e+01    0.1897273    0.1599894 -71.76 0.0007338659    1.058    0.055
        53 -11.7173    172.9056    150.3481   6.6357954470e+01   1.6933081766e+01    0.3071654    0.2144382 -36.83 0.0007299368    1.372    0.271
        54 -11.7763    147.0793     26.4571   3.9261613484e+01   4.4617290708e+01    0.3971563    0.2093972 -55.49  0.001859425    2.283    0.562
        55  -9.5506    175.5590     27.4775   3.5534596387e+01   3.7891016268e+01    0.1277231    0.1076973 -85.80 0.0002988539    1.029    0.028
        56  -9.3582     93.5676     27.4736   5.0795497431e+01   5.6786482557e+01    0.1322714    0.1132226  38.48 7.651696e-05    1.014    0.014
        57 -11.2897    225.0172    204.4277   6.6819877253e+01  -2.2795870349e+00    0.5752699    0.2542605 -23.06  0.002218824    3.146    0.682
        58 -10.1230    242.3284    207.6813   6.4314601896e+01  -5.0584838878e+00    0.1086026   0.09790818 -53.69 0.0005956664    1.683    0.406
        59 -11.0602    249.8901    203.8864   6.2339938695e+01  -5.3729926835e+00    0.2241811    0.1726914 -23.65  0.001482663    1.066    0.062
        60  -9.8768    168.9941    202.4812   7.7994339304e+01   6.5174837091e+00    0.1918059    0.1206687  55.31 0.0008078921    2.386    0.581
        61  -9.7743    235.9399     18.9226   2.7987270206e+01   2.6131016424e+01    0.2263926    0.1428213 -10.39  0.001119168    3.896    0.743
        62  -9.7264    159.7666     18.0449   3.5151244998e+01   4.2546357601e+01    0.1642988    0.1469405 -88.06 0.0003942596    1.078    0.072
        63 -13.5931    199.9240     75.0423   4.3610385322e+01   2.5827509900e+01     1.087523    0.4120315  42.84  0.003515603    4.710    0.788
        64 -11.7114    192.4492    194.5227   7.1359875701e+01   4.3238446546e+00    0.9900945    0.4960876 -62.70  0.002693482    6.561    0.848
        65 -11.8783    209.7191    186.9472   6.6386979446e+01   3.0675897806e+00    0.5170478    0.3544564 -65.31  0.002393199    2.488    0.598
        66 -13.5726      2.8177    181.6659   1.1759550786e+02   3.4527716078e+01    0.8992093    0.3234736 -77.53  0.003748981    2.363    0.577
        67 -10.8945    228.8949    186.9547   6.2807771577e+01   2.2441432961e-01    0.2025388    0.1638095 -23.01 0.0003986212    1.008    0.008
        68 -12.4104     67.8781    144.6923   9.4082335833e+01   3.7447902126e+01     1.290033    0.9791476  12.78  0.002746433    1.511    0.338
        69 -15.0881     34.3101    162.9983   1.0725813179e+02   3.6600349898e+01     2.522906     1.636338 -13.62  0.001696977    2.179    0.541
        70 -14.5207     44.8700    157.4353   1.0337502596e+02   3.6954865857e+01     1.337077      1.00845 -26.11  0.002475132    1.572    0.364
        71 -11.0992    239.8126    218.3297   6.6666112191e+01  -6.4454891980e+00    0.2342014     0.144833  39.61  0.001325008    2.131    0.531
