#   1 NUMBER                 Running object number                                     
#   2 MAG_AUTO               Kron-like elliptical aperture magnitude                    [mag]
#   3 X_IMAGE                Object position along x                                    [pixel]
#   4 Y_IMAGE                Object position along y                                    [pixel]
#   5 X_WORLD                Barycenter position along world x axis                     [deg]
#   6 Y_WORLD                Barycenter position along world y axis                     [deg]
#   7 A_WORLD                Profile RMS along major axis (world units)                 [deg]
#   8 B_WORLD                Profile RMS along minor axis (world units)                 [deg]
#   9 THETA_WORLD            Position angle (CCW/world-x)                               [deg]
#  10 FWHM_WORLD             FWHM assuming a gaussian core                              [deg]
#  11 ELONGATION             A_IMAGE/B_IMAGE                                           
#  12 ELLIPTICITY            1 - B_IMAGE/A_IMAGE                                       
         1 -18.1986    233.6790    119.0714   2.9714522860e+01   1.3154139237e+01     4.766953     4.064729 -37.02   0.02004588    1.046    0.044
         2 -12.1579    202.9261     17.0164   1.0865382191e+01   3.2896169652e+01    0.7793012    0.3849011 -75.28  0.003981221    2.156    0.536
         3 -11.7608    210.2566     26.7741   1.2475714051e+01   3.0315290915e+01    0.7383108    0.3732842 -86.14   0.00379562    2.216    0.549
         4 -10.6551    142.4284      9.1603   1.4724605959e+01   4.7398611851e+01    0.3627748     0.183159 -86.88  0.001646577    2.253    0.556
         5 -11.1164    214.2619     11.2666   8.7848408032e+00   3.1171481493e+01     0.281611    0.2702052 -59.13 0.0009506961    1.313    0.239
         6 -11.4466    247.4163      4.2602   5.5572741989e+00   2.5636721200e+01    0.5099205    0.3463803 -70.95  0.003829113    1.205    0.170
         7 -10.0006    149.3216      9.7520   1.4073837156e+01   4.5695015916e+01    0.2509813    0.1416593  87.65  0.001271507    1.741    0.426
         8 -10.2362    186.0181      8.6567   1.0235282296e+01   3.7369556619e+01    0.2344676    0.1338809 -56.88 0.0006671277    1.574    0.365
         9 -10.4514    182.5148      4.2271   9.4304727776e+00   3.8561481673e+01    0.3334307    0.2286197  56.03  0.002053316    1.643    0.391
        10 -10.1532    197.9644      2.9022   8.0089921044e+00   3.5345952499e+01    0.3402003    0.1428484 -86.36  0.001629491    2.490    0.598
        11  -8.8363     98.5442      1.5946   1.8814824014e+01   5.8648174976e+01    0.2321925    0.1376138  71.10  0.001220111    1.501    0.334
        12  -8.0233    131.6425      1.6868   1.3735795232e+01   5.0641472245e+01    0.1341501   0.08232637  46.11 0.0007043724    1.743    0.426
        13 -11.4179    115.6390    153.3258   6.0992726739e+01   2.7726812596e+01    0.8116823    0.5305939  25.37  0.003648357    1.633    0.388
        14 -10.3159    248.8368    248.4618   5.0149853020e+01  -6.9523751681e+00    0.2693105    0.2115614  -5.90  0.002215287    1.316    0.240
        15 -10.8062    215.7551    247.5943   5.5495403177e+01  -3.6044262925e+00    0.3974731    0.1802689 -39.75  0.002262297    2.322    0.569
        16  -8.6164    102.0448    249.4981   7.8591908506e+01   9.6664895582e+00    0.1682203    0.1531309  25.13 0.0005148342    1.116    0.104
        17 -10.2396     68.1607    144.4351   7.3373498046e+01   3.7517782710e+01    0.7114251    0.4034042  62.04  0.002754143    2.480    0.597
        18 -10.2818    124.0022    206.0030   6.8047653455e+01   1.4929472308e+01    0.1942189     0.173219  18.43            0    1.007    0.007
        19  -7.8407     29.4864    219.4479   9.2646788644e+01   2.3908294847e+01    0.1205926      0.10791  51.92 0.0001684775    1.078    0.072
        20  -8.4680    125.4844    127.0526   5.2553753400e+01   3.1873942330e+01    0.3417338    0.1498288 -53.60  0.001194222    2.570    0.611
        21  -8.6703    121.0612    127.1767   5.3775557083e+01   3.2706725678e+01    0.3380097    0.2147321 -53.57 0.0009896404    1.652    0.395
        22  -9.7129     40.9439    125.5020   7.9334006122e+01   4.5865014912e+01    0.2734565    0.2510094 -19.24 0.0004083583    1.153    0.133
        23 -11.4566    192.1929    194.0590   5.1202822706e+01   7.1639957427e+00    0.9786257    0.5342061 -60.13  0.003721056    4.359    0.771
        24 -12.8498     67.7060    110.2883   6.6556709196e+01   4.6253202526e+01     1.752527     1.056779  39.16  0.007709398    1.678    0.404
        25 -11.6798     55.3519    108.9087   7.0793953314e+01   4.8390146533e+01    0.5688011    0.5162901  28.20 0.0006852111    1.129    0.115
        26 -12.5016     32.1716    108.3892   7.9651788823e+01   5.1237925460e+01    0.9835274    0.9369671 -38.85  0.003709827    1.043    0.041
        27  -9.1753    204.4684    200.3462   4.9993839195e+01   4.4731788471e+00    0.3135618    0.2466043 -25.99  0.001990504    1.179    0.152
        28  -9.9503    127.0056     96.6300   4.4334700532e+01   3.8050220350e+01    0.7329963    0.3298134  52.46  0.002645917    2.427    0.588
        29  -9.0224    114.2168     95.7293   4.7547297413e+01   4.0967920621e+01    0.4370747    0.2920677 -10.89 0.0009565699    2.425    0.588
        30  -8.6979    144.9363    113.7668   4.4411928960e+01   3.0769582770e+01    0.2566385    0.2142252 -40.60 0.0005486005    1.171    0.146
        31  -9.4841    201.3422    197.6863   5.0108575558e+01   5.3115867761e+00    0.2387547    0.1488688  32.64 0.0009571901    1.639    0.390
        32  -8.1484    130.6437     85.3648   4.0245646946e+01   3.9458123896e+01    0.2304779    0.1784233 -82.14  0.001087222    1.669    0.401
        33  -8.7998    111.7505    106.3853   5.1170597804e+01   3.9189631657e+01     0.337865    0.2478219 -80.72  0.001041384    1.971    0.493
        34  -7.9958     87.0500     79.6400   5.1208184934e+01   4.9923130977e+01     0.200362    0.1782359  36.63 0.0006285243    1.102    0.093
        35  -8.7898     10.3257     72.9888   8.2376965904e+01   6.1911200368e+01    0.2131459    0.1009494  83.22 0.0007051495    4.355    0.770
        36 -10.6529    180.0161     64.9513   2.5066598620e+01   3.1781448703e+01    0.4828841     0.357196  30.06 0.0004731184    1.845    0.458
        37 -11.4869    172.0257     68.0428   2.7101715998e+01   3.3078057934e+01    0.5171414    0.5089931  87.37  0.001459496    1.103    0.094
        38 -10.5772    164.8393     64.2974   2.7291404316e+01   3.5269500237e+01    0.5025264    0.4028378  58.86  0.002352664    1.265    0.210
        39 -11.0168    176.0394     62.9398   2.5146970093e+01   3.2957431250e+01    0.6129677    0.3793803  24.14   0.00255213    3.078    0.675
        40  -9.6563    211.5282     62.8476   2.0459712562e+01   2.5501754843e+01    0.2924213    0.2167442 -43.34 0.0009415417    1.184    0.156
        41  -9.0802    117.6325    199.2384   6.8561851024e+01   1.7245767432e+01    0.2371009    0.2101724   0.13 0.0002613099    1.120    0.108
        42 -10.2281    160.6525     52.8497   2.4846285552e+01   3.7921150492e+01    0.4413698    0.3669736  49.91  0.002041761    1.290    0.225
        43 -10.0572    249.1100     47.6734   1.3749767412e+01   2.0533986922e+01    0.3351894    0.2798402 -22.49  0.002456706    1.481    0.325
        44 -10.1386    241.9586     41.0841   1.2993890809e+01   2.2581544067e+01    0.2426408    0.2235465 -31.52  0.001106499    1.353    0.261
        45  -9.7905    193.2483     42.3161   1.7724374164e+01   3.2018609453e+01    0.2353247    0.2209379 -21.96 0.0007305719    1.291    0.226
        46  -7.8077     35.5170    217.4451   9.1075682217e+01   2.3739660581e+01    0.1228316    0.1098708  50.16 9.408201e-05    1.065    0.061
        47 -10.1593    149.0280     34.4409   2.1403227953e+01   4.3105241516e+01    0.2929063    0.2130417  35.17  0.001558079    1.710    0.415
        48  -8.4959     27.0910    243.4606   9.4591825699e+01   1.9212605077e+01    0.1631256    0.1368328  59.57 0.0004496474    1.083    0.077
        49 -11.0606    172.1915    177.7643   5.2249315966e+01   1.3029251910e+01     0.758258    0.3515886 -40.39  0.002454204    2.087    0.521
        50  -9.3873    176.5087    190.5353   5.3701823231e+01   1.0041992132e+01    0.2432002    0.2290441 -13.86 0.0009005211    1.202    0.168
        51 -10.1419    233.4238     21.3778   9.6428099615e+00   2.6396081810e+01    0.1902561    0.1558374 -80.65 0.0006840897    1.176    0.150
        52  -8.2082    189.6564     20.6843   1.2842644771e+01   3.5339353486e+01    0.1174519   0.09033065  42.02 0.0007048147    1.713    0.416
        53  -9.9157    153.3470    213.3750   6.2484016993e+01   9.3125526234e+00    0.3795906    0.2278869  38.95   0.00162889    1.668    0.401
        54 -10.1194    188.1392    175.4481   4.8571881060e+01   1.0959765581e+01    0.4003362    0.3350281 -74.36  0.001717174    1.866    0.464
        55 -10.0344    185.2409    170.4608   4.8184187056e+01   1.2300240768e+01    0.4304735    0.3401181 -57.18  0.001282409    1.617    0.382
        56  -8.2566     95.1532     12.9098   2.4064484721e+01   5.8472212622e+01    0.1779527    0.1394807  34.26 0.0004810909    1.308    0.235
        57 -11.8111    177.4104    168.7496   4.9428894077e+01   1.3867374878e+01     1.279042    0.6502622 -48.45  0.005692728    2.107    0.525
        58  -8.8995    150.1650    178.6322   5.7265265017e+01   1.6400613404e+01    0.2270885    0.1905926 -52.81 0.0006527223    1.348    0.258
        59  -9.4328    194.6041    173.1781   4.6893873625e+01   1.0367928133e+01    0.5147933    0.3051583 -61.46  0.002145368    3.299    0.697
        60  -9.6966    157.7125    212.8520   6.1454899263e+01   8.7921153628e+00    0.2653229    0.2206393 -16.21  0.001450156    1.150    0.130
        61 -10.3151    179.1657    163.8865   4.8109095416e+01   1.4482019017e+01    0.3655341    0.3090787 -73.12  0.001389864    1.677    0.404
        62 -10.6712    142.0382    164.7741   5.6526669444e+01   2.0606151627e+01    0.5145973    0.3079141 -67.16  0.002038623    2.726    0.633
        63  -9.9629    172.8707    169.1171   5.0442800096e+01   1.4538658923e+01    0.3194739    0.2960688 -16.95 0.0006502704    1.088    0.081
