#   1 NUMBER                 Running object number                                     
#   2 MAG_AUTO               Kron-like elliptical aperture magnitude                    [mag]
#   3 X_IMAGE                Object position along x                                    [pixel]
#   4 Y_IMAGE                Object position along y                                    [pixel]
#   5 X_WORLD                Barycenter position along world x axis                     [deg]
#   6 Y_WORLD                Barycenter position along world y axis                     [deg]
#   7 A_WORLD                Profile RMS along major axis (world units)                 [deg]
#   8 B_WORLD                Profile RMS along minor axis (world units)                 [deg]
#   9 THETA_WORLD            Position angle (CCW/world-x)                               [deg]
#  10 FWHM_WORLD             FWHM assuming a gaussian core                              [deg]
#  11 ELONGATION             A_IMAGE/B_IMAGE                                           
#  12 ELLIPTICITY            1 - B_IMAGE/A_IMAGE                                       
         1 -12.0777     58.1218    130.5243   1.0827485728e+02   4.1955818107e+01     1.731439    0.6088709 -75.00  0.004588272    5.802    0.828
         2 -12.3512    197.6359     37.2150   4.8215649458e+01   3.1086573212e+01     0.990757    0.9598382 -78.18  0.003591643    1.067    0.063
         3 -12.5110    208.3790     25.7712   4.3794249449e+01   2.9860586576e+01    0.8773833    0.7524478  19.79  0.002600088    1.483    0.326
         4 -10.9064     32.0319     16.1591   8.4891330935e+01   6.9167207396e+01    0.3355539    0.1744182 -32.94  0.001881248    1.630    0.386
         5 -10.2224     32.6105      3.9332   7.8410026813e+01   7.0790887891e+01    0.4054731    0.1356931 -35.32  0.001876808    2.730    0.634
         6  -9.6591     55.8650      5.2856   6.8939945756e+01   6.7222548452e+01    0.3114865    0.1101154  31.65  0.001219765    3.373    0.703
         7 -10.5099    232.2155      2.4122   3.5850269512e+01   2.6818049604e+01    0.6655512    0.2526444  75.19  0.002969299    2.481    0.597
         8  -9.7826     73.9070    188.4618   1.1268627149e+02   2.6274964515e+01    0.3670157       0.2153  79.74  0.001367613    1.990    0.497
         9 -13.0793     85.3347    229.7177   1.1482515440e+02   1.6285215468e+01     1.886819     1.271874  79.28  0.005340491    1.504    0.335
        10 -14.7235     51.0968    199.6061   1.1873146624e+02   2.6851485917e+01     4.666808     2.590408 -52.85    0.0251351    2.204    0.546
        11 -12.0566     68.4669    144.3436   1.0778525639e+02   3.7259834594e+01    0.9373867     0.587321  81.22  0.003375431    2.007    0.502
        12  -9.9304     32.2386    165.4285   1.1952752102e+02   3.6534498403e+01    0.2332751    0.1456875 -75.77 0.0007634899    1.346    0.257
        13 -10.7194     89.4632    155.5652   1.0423954063e+02   3.1487950914e+01    0.5798904    0.3919057 -30.33  0.001632413    2.153    0.536
        14 -10.6821     32.3130    147.2507   1.1753406765e+02   4.0766221696e+01    0.5905939    0.2289168 -78.76  0.002316819    2.606    0.616
        15  -9.1606    133.9268    145.2070   9.0990344188e+01   2.5909715388e+01    0.8600162    0.1835523 -53.73  0.001755878    7.623    0.869
        16 -10.3079     53.4475    147.9663   1.1225889890e+02   3.8306577787e+01    0.3512416    0.2512732  88.54   0.00195312    1.363    0.266
        17  -8.7768     84.9336    144.2439   1.0341270728e+02   3.4890759761e+01    0.2226989    0.1819479  73.33 0.0008914965    1.271    0.213
        18  -9.6460    102.8936    140.6138   9.7959742071e+01   3.2801486608e+01    0.4985476    0.3158865 -27.50  0.002040406    2.406    0.584
        19 -10.6168     90.8107    140.3886   1.0112606462e+02   3.4886766727e+01     0.271136    0.2640271 -53.71 0.0003315551    1.113    0.101
        20  -9.4668     44.5465    144.5022   1.1407305649e+02   4.0156622470e+01      0.25092    0.1573721  56.46 0.0007990056    1.686    0.407
        21  -8.4458     99.4346    180.7480   1.0586684778e+02   2.4130947926e+01    0.1769566    0.1266585 -52.14 0.0004937329    1.498    0.332
        22  -9.1742    112.3930    130.5045   9.3253459538e+01   3.3466397497e+01    0.3153152    0.2488976   9.63   0.00104057    1.654    0.395
        23  -8.7351    105.8712    130.3890   9.4984221242e+01   3.4693816778e+01     0.352254    0.2098008 -57.36  0.001523959    1.667    0.400
        24  -9.2613     99.3854    126.7582   9.5953279230e+01   3.6706917291e+01    0.2781138    0.2390169  -6.87 0.0004283748    1.427    0.299
        25 -14.3831     60.0368    247.2812   1.2092981890e+02   1.6510978352e+01     6.536192     2.055038  30.62  0.004463396    7.270    0.862
        26  -8.3274    108.1431    119.3629   9.1802342498e+01   3.6869911618e+01     0.202634    0.1870632  51.36 0.0003974468    1.127    0.112
        27 -10.7591     70.2773    176.9442   1.1207296619e+02   2.9348187939e+01    0.5008273    0.3352035 -26.38  0.002357811    2.741    0.635
        28  -7.8960    168.3572    113.6608   7.5074443211e+01   2.5268472053e+01    0.1655932    0.1263711 -81.07 -0.0001181915    1.815    0.449
        29 -10.3432    117.8900    108.8152   8.6423047129e+01   3.7402559557e+01    0.5348355    0.3881173  78.82  0.002295626    2.004    0.501
        30  -8.3818    205.9735    110.3018   6.6501916513e+01   1.7263018266e+01    0.2100605    0.1984901  35.66  0.000569971    1.108    0.098
        31 -11.0674     43.3346    109.0162   1.0875891721e+02   4.8850327029e+01    0.3987157    0.3135109  36.32   0.00237307    1.470    0.320
        32  -8.7370    134.7105    104.8551   8.0837172988e+01   3.4737186385e+01    0.3875066    0.1372902 -45.95  0.001222076    2.800    0.643
        33  -9.4113     33.0213     99.4852   1.1021602056e+02   5.2120967177e+01    0.2203991    0.1461631 -62.63 0.0009277058    1.239    0.193
        34  -9.3340     41.3531     91.6882   1.0589111322e+02   5.3163017080e+01    0.2167562    0.1940688 -53.58 0.0006589011    1.065    0.061
        35 -11.1054     83.0631    162.5105   1.0697356802e+02   3.0840823871e+01    0.7877214    0.3840498  56.47 0.0004889909    2.429    0.588
        36 -12.0484     71.3456    157.8862   1.0917195131e+02   3.3624461439e+01    0.5568248    0.4977563 -37.45  0.001472479    1.362    0.266
        37 -12.1860     17.3365    194.2942   1.2507617706e+02   3.1642907974e+01    0.8146411    0.2626092 -64.02  0.001601171    2.791    0.642
        38 -10.4367     74.5234    171.8231   1.1040135611e+02   2.9925898193e+01    0.3629389    0.2970648 -32.58  0.001567615    1.645    0.392
        39  -9.6093    148.7386     52.7702   6.1454525914e+01   4.1255125135e+01     0.483238    0.3166968 -75.68  0.001437785    2.421    0.587
        40  -9.5544     99.5285    171.4663   1.0440355818e+02   2.6190139139e+01    0.2325382    0.1897788  34.73  0.001224858    1.322    0.244
        41 -11.9032    187.8956     44.3507   5.1642176552e+01   3.2576143392e+01    0.8885717    0.5944057  28.46  0.002753348    2.015    0.504
        42  -9.4351     72.6793    230.3619   1.1728716538e+02   1.7919565275e+01    0.2216893    0.2123969 -37.72  0.001146442    1.538    0.350
        43 -10.0410     57.2026    224.4196   1.1968852280e+02   2.1071973571e+01    0.2946067    0.1935235  43.12  0.001040466    1.439    0.305
        44  -8.4321    149.8647     45.6338   5.8871194874e+01   4.2043330033e+01    0.2063419    0.1793523  67.54  0.000612517    1.165    0.142
        45  -8.5949    114.3223    173.3156   1.0120403478e+02   2.3274835471e+01    0.1383834    0.1139717 -12.11 0.0005808134    1.662    0.398
        46  -9.9446    177.8667    222.4985   9.5670592965e+01   2.7249278105e+00    0.2680949    0.2389361 -73.49  0.001253142    1.526    0.345
        47 -15.9213      5.7188    213.2573   1.2833989221e+02   2.8879774936e+01      18.5271    0.8100809 -76.63   0.02611873   12.851    0.922
        48 -15.3755      7.0167    245.5829   1.2960166847e+02   2.2755865641e+01     1.770422      1.22729  41.86  0.002664243    1.596    0.373
