#   1 NUMBER                 Running object number                                     
#   2 MAG_AUTO               Kron-like elliptical aperture magnitude                    [mag]
#   3 X_IMAGE                Object position along x                                    [pixel]
#   4 Y_IMAGE                Object position along y                                    [pixel]
#   5 X_WORLD                Barycenter position along world x axis                     [deg]
#   6 Y_WORLD                Barycenter position along world y axis                     [deg]
#   7 A_WORLD                Profile RMS along major axis (world units)                 [deg]
#   8 B_WORLD                Profile RMS along minor axis (world units)                 [deg]
#   9 THETA_WORLD            Position angle (CCW/world-x)                               [deg]
#  10 FWHM_WORLD             FWHM assuming a gaussian core                              [deg]
#  11 ELONGATION             A_IMAGE/B_IMAGE                                           
#  12 ELLIPTICITY            1 - B_IMAGE/A_IMAGE                                       
         1 -11.1108     67.8730     19.2718   7.2640989643e+01   6.3653710765e+01     1.771151    0.8345068  45.27  0.007808502    2.169    0.539
         2 -12.1987     55.8800     67.1546   9.5721950718e+01   5.6993500961e+01     1.462121    0.7775664 -55.08  0.006861574    1.820    0.451
         3 -11.5414     90.8978     20.2943   6.5260923604e+01   5.9152993949e+01     1.506048    0.4871133 -21.38  0.004887908    4.245    0.764
         4 -12.3918    116.1696     14.5703   5.6113967157e+01   5.4190837274e+01     2.526769    0.6881432  39.83  0.007171499    4.852    0.794
         5 -11.6814    106.5349      8.5633   5.5998078511e+01   5.7011311966e+01     1.854074    0.8386247  36.76  0.007960856    2.228    0.551
         6 -12.7249     88.1018     56.7638   8.0659021584e+01   5.4069242393e+01     1.053299    0.6430603 -52.23  0.004763283    1.964    0.491
         7 -12.7585     47.7554     39.2613   8.9395684700e+01   6.3515834684e+01    0.9933401    0.5308539  29.80 0.0007850907    2.003    0.501
         8 -12.5434     81.1458     35.9385   7.5064748969e+01   5.8898487538e+01     1.097375    0.9330797 -76.85  0.002562343    1.860    0.462
         9 -12.3548     70.3649     30.9043   7.6860519886e+01   6.1574902624e+01    0.6926933    0.4814875 -16.75  0.002338227    1.378    0.274
        10 -12.0182     98.7848      5.8790   5.6817451016e+01   5.8996191973e+01    0.8626764    0.3157611  49.43   0.00363892    2.234    0.552
        11 -10.6198    124.1932     22.4516   5.7284489581e+01   5.1425812751e+01     1.286708    0.5800383  22.31  0.003769896    4.992    0.800
        12 -11.3069    131.4794     19.5268   5.4605959505e+01   4.9979632391e+01    0.6790282    0.3010429  48.63  0.002517588    2.007    0.502
        13 -11.4890     12.0037     25.4435   1.0078152646e+02   6.9463228558e+01     0.419641    0.1776283 -33.74 0.0006218445    2.028    0.507
        14 -10.8341    236.0195     27.9875   4.2083639140e+01   2.2798986678e+01    0.4930912    0.4002399   5.97  0.001762164    1.737    0.424
        15 -11.1664    215.0641     24.1917   4.3316479097e+01   2.8235018840e+01    0.6221642    0.3408962 -36.89  0.001875825    1.742    0.426
        16  -9.8646    177.0323     15.0123   4.5415364449e+01   3.8860085975e+01    0.5419472    0.2539924 -59.20  0.002074919    2.873    0.652
        17  -9.9794    157.8201      5.3048   4.5116396297e+01   4.4738700158e+01    0.7060127    0.3083246  69.41  0.002978032    2.070    0.517
        18 -10.6325    164.4894      5.5524   4.4258486680e+01   4.3011047893e+01    0.8818759    0.6778444  87.89  0.004930469    1.273    0.215
        19 -10.6342    176.5134     19.3512   4.6774969674e+01   3.8525725996e+01    0.4857467    0.3308439 -42.33   0.00233208    1.516    0.340
        20 -10.3959    158.0285     19.5241   4.9655835532e+01   4.3273778029e+01    0.4767618    0.3652767  51.65  0.001580578    1.221    0.181
        21 -10.9245    154.5193     16.6384   4.9297760656e+01   4.4482543158e+01    0.6451498    0.3854696   2.15  0.001392583    2.367    0.578
        22 -10.5984    149.4622     14.1827   4.9333641021e+01   4.6026554954e+01     0.658214     0.513243 -21.90  0.003626105    1.415    0.293
        23 -10.5921    164.0127     15.6590   4.7475694277e+01   4.2145259597e+01    0.4594755    0.3199684  37.72  0.002097701    1.562    0.360
        24 -11.0658    169.4189     13.7969   4.6104897463e+01   4.0945569023e+01    0.6878493    0.3537734  85.53  0.001191868    2.355    0.575
        25 -10.3187     55.2915     17.4424   7.6763667216e+01   6.5952419911e+01    0.6899919    0.4222011 -54.20  0.003170163    3.267    0.694
        26 -11.2827     58.7700      4.0040   6.8717049203e+01   6.7039137757e+01     1.135944    0.5529595  26.31  0.005545355    2.157    0.536
        27 -10.4489     26.5244     18.9465   9.0745122195e+01   6.9373709277e+01    0.5744802    0.2389662 -24.30     0.002471    3.070    0.674
        28 -12.2266     29.7158     24.2527   9.1483624063e+01   6.8173574767e+01     1.291375    0.7908677 -11.36  0.005385528    1.669    0.401
        29 -11.5469     19.8698     13.7546   9.1817125504e+01   7.0843430763e+01    0.6132034    0.3635591  19.83  0.003857082    1.754    0.430
        30 -12.0373     24.9953      6.6784   8.5648737378e+01   7.1406924017e+01    0.6054512     0.387067 -33.45  0.003101124    1.390    0.281
        31 -11.1348     44.6606     15.7502   8.0566992728e+01   6.7726069559e+01    0.4528594    0.3557189  10.08  0.002026855    1.149    0.130
        32 -10.9030      7.2309     19.4333   1.0097982184e+02   7.0854572372e+01    0.3145592    0.2429242 -18.36  0.001185535    1.158    0.136
        33 -11.4746     39.5714     10.4395   8.0297429141e+01   6.9145314034e+01    0.8408552    0.4299241 -22.14  0.004468122    1.879    0.468
        34 -10.3177     36.0891      6.0883   7.9723889717e+01   7.0179404621e+01    0.2396984    0.1490967  29.07 0.0009510253    1.581    0.368
        35 -13.2919      4.6824      8.9699   9.8036769917e+01   7.2806187108e+01    0.9468873    0.4055345 -46.87  0.003849613    1.855    0.461
        36 -12.5921     13.1779      4.5946   9.1073583887e+01   7.2853210519e+01     0.578499    0.4867527  -6.22  0.001938843    1.290    0.225
        37  -9.8900    203.1738     28.6561   4.5875089538e+01   3.0634656617e+01    0.3335856    0.2000695 -15.50  0.001175182    2.176    0.540
        38 -10.6226     50.7537     25.2985   8.2299477764e+01   6.5467216110e+01    0.4433796    0.3311006 -15.71  0.002748274    1.142    0.124
        39  -9.8487    205.9036     14.8712   4.1904108585e+01   3.1561318227e+01    0.5890644    0.2815934  49.19  0.002561201    2.363    0.577
        40  -9.4252    232.6837     18.4417   4.0145150555e+01   2.4720180427e+01    0.4021039    0.1622216 -39.01  0.001796001    2.158    0.537
        41  -9.4992    239.4739     16.9438   3.9197750949e+01   2.3338003548e+01    0.3639675    0.1422537 -38.83   0.00163799    2.184    0.542
        42 -10.0726     70.1161      4.2761   6.4683728473e+01   6.4996072101e+01    0.5131205    0.2773866  45.59  0.002724387    1.697    0.411
        43  -9.6084    125.5330     15.7663   5.4477766517e+01   5.1831394559e+01    0.3949372    0.1927388  35.45   0.00147691    2.270    0.559
        44  -9.9084    221.6038     12.2799   3.9687760136e+01   2.8025959813e+01    0.3325198    0.2798448 -54.07  0.001346361    1.127    0.113
        45  -9.4000    226.3505      8.2914   3.8307762462e+01   2.7336400202e+01    0.2658492    0.2007875  20.38  0.001057058    1.976    0.494
        46 -10.0068    213.2682     11.8989   4.0387923089e+01   3.0076509425e+01    0.3319249    0.2354045 -79.70  0.001089192    1.337    0.252
        47 -10.7225    208.6050      4.2864   3.8916007138e+01   3.2008395199e+01    0.5441433    0.3375683 -67.19  0.001993425    1.593    0.372
        48  -9.7482     31.5607     11.9972   8.4958441356e+01   6.9909938743e+01    0.2527011     0.145585 -28.84 0.0008133596    1.457    0.314
        49 -10.1697    232.3486     10.2060   3.8248459984e+01   2.5731079714e+01    0.4764798    0.3166025  61.28  0.002640378    1.577    0.366
        50  -9.0263     85.6788     11.0712   6.2804895040e+01   6.1266461246e+01    0.2477243    0.1354727  37.05 0.0007888852    1.663    0.399
        51 -10.5705    200.2720      5.8690   4.0135300566e+01   3.3904421919e+01    0.5435225    0.2547085 -42.48 0.0008780244    2.054    0.513
        52 -10.5757    139.3665      4.4299   4.7713491056e+01   4.9487071024e+01    0.5596812    0.2787441 -15.34  0.002435328    2.369    0.578
        53 -10.0752    133.1855      4.7453   4.8907958356e+01   5.0997599560e+01    0.5236524    0.4333281 -31.61  0.003083749    1.353    0.261
        54 -10.1924    243.9852      5.7065   3.6319329401e+01   2.3585986206e+01    0.4386468     0.232089 -21.79   0.00161228    2.369    0.578
        55  -9.4223     77.4921      8.8887   6.4404331528e+01   6.3121458808e+01    0.2085942    0.1808355  11.54 0.0008092629    1.078    0.073
        56  -8.5796     77.4003      4.8212   6.2515599425e+01   6.3552985328e+01    0.3554385    0.1905927  23.67  0.001735076    1.977    0.494
        57 -10.0046    181.4659      4.5804   4.1828852047e+01   3.8764596147e+01    0.3473656     0.266618  45.57  0.001963731    1.393    0.282
        58  -8.7729    190.4095      7.2740   4.1562714556e+01   3.6237121471e+01    0.1804056    0.1197225 -41.15 0.0006373386    1.527    0.345
        59  -8.7675    189.2955      3.6382   4.0686401245e+01   3.6870905483e+01    0.2077062    0.1284942 -35.91 0.0007625607    1.666    0.400
        60  -9.3689    217.6942      5.3055   3.8343333893e+01   2.9704758240e+01    0.2399672    0.1642232  37.26 0.0008465096    1.981    0.495
        61  -9.1227     83.6135      3.6053   6.0020163948e+01   6.2427165500e+01     0.276224    0.1448806 -30.24  0.001388524    2.041    0.510
        62  -8.1807    143.3285      8.3044   4.8381909335e+01   4.8147422789e+01    0.1473811   0.09128142  38.48 0.0002161742    1.651    0.394
        63  -8.6851    248.5231      1.4900   3.5085524344e+01   2.3039230852e+01    0.1210346    0.1022255 -71.79  5.21414e-05    1.070    0.065
        64 -10.4772      6.2392    142.6195   1.2460842372e+02   4.3928687341e+01    0.2737182    0.1848678 -76.51 0.0004764788    1.162    0.140
        65  -8.9271    210.6796    250.3294   9.4578245461e+01  -6.5233289023e+00     0.105899   0.08662017  52.03 0.0007048283    1.690    0.408
        66  -9.0698    125.0148    249.8209   1.1032782187e+02   6.8410018094e+00    0.1912056    0.1256408  21.54  0.001078541    2.053    0.513
        67  -9.4583     10.8721    144.8279   1.2368900225e+02   4.3082360502e+01    0.1819651    0.1349382 -67.20 0.0007207976    1.234    0.190
        68 -10.0279     54.1563    142.8616   1.1246866251e+02   3.9366399470e+01    0.5175282    0.2458345  62.46  0.002063144    2.952    0.661
        69  -9.2090     45.9309    144.0693   1.1479502605e+02   4.0021558346e+01    0.2023858    0.1453851 -40.54 0.0007234433    1.693    0.409
        70  -9.8568     99.0588    138.9297   9.9713970528e+01   3.3782716950e+01    0.3932215    0.2967753 -20.34  0.001694555    1.836    0.455
        71  -9.5401     47.4035    139.1156   1.1371997944e+02   4.1049381260e+01    0.2925612    0.1908547 -84.41  0.001054302    1.482    0.325
        72 -10.4492      2.8782    136.7843   1.2491827192e+02   4.5496598191e+01    0.4187756    0.2567903 -62.20  0.002172009    1.438    0.304
        73 -10.2255     62.1870    135.2150   1.0910460404e+02   4.0224166281e+01    0.3212361    0.1815123 -72.29  0.001334241    1.738    0.425
        74  -8.8137     55.2927    137.2963   1.1132520850e+02   4.0575806885e+01    0.1310007   0.09667288 -41.12 0.0006979996    1.560    0.359
        75  -9.3637    121.1860    133.3964   9.2620584143e+01   3.1018859359e+01    0.3624225    0.2666019  -4.94  0.001557989    2.059    0.514
        76  -9.3242     73.3410    129.3735   1.0494722591e+02   4.0137734466e+01    0.2184517    0.2144048  79.06  0.000284279    1.114    0.102
        77  -9.5342     63.9664    113.5376   1.0457785666e+02   4.5267934208e+01     0.249811    0.1327937  37.13  0.001134193    2.043    0.510
        78  -9.9407     60.7927    120.3902   1.0687369155e+02   4.4011896162e+01    0.3347974    0.2420781   1.60  0.001698436    1.969    0.492
        79 -10.1034     68.4235    116.1912   1.0377778970e+02   4.4028976828e+01    0.6449302    0.2439583 -65.00  0.002255845    2.934    0.659
        80 -10.9996     66.4855    125.0176   1.0608489906e+02   4.2144774568e+01    0.7328347    0.2661591 -50.07  0.002751379    2.591    0.614
        81 -10.1897     62.9832    124.2295   1.0695037995e+02   4.2797151720e+01    0.3569154    0.2187319  31.97  0.001249181    1.837    0.456
        82 -10.6233     55.6507    126.6526   1.0949024299e+02   4.3119923611e+01    0.4430521    0.1980039 -56.64  0.001943561    1.928    0.481
        83 -11.5040     16.8865     84.7821   1.1421844354e+02   5.6703363626e+01     0.918058    0.2639285 -44.96  0.003636088    3.171    0.685
        84 -10.3489     91.0901    121.4268   9.8231076403e+01   3.9328009567e+01    0.4818729    0.4637326  41.85  0.002745244    1.111    0.100
        85  -8.1605     74.6545    124.7517   1.0367565205e+02   4.1074016793e+01     0.136183    0.1087828 -21.86 0.0002735375    1.577    0.366
        86  -9.7200     75.5859    119.4350   1.0232146101e+02   4.2229761354e+01    0.5222211    0.2686817  49.96  0.001925654    2.284    0.562
        87  -9.9131    116.2958    116.3365   8.9877471201e+01   3.5937238272e+01    0.2838491    0.2646725 -20.57 0.0005809332    1.134    0.118
        88  -8.8010    104.5709    116.2878   9.3164803156e+01   3.8188815597e+01    0.2952253    0.1456155 -55.92  0.001126093    2.077    0.519
        89 -10.7785     45.6673    113.6335   1.1014773900e+02   4.7410246889e+01    0.6460943    0.3752488 -10.71  0.002458223    3.189    0.686
        90  -8.2914    133.3205    111.3085   8.3963815820e+01   3.3546970361e+01    0.1602395    0.1263149  -0.90 0.0007034079    1.642    0.391
        91  -9.6505     23.0295    108.6322   1.1616593555e+02   5.0680505213e+01    0.3296809    0.1957203  32.98  0.001402249    1.970    0.492
        92  -8.7434     97.7173    107.7897   9.3053090945e+01   4.1424952382e+01     0.197241    0.1710236  88.08 0.0004626953    1.320    0.243
        93  -8.4677    113.4780    107.5322   8.8404800534e+01   3.8516569630e+01     0.154728    0.1473969 -25.15 -2.997769e-05    1.063    0.060
        94  -8.4680     74.3267    107.2804   1.0003627490e+02   4.5341966550e+01     0.142815     0.107336 -24.64 0.0002864143    1.597    0.374
        95 -10.7328     69.1492    105.2173   1.0117764661e+02   4.6572133768e+01     0.515879    0.2743482 -34.45  0.002099513    2.430    0.589
        96 -10.4741     49.2941    102.7531   1.0694367357e+02   4.9636223639e+01      0.57574    0.4620887 -31.47  0.003359366    1.352    0.260
        97 -10.0031     54.2982    100.4048   1.0484029332e+02   4.9625719867e+01    0.2642732     0.209892  53.08 0.0009241803    1.459    0.315
        98  -9.3737     46.2730     98.3721   1.0701679925e+02   5.1007827334e+01    0.2923209    0.2385127  24.60  0.000958281    1.433    0.302
        99 -10.1902     50.9599     97.2990   1.0525281671e+02   5.0748557997e+01    0.4392496    0.2971272  15.09  0.002305884    1.852    0.460
       100 -10.1481     51.1805     92.8287   1.0418182362e+02   5.1777601325e+01    0.3834747    0.2511955 -46.22  0.001446842    1.363    0.266
       101 -10.6966     55.1666     86.2944   1.0126126876e+02   5.2830362934e+01     0.578598    0.3241327  18.53  0.001982341    2.295    0.564
       102  -9.4791     53.0162     81.9606   1.0091135885e+02   5.4077553339e+01    0.4366769    0.2736446 -24.44  0.001996537    1.948    0.487
       103  -8.6817    110.0174    104.5674   8.8609202011e+01   3.9872388917e+01    0.2259399    0.1516952  41.30 0.0004172277    1.544    0.352
       104 -11.0316    143.0284    101.3033   7.8708278008e+01   3.3553096789e+01    0.6229163    0.3348462  32.73   0.00224702    2.369    0.578
       105  -9.3492    133.6141    102.1113   8.1383287129e+01   3.5496495340e+01    0.3000918    0.2548484 -54.12  0.000691538    1.211    0.175
       106  -9.0383    132.5730     97.7927   8.0442260392e+01   3.6654882007e+01     0.292287    0.2158902 -48.50  0.001152816    1.365    0.267
       107  -8.6076    100.2426    103.0138   9.1067325097e+01   4.2077235251e+01    0.2691261      0.16706  -1.79 0.0008964337    3.547    0.718
       108 -10.0515     77.9665    101.7267   9.7578004599e+01   4.6118179111e+01    0.4935555    0.2713809  25.67  0.001923147    2.269    0.559
       109  -9.8320     62.0548    102.8649   1.0289109409e+02   4.8083125554e+01    0.2589937    0.2162593 -55.38 0.0002529147    1.059    0.056
       110  -9.4619     63.0335     98.4814   1.0157505936e+02   4.8997669123e+01    0.3244503    0.2682231  40.17  0.001841942    1.355    0.262
       111 -10.5364     39.5484     80.0637   1.0524022713e+02   5.5955971950e+01    0.4322863    0.3289628  35.40  0.002578397    1.552    0.356
       112  -9.8542      4.9880     99.8220   1.2039294019e+02   5.3934903790e+01    0.3100201    0.1938323  88.95  0.001162858    1.563    0.360
       113 -10.8507      4.0143     86.6557   1.1885981430e+02   5.7014865874e+01    0.6563572    0.2892582 -54.62  0.002987111    1.722    0.419
       114  -9.1123     34.0742     99.3672   1.1117433006e+02   5.1964407325e+01     0.256989    0.1688653 -72.78 0.0008666865    1.398    0.285
       115  -9.3298      3.2232     94.2010   1.2018933397e+02   5.5325636224e+01    0.3768387   0.08203418 -58.59  0.001551696    2.789    0.642
       116  -9.2282    156.1675     96.3347   7.4063599179e+01   3.1508521363e+01    0.4921972    0.2138976 -30.27  0.001541484    3.012    0.668
       117  -9.8683     39.0644     96.8434   1.0906612876e+02   5.2099599109e+01    0.3104001    0.2108943 -31.84  0.001175489    1.643    0.391
       118  -9.7492     39.4029     92.2207   1.0800988485e+02   5.3156695546e+01    0.2724743    0.1726583 -62.35 0.0007267375    1.350    0.259
       119 -11.0645     34.0118     91.3800   1.0965307657e+02   5.3853255662e+01     0.844309    0.3900572   9.73  0.003571959    3.419    0.708
       120  -9.5397     87.3564     96.8960   9.3389284010e+01   4.5745698756e+01     0.355479    0.2128141  45.45  0.001404312    1.842    0.457
       121 -11.3897     72.2571     95.1814   9.7771299488e+01   4.8501255011e+01    0.5337215    0.3767077  45.36  0.002712673    1.600    0.375
       122 -10.3494     74.4118     89.9010   9.5689329573e+01   4.9403358721e+01    0.7065877    0.3249873  46.71  0.002779108    2.685    0.628
       123 -10.4056    116.2964     95.0318   8.4157113525e+01   4.0742213238e+01    0.4838339    0.3784634  31.26  0.001435171    1.364    0.267
       124 -10.2276    123.0902     92.1584   8.1401558509e+01   3.9930708473e+01    0.4582712    0.2773224  55.75   0.00186593    1.923    0.480
       125  -9.5250    104.3339     92.3196   8.6892970892e+01   4.3725245767e+01    0.3600221    0.2269397  17.83  0.001187741    2.332    0.571
       126  -9.5178    106.5329     87.3881   8.4789364364e+01   4.4373837703e+01    0.4106603    0.1729469 -44.37  0.001190622    2.285    0.562
       127 -10.4968     89.1148     89.0744   9.0683403758e+01   4.7224362129e+01    0.6359758    0.4304593 -21.55  0.001352287    1.876    0.467
       128 -10.0728     83.0276     90.0213   9.2904561982e+01   4.8030423135e+01    0.3347326    0.2485897  20.76  0.001002726    1.554    0.356
       129  -9.3522     83.0537     85.2661   9.1555055894e+01   4.9093385811e+01    0.3803894    0.1876285 -36.62  0.001495424    2.221    0.550
       130 -10.4179    193.8918     89.3587   6.4050114118e+01   2.3668184687e+01    0.2655223    0.2395679 -32.56 0.0002519277    1.089    0.082
       131  -9.2654    187.3125     89.2816   6.5301296614e+01   2.5287454487e+01    0.2360971    0.2125225  66.86 0.0003364203    1.160    0.138
       132  -8.2907    222.7080     87.2990   5.8507156729e+01   1.7194021517e+01    0.1480194    0.1088526 -64.06 0.0003365953    1.564    0.361
       133  -9.5708    154.8222     86.1925   7.1441606943e+01   3.3836619425e+01    0.3793328    0.2276559  32.11  0.000962044    2.085    0.520
       134  -9.6048    145.9875     86.3944   7.3642068706e+01   3.5916632302e+01      0.41719    0.3393344   7.76  0.001949899    1.471    0.320
       135 -10.0334    152.9639     76.0304   6.8818870868e+01   3.6211754767e+01    0.6423358    0.3451504  26.20  0.002037988    3.383    0.704
       136  -9.7308    119.0914     86.6050   8.0876776368e+01   4.1961321271e+01    0.3320164     0.246324  40.39 0.0009281841    1.377    0.274
       137 -10.3039    135.4797     81.9594   7.4976167982e+01   3.9258811180e+01    0.5089876    0.4704954  24.59  0.002636036    1.096    0.088
       138 -11.2716    102.9460     81.1864   8.4000508672e+01   4.6400059771e+01    0.7770023    0.5652438  22.33   0.00170748    1.589    0.371
       139 -10.2795     98.5558     77.1649   8.4111676850e+01   4.8088368843e+01    0.5793941     0.328859  34.58  0.002441755    1.911    0.477
       140  -8.2970    161.3748     82.2663   6.8766229319e+01   3.2983012566e+01    0.1639198    0.1211043  22.86 0.0006989328    1.673    0.402
       141 -10.3879    143.8911     77.4640   7.1444730322e+01   3.8146470244e+01    0.4570969    0.3725916 -80.19  0.002144503    1.552    0.356
       142  -9.5294    146.7436     74.9707   6.9971730651e+01   3.7925987948e+01    0.2102086    0.1956704 -27.27 0.0003014565    1.078    0.072
       143  -9.7787     90.6458     77.1706   8.6645241866e+01   4.9547949450e+01    0.4900594    0.3158592   0.86  0.001978459    2.522    0.603
       144  -9.1212    190.4428     77.0239   6.1293842553e+01   2.6684719741e+01    0.3173363    0.1737508  26.71  0.001026031    3.431    0.709
       145  -9.4369    236.1380    249.3754   8.9949651994e+01  -1.0074780301e+01    0.1603193   0.08885157  40.46 0.0009487702    1.777    0.437
       146 -10.8108     72.7030     52.7305   8.4613599431e+01   5.7476891311e+01    0.6057223    0.4663544  34.99  0.003378346    1.383    0.277
       147 -10.8863     81.9565     75.4134   8.8978193809e+01   5.1419061357e+01    0.2931984    0.2601912 -72.03 0.0002802206    1.345    0.257
       148 -10.4837     75.6271     73.9416   9.0686140795e+01   5.2753400926e+01    0.3555368    0.3028298  10.23            0    1.244    0.196
       149 -11.1298     77.9126     62.3470   8.6126850431e+01   5.4775298042e+01     0.871164    0.4056419 -33.83  0.003482701    2.305    0.566
       150 -11.1153     68.2264     70.7113   9.2292354118e+01   5.4559060005e+01    0.9204469    0.6951877 -39.80  0.005031144    1.183    0.155
       151  -9.8129    107.6652    248.3189   1.1338053792e+02   9.7051300853e+00    0.1976614     0.114931  63.54    0.0011282    1.774    0.436
       152 -11.7628     31.8204     41.9545   9.7327862674e+01   6.4761067829e+01    0.8147743     0.451488 -38.61  0.003111201    1.482    0.325
       153  -8.9157     58.3264    246.9886   1.2212375049e+02   1.6746928293e+01    0.1772978   0.06952503  81.88 0.0007051603    4.365    0.771
       154 -11.1999    113.9166     22.9213   5.9932996345e+01   5.3796494799e+01    0.5186853    0.3249699  59.62  0.001314465    1.609    0.379
       155  -8.7639      3.4669    246.5390   1.3111074213e+02   2.2922825578e+01    0.1623587   0.06919793 -70.18  0.001027157    2.397    0.583
       156  -9.6824    141.9986    243.6976   1.0642832685e+02   5.1438430781e+00    0.3117756    0.1378232  33.30  0.001275339    2.229    0.551
       157  -8.3109    188.6624    243.7072   9.7625811072e+01  -2.3095170205e+00    0.1239371   0.08075958  15.78 0.0005987022    1.646    0.392
       158 -12.1783     96.4784     54.9277   7.7243980010e+01   5.2806791835e+01     1.588391    0.7581649  33.80  0.006227913    2.404    0.584
       159 -10.2777     14.4986    237.7678   1.2898982130e+02   2.3384238860e+01    0.2777597    0.1213149  89.71  0.001686232    2.015    0.504
       160 -12.0579     56.5068     37.8108   8.5175252470e+01   6.2607565495e+01    0.4901354    0.4022721  10.95  0.001020031    1.182    0.154
       161  -9.0248     55.5339    237.5153   1.2194344622e+02   1.8786593204e+01    0.1760399   0.08959821 -60.73 0.0007889477    2.299    0.565
       162  -8.9327     20.9487    232.3619   1.2765001796e+02   2.3707774545e+01     0.147935    0.1057382  62.67 0.0007396588    1.111    0.100
       163 -12.0689     63.3513     30.8425   7.9531563461e+01   6.2731812748e+01    0.5493338     0.289061  30.48  0.001248432    1.965    0.491
       164  -8.5244     46.4497     77.0947   1.0200529615e+02   5.5919145666e+01    0.2916977    0.1325553  42.69  0.001256459    2.798    0.643
       165  -9.5742      4.9413     77.0295   1.1700741500e+02   5.9151017443e+01    0.1975914    0.1764673  81.67  0.001045754    1.307    0.235
       166  -9.8749      3.7740     72.5793   1.1665155473e+02   6.0203649673e+01    0.3400141    0.1596467 -44.23  0.001186696    1.818    0.450
       167  -9.3199    214.5402     75.9719   5.6884213605e+01   2.0973798751e+01    0.3438567    0.2266625  70.98  0.001575748    1.736    0.424
       168  -9.2837     12.3542    231.9880   1.2907363877e+02   2.4651734409e+01    0.2364891   0.09988315  48.64   0.00146834    1.817    0.450
       169  -8.3600    204.6488     75.7067   5.8425600058e+01   2.3403747898e+01    0.1531998     0.116452  23.13 0.0002206249    1.678    0.404
       170  -9.5277    130.3943     74.1132   7.3859922150e+01   4.1958997698e+01    0.3601246    0.2733828 -55.49  0.001022147    1.494    0.331
       171  -9.6030    124.6396     74.6176   7.5582737528e+01   4.3169808933e+01    0.4149498    0.1827449  44.10   0.00150205    2.293    0.564
       172 -10.4161    107.8317     69.2976   7.8696361683e+01   4.7829963212e+01    0.5609353    0.4367392  67.87  0.002026545    1.677    0.404
       173  -9.8717    101.4569     68.5541   8.0406053756e+01   4.9265712217e+01     0.451188    0.3792294 -43.07  0.001796705    1.198    0.165
       174 -10.1447    107.1428     59.5748   7.5584795616e+01   4.9799002425e+01    0.3001054    0.2560766  37.96 0.0003886799    1.173    0.148
       175 -10.9932    124.6049     67.7315   7.3348582792e+01   4.4483672418e+01     1.010475    0.7297455  82.54  0.004311215    2.150    0.535
       176 -11.3281    111.8081     63.5396   7.5568400411e+01   4.8084814325e+01    0.5082501    0.3870072 -53.59 0.0003064052    1.512    0.339
       177 -10.8965    114.9550     72.0426   7.7491304142e+01   4.5795909481e+01    0.4780473    0.3375285 -33.16  0.000451688    1.412    0.292
       178 -10.5474    118.9306     70.4840   7.5838421678e+01   4.5233629969e+01    0.3077934    0.2862267  12.64 0.0008545307    1.062    0.058
       179 -10.7000    150.2788     66.5263   6.6481346865e+01   3.8578444845e+01    0.5832821    0.5049186  -8.48  0.002941616    1.255    0.203
       180 -10.4650    140.0284     71.2142   7.0442325185e+01   4.0238141816e+01    0.6150827    0.3789413  31.13  0.002484131    1.980    0.495
       181 -10.4660    137.2443     69.1934   7.0495708144e+01   4.1272517807e+01    0.4953448    0.3264755  25.45   0.00115794    1.930    0.482
       182  -9.0906    177.7276     69.9064   6.1672836058e+01   3.1093055171e+01    0.2473343    0.1997603  -6.07 0.0007589184    1.474    0.321
       183  -8.7932    170.2819     70.5346   6.3350433820e+01   3.2868461092e+01    0.2139397    0.1428849  43.84 0.0006201143    1.547    0.354
       184  -9.8791    165.6946     68.9881   6.3839805403e+01   3.4292865626e+01    0.3733565    0.2668368  62.03 0.0009269331    1.447    0.309
       185  -9.1971     83.7278     67.7615   8.5929207670e+01   5.2710042760e+01    0.3419344    0.2488586  49.21  0.001197993    1.610    0.379
       186  -9.4438    131.4716     67.1495   7.1318248209e+01   4.3007124155e+01    0.2884292    0.2082655  40.87 0.0006890995    1.385    0.278
       187  -9.5163    186.3264     61.3150   5.7573947239e+01   3.0318541795e+01    0.5077472     0.239323 -57.23  0.001319397    3.221    0.690
       188 -10.3378    185.7803     55.5742   5.6008561471e+01   3.1350537081e+01    0.4051875    0.2962467  82.20  0.001389369    1.534    0.348
       189 -10.8784    183.4335     51.7377   5.5292658049e+01   3.2529369773e+01    0.4203787    0.3620341 -76.58 0.0004557977    1.210    0.173
       190 -10.7225    137.8326     59.1520   6.7054803305e+01   4.2893351168e+01    0.3440231    0.2610926  13.42   0.00159927    1.591    0.371
       191  -9.8569    129.3764     60.9961   6.9819427850e+01   4.4592853992e+01    0.4867798    0.2942566  71.38  0.001714796    2.567    0.610
       192  -9.0025    207.2123     60.9786   5.4044178902e+01   2.5131448664e+01    0.2094253    0.1846486 -39.22 0.0004768333    1.114    0.103
       193  -9.5951    234.1299     59.8434   5.0000560922e+01   1.8892152875e+01    0.2095036    0.1699872 -59.38 0.0002678474    1.164    0.141
       194  -9.7271    201.6270     59.7396   5.4574496562e+01   2.6706946268e+01    0.2592991    0.2342701 -69.02 0.0004491552    1.085    0.079
       195  -9.7050    151.1227     59.9531   6.4191289410e+01   3.9485364803e+01    0.3801346    0.2067732  46.87  0.001153387    1.809    0.447
       196  -9.6913    174.1609     57.0333   5.8532107586e+01   3.4100661642e+01     0.440892    0.2605079  -8.04  0.001627461    2.752    0.637
       197  -9.3014    140.9121     52.3064   6.4022371894e+01   4.3258925772e+01    0.3148851    0.2621123  77.34  0.001097358    1.370    0.270
       198  -9.6063    144.1437     58.1465   6.5206391432e+01   4.1518218227e+01    0.2756494    0.2230927  58.26  0.000477365    1.244    0.196
       199 -12.1568    147.5036     53.5324   6.2916948693e+01   4.1429223422e+01    0.5244039     0.369818  38.39 -5.604531e-05    1.469    0.319
       200 -10.1894    145.0370     49.0169   6.1972459002e+01   4.2745737687e+01    0.3755711    0.2507287  46.09  0.000305605    1.450    0.310
       201 -10.1788    193.3109     54.6048   5.4473465361e+01   2.9580279639e+01    0.4472208    0.3403634   9.83  0.001518785    1.762    0.432
       202  -9.4803     12.6525     56.8604   1.0995636487e+02   6.3172677994e+01    0.2095001    0.1614476  20.85 0.0009227332    1.593    0.372
       203  -9.8636    133.1775     54.9530   6.6795169790e+01   4.4713616620e+01    0.4398788     0.267647 -13.13  0.001549259    2.243    0.554
       204  -9.2368    243.7984     55.1900   4.7706465138e+01   1.7390269318e+01    0.1778643    0.1637121   7.04 0.0006426108    1.342    0.255
       205  -9.8396    166.3130     53.3974   5.8927201105e+01   3.6676886373e+01    0.3895338    0.2818525 -38.91  0.001856305    1.401    0.286
       206 -10.4396    160.6352     52.0570   5.9637330668e+01   3.8335859574e+01    0.4741829     0.383991 -22.36  0.001980477    1.320    0.243
       207 -10.8345     41.6040     53.9549   9.7180813459e+01   6.1401306603e+01    0.2589823    0.1973684  15.06 0.0003225896    1.432    0.302
       208 -11.4953     42.5335     49.9574   9.5476601884e+01   6.2102245148e+01    0.6950451    0.3228085  22.48  0.002827592    2.526    0.604
       209 -10.8857     58.2846     49.8729   8.9059198958e+01   6.0169111158e+01    0.5403467    0.3407563  40.97  0.002354942    1.867    0.464
       210 -10.8011     58.0202     46.5217   8.7934288596e+01   6.0835050337e+01    0.5138492    0.3169305  27.90  0.002040258    1.720    0.419
       211  -9.9443    238.4282     51.9283   4.7549637495e+01   1.9058068176e+01    0.2181786    0.1764621 -79.65 0.0004280228    1.242    0.195
       212 -10.9576    117.7456     46.7843   6.7953530206e+01   4.9636583438e+01      1.00871    0.4274119 -25.04  0.003337358    2.959    0.662
       213  -9.2301     10.1366     52.0446   1.0981357008e+02   6.4336262310e+01    0.1751656    0.1454016 -25.47 0.0004166949    1.218    0.179
       214  -8.7647    212.3047     51.3516   5.0731389229e+01   2.5315380428e+01    0.1440308     0.111785  22.44 0.0007041206    1.706    0.414
       215  -8.8755    242.4105     49.2639   4.6458067145e+01   1.8535708887e+01    0.2010148    0.1073813 -44.15  0.000949018    1.646    0.393
       216 -10.1155    120.7505     54.5565   6.9910225051e+01   4.7689635360e+01    0.6092644    0.4329465  -5.21  0.002790371    1.738    0.425
       217  -9.4745    171.9948     47.9062   5.6163163485e+01   3.6037537011e+01    0.3954663    0.2930995  -5.65  0.001862661    1.693    0.409
       218 -11.0494    156.6274     41.9548   5.7200056227e+01   4.0842456167e+01     0.756269    0.4305367 -28.57  0.002047338    1.857    0.462
       219  -9.3731    128.5518     45.3034   6.4597206753e+01   4.7341384540e+01    0.4362852    0.3233165  39.82  0.002160827    1.309    0.236
       220 -10.4061    113.3194     32.5121   6.3811143559e+01   5.2725013391e+01    0.5939051    0.3226698  20.87  0.002280361    2.760    0.638
       221  -9.5799    105.7993     43.1147   6.9980946408e+01   5.2856819913e+01    0.4732827    0.3749459 -27.19  0.002525118    1.256    0.204
       222  -9.6495    100.4783     38.1589   6.9663886512e+01   5.4743762878e+01    0.4306494    0.3110163  55.91  0.002198172    1.548    0.354
       223 -10.8944    105.8332     34.2159   6.6542683451e+01   5.4163962264e+01    0.4020016    0.2536841  42.86 0.0002752481    1.490    0.329
       224 -10.2216    108.5890     29.5426   6.3935691026e+01   5.4186892316e+01    0.5054291    0.3307064  69.82  0.002342249    2.044    0.511
       225  -9.3543     95.2654     46.0625   7.4341735075e+01   5.4571697537e+01    0.2717882    0.2045411 -14.79 0.0006270203    1.355    0.262
       226  -9.8105     97.9773     41.9681   7.1914127649e+01   5.4681201529e+01    0.3749889    0.2641517   7.75  0.001438797    1.651    0.394
       227  -8.3567    226.5599    231.5115   8.8765436401e+01  -6.5948397966e+00    0.1216376   0.09574656  15.76 0.0001796142    1.029    0.028
       228  -8.7985    219.4012    230.8941   8.9959234926e+01  -5.4264992043e+00    0.1701494    0.1319717  30.71 0.0004788321    1.195    0.163
       229 -10.0557     75.2030     45.9502   8.1163494000e+01   5.8293112618e+01    0.3851083    0.2672818  12.72  0.001290584    1.607    0.378
       230 -10.0570     76.3341     41.8922   7.9171828410e+01   5.8795875188e+01    0.2518943    0.2162718  -5.61 0.0007440177    1.032    0.031
       231 -10.4334     66.7824     44.3407   8.3685941225e+01   5.9941083456e+01    0.5141189    0.3117723 -35.04  0.002627382    1.508    0.337
       232  -9.6908    207.0493     46.0924   5.0059055849e+01   2.7363215558e+01    0.3196879      0.19724  64.87 0.0007422728    1.604    0.377
       233 -10.1789    136.1905     42.0892   6.1624862452e+01   4.5963768637e+01    0.4371643    0.3252562 -79.99  0.001806103    1.863    0.463
       234 -11.0764    142.2457     43.9084   6.0872852624e+01   4.4202128853e+01    0.6217279    0.4543632  16.18 0.0007588742    1.661    0.398
       235 -10.7632    147.7311     35.2633   5.6768200095e+01   4.4019256154e+01    0.7684679     0.308988  57.56   0.00258993    2.266    0.559
       236  -9.6457    155.7626     32.1208   5.4158643130e+01   4.2374897252e+01    0.3521021    0.2833558  -2.15  0.001831366    1.438    0.304
       237  -9.7984    248.9689     44.3351   4.4602797731e+01   1.7761435211e+01     0.216832    0.1849317   1.08 0.0007079526    1.557    0.358
       238  -9.1286    179.1576     44.8138   5.3973067991e+01   3.4634037503e+01    0.2251874     0.194862 -69.00 0.0004670257    1.192    0.161
       239  -9.7228     16.8133     44.2710   1.0477472939e+02   6.5523603927e+01    0.2542485    0.1322403 -45.15 0.0002424626    1.462    0.316
       240  -9.4850      9.0184     41.4480   1.0745925563e+02   6.6576096437e+01    0.4248199    0.2796728   5.20  0.002593642    1.733    0.423
       241  -8.9195     22.6893     41.0358   1.0111256230e+02   6.5733527237e+01    0.2435031    0.1876835 -68.91   0.00112516    1.642    0.391
       242 -10.3621     17.5038     37.9191   1.0246726136e+02   6.6732118758e+01    0.4473863    0.3159131 -36.67  0.002764108    1.098    0.089
       243 -11.3277     15.5529     31.2331   1.0111678711e+02   6.8147130123e+01    0.4255912    0.2450708 -22.11 0.0005944726    1.668    0.401
       244  -9.1680    135.5962    230.2641   1.0597794477e+02   8.3580333724e+00    0.1539016    0.1207267 -40.06 0.0009487698    1.610    0.379
       245 -11.3752      4.8044     26.2065   1.0471400887e+02   6.9764622711e+01     0.453737    0.2496205 -23.02  0.002525453    1.701    0.412
       246  -8.3700    197.1945     41.8428   5.0293202406e+01   3.0427818764e+01     0.177392    0.1617648  40.00 0.0002690359    1.216    0.178
       247  -9.7754    215.4904     39.6079   4.7234755132e+01   2.6172154715e+01    0.3203314    0.2778787  78.81  0.001303651    1.128    0.113
       248  -9.1529    190.7193     40.3316   5.0821733710e+01   3.2282570084e+01    0.2878398    0.1880954  33.13  0.001051427    1.980    0.495
       249  -8.5859    235.4320     39.7962   4.4963006410e+01   2.1412021965e+01    0.1878494    0.1291515 -18.02 0.0009518787    1.792    0.442
       250  -9.2786    174.6614     39.1645   5.3032017640e+01   3.6575675479e+01    0.2408106     0.195404  76.83 0.0006378905    1.226    0.185
       251  -8.8150    202.2097     38.0046   4.8533325183e+01   2.9679157666e+01    0.1885325    0.1772965 -68.77  0.001094775    1.040    0.038
       252 -10.9815    129.0800     23.4629   5.6562591776e+01   5.0125653327e+01    0.5273535     0.220802  53.78  0.001295344    2.083    0.520
       253  -8.6171    182.5136     37.4905   5.1256574299e+01   3.4771255246e+01    0.1452027    0.1365609  86.96 -6.214999e-05    1.007    0.007
       254 -10.4722    218.7133     34.3260   4.5488176185e+01   2.6083760200e+01    0.4672205    0.1917764 -55.03  0.001418801    2.888    0.654
       255 -11.0024    220.6167     30.3235   4.4257807662e+01   2.6134570827e+01    0.6692446     0.242874 -48.49  0.002028557    2.745    0.636
       256  -9.6142    169.8466     35.4458   5.2707894038e+01   3.8314464763e+01    0.3658396      0.28451  83.91  0.001415672    1.351    0.260
       257  -9.5097    173.5142     30.6325   5.0625956065e+01   3.7977780203e+01    0.3272764    0.2349682  38.16  0.001179406    1.542    0.352
       258 -10.6235    245.3448     33.3486   4.2431510606e+01   2.0011005089e+01    0.5082617    0.2872484  65.74  0.002169576    1.819    0.450
       259 -11.1453    193.0826     32.6135   4.8292450601e+01   3.2692189787e+01    0.3836233    0.3432665  22.11  0.001624514    1.318    0.241
       260  -9.5454    198.2901     26.1532   4.5808246646e+01   3.2169215798e+01     0.311404    0.1987788  34.67  0.001338696    2.076    0.518
       261  -9.8514    134.9803     33.9483   5.9036712218e+01   4.7382640172e+01    0.2887298    0.2313851  23.05 0.0005475677    1.316    0.240
       262  -9.0803    138.1470     30.7118   5.7199220414e+01   4.7014438668e+01    0.2800567    0.2156947 -38.69  0.001450547    1.394    0.282
       263  -8.3033    123.9421     36.0000   6.2386167303e+01   4.9779512384e+01    0.2457624   0.07904935  55.65 0.0008065548    2.971    0.663
       264  -9.8600    234.7793     33.8130   4.3594994836e+01   2.2347071095e+01    0.2653943    0.1822723  61.39 0.0008935062    1.527    0.345
       265  -9.2602    202.1941    228.8867   9.2820508714e+01  -2.4450591932e+00    0.1758654    0.1498061  33.31 0.0003643671    1.202    0.168
       266  -9.0616    207.0069     33.7162   4.6749693173e+01   2.9039090687e+01    0.1991066    0.1736898 -89.00 0.0005190596    1.076    0.071
       267 -10.1208    210.9062     32.5036   4.5946182785e+01   2.8227469255e+01    0.3446161    0.2666598 -76.88  0.001412764    1.273    0.215
       268  -9.2165     40.8632    221.4679   1.2346498931e+02   2.3580687893e+01    0.1764523    0.1179945 -77.72  0.000739959    1.434    0.303
       269 -10.0899    211.3837     17.5181   4.2006103885e+01   2.9914370784e+01    0.3834254    0.1849356  63.48  0.001416654    1.933    0.483
       270  -8.4862    219.6850    215.2969   8.7252269674e+01  -3.3850261598e+00    0.1115924    0.1000792  56.12 0.0003906505    1.605    0.377
       271  -9.6882    185.9201     25.2819   4.7197943772e+01   3.5425952372e+01    0.3411763     0.208616 -40.61  0.001614807    1.642    0.391
       272  -9.7015    188.6779     19.5904   4.5206555305e+01   3.5376250852e+01    0.3766424    0.2064721  43.09 0.0006873686    2.134    0.531
       273 -10.5667    179.7387     25.1876   4.8045201386e+01   3.7027836184e+01    0.4534355    0.2742932  74.50   0.00211316    1.636    0.389
       274  -9.5902    234.1305    199.8425   8.1776564194e+01  -3.5578843267e+00    0.1883795    0.1331683   7.23  0.001083154    1.337    0.252
       275  -9.4208     27.7269    193.3933   1.2396644162e+02   3.0739255715e+01    0.2299134    0.1707341 -74.85  0.001569104    1.304    0.233
       276  -9.8011    183.9031     33.4895   4.9870151570e+01   3.4934101042e+01    0.3591731     0.194104  58.47 0.0007764753    1.727    0.421
       277 -10.3728    179.2447     30.2566   4.9621060294e+01   3.6542693989e+01    0.5693482    0.3331172  63.19  0.001875738    1.589    0.371
       278  -9.0949     33.0258    192.0024   1.2278570466e+02   3.0478763062e+01    0.1728052    0.1299732 -52.38 0.0007864761    1.718    0.418
       279  -9.5975     11.2344    192.3637   1.2715045045e+02   3.2553131923e+01    0.2393905    0.1148132  40.55  0.001419864    1.997    0.499
       280 -10.1327     10.3989    185.2299   1.2686788854e+02   3.4132188716e+01    0.3084035    0.2099439   5.92  0.001891073    2.648    0.622
       281  -9.4585    249.2344    181.2509   7.5476879855e+01  -3.3575317848e+00    0.1976809   0.09277379 -42.05 0.0008834236    2.420    0.587
       282 -10.3345      2.5919    177.9976   1.2797979851e+02   3.6333803114e+01    0.3297269    0.2144834 -73.15  0.002239736    1.370    0.270
       283  -9.5814      8.2734    177.1487   1.2677138033e+02   3.6049843277e+01    0.2196261    0.1012215  59.96  0.001079845    1.974    0.493
       284  -8.6661     79.5327    176.4883   1.1089746624e+02   2.8062748045e+01    0.1349209    0.1184064  79.28 0.0008096567    1.006    0.006
       285  -8.3684     65.4702    173.4613   1.1379160713e+02   3.0715885517e+01    0.1334362    0.1121418  80.20 9.011079e-05    1.032    0.031
       286  -8.6313     36.6655    179.3172   1.2093337451e+02   3.2855208038e+01    0.1323125    0.0745303  68.00 0.0007048097    1.695    0.410
       287  -8.7618     30.9872    171.0000   1.2142027325e+02   3.5312184144e+01    0.1781568   0.06716917  30.95 0.0008034253    2.949    0.661
       288 -11.4365     36.5627     27.1536   8.9466189973e+01   6.6952881147e+01    0.4040047    0.2554729  13.53 0.0003224684    1.649    0.394
       289  -8.4842     12.1737    169.6440   1.2542639225e+02   3.7363033722e+01    0.1262048    0.1122156  22.06  0.000283509    1.570    0.363
       290 -10.2017     18.4679    166.8205   1.2383523297e+02   3.7444776686e+01     0.334687    0.1377164 -60.17  0.001672653    2.259    0.557
       291 -10.3816     32.3546    166.2039   1.2065737431e+02   3.6262955048e+01    0.2208393    0.1853338  51.24 0.0004471444    1.286    0.223
       292  -8.4951     13.4166    165.4853   1.2484003649e+02   3.8182937941e+01    0.1184825   0.09099526 -88.24 0.0001106316    1.044    0.042
       293 -10.3296      1.9312    158.8269   1.2686469513e+02   4.0573796514e+01    0.4144297    0.1445608 -89.82  0.001598623    2.781    0.640
       294 -10.2660     22.7690    159.1677   1.2219410191e+02   3.8794044511e+01    0.2069701    0.1647209 -58.65  0.001143796    1.381    0.276
       295  -8.4246     28.6764    158.3009   1.2073189704e+02   3.8442060534e+01    0.1293921   0.07751512  69.42 0.0005318438    1.632    0.387
       296 -10.9238     14.3714    151.1071   1.2342042670e+02   4.1364266953e+01    0.4036191    0.1925947  72.92  0.001219983    2.237    0.553
       297  -8.9943    198.7005     32.0675   4.7378046669e+01   3.1334619040e+01     0.193202    0.1749129 -45.68 0.0004746793    1.127    0.112
       298 -10.2667    226.3343     28.4922   4.3185206079e+01   2.4997491415e+01     0.484055    0.2307972 -36.68  0.002220175    1.927    0.481
       299 -10.5160      8.6275    151.5455   1.2479964509e+02   4.1713971884e+01    0.4071021     0.198186  51.79  0.001618526    2.049    0.512
       300  -9.5212     54.8462     29.8042   8.2535449355e+01   6.4177533789e+01    0.2131966    0.1844838  19.64 0.0002544738    1.246    0.197
       301 -10.3192     30.5500    151.7484   1.1960263307e+02   3.9786475341e+01    0.2266436    0.2016739 -86.64 0.0004750154    1.134    0.118
       302  -9.7494    167.4670     28.8547   5.1059462935e+01   3.9761325874e+01    0.3163179    0.2875471  34.27  0.001120658    1.167    0.143
       303  -9.4839    146.1550     29.1131   5.4997887488e+01   4.5200704384e+01    0.3915821    0.1979262  56.95  0.001666265    1.787    0.440
       304  -9.5610    152.9581     24.7137   5.2232484489e+01   4.3991862153e+01    0.3395212    0.2237466 -17.72   0.00163264    1.731    0.422
       305  -8.4508     46.2358    150.3629   1.1554331321e+02   3.8484728778e+01    0.1291928   0.08598813 -51.24 0.0003515647    1.592    0.372
       306  -9.2536    159.7507     24.8076   5.1071681463e+01   4.2235818733e+01    0.3566935    0.2711635  80.60  0.001844358    1.354    0.261
       307  -9.5612    147.3881     23.9339   5.2997429144e+01   4.5502932802e+01    0.2772031    0.1885749  54.46 0.0007417611    1.334    0.250
       308  -9.9346    246.0999     18.8776   3.9075875428e+01   2.1626107427e+01     0.286671    0.2170267  67.55  0.001003507    1.400    0.286
       309  -8.4020     76.4794    149.5074   1.0763829605e+02   3.4813422150e+01    0.1415637    0.1246243  88.28 8.041997e-05    1.050    0.047
       310 -10.3135     17.9510    147.8308   1.2226183183e+02   4.1827208772e+01    0.2036169    0.1404421 -80.84 0.0003295311    1.157    0.136
       311 -11.0523     30.5063    142.3928   1.1856127652e+02   4.1995031800e+01    0.4803465    0.2726803 -58.91  0.001856663    1.587    0.370
       312  -9.7970     40.2237    146.3298   1.1655849819e+02   4.0095497467e+01    0.2486477    0.2167625 -69.68  0.000719293    1.147    0.128
       313  -9.2626    198.5883     15.7784   4.2953657082e+01   3.3287597111e+01    0.2511247    0.1993159  37.39 0.0009438546    1.504    0.335
       314  -9.0260    185.3631     13.8914   4.4009622661e+01   3.6842982532e+01    0.2435246    0.1635346  81.90 0.0006291766    1.432    0.302
       315  -9.4869    243.3521     13.0597   3.7997958021e+01   2.2911468652e+01    0.2378192    0.1694154  70.58 0.0009575082    1.420    0.296
       316 -10.4010     37.8379    142.9487   1.1674618084e+02   4.1147302475e+01    0.3209345    0.2984968  -8.25  0.001001914    1.416    0.294
       317 -11.0230     33.8053    110.5321   1.1320745360e+02   4.9323699504e+01    0.7457288    0.5786362 -31.32  0.004190371    1.492    0.330
       318 -10.8381     19.2363    119.4190   1.1876491863e+02   4.8408248051e+01    0.6613317    0.2277956 -64.03  0.002973114    2.160    0.537
       319 -11.7521     31.4469     58.2546   1.0263916766e+02   6.1498148057e+01     1.065621    0.6001633  41.01  0.005579464    2.336    0.572
       320  -9.6031     67.2109     12.9429   6.9923404274e+01   6.4565879128e+01    0.2682136    0.1719382  51.92  0.001052366    1.864    0.464
       321 -13.3787     35.8785    121.4714   1.1431943013e+02   4.6499834236e+01     1.496784     1.429604  32.18  0.003195537    1.269    0.212
       322 -11.3448     23.8052     95.4265   1.1379383558e+02   5.3742150885e+01    0.6817421    0.5425788  79.52  0.003552885    1.399    0.285
       323 -10.3467     10.5756     63.4199   1.1229364687e+02   6.1876106644e+01    0.3535837    0.1865071 -53.14 0.0005570092    1.411    0.291
       324 -10.6192      4.5461     55.3133   1.1291430614e+02   6.3933610017e+01    0.5742466    0.3800249 -77.28  0.003578947    1.599    0.375
       325 -12.0752     14.6515    132.2728   1.2150934144e+02   4.5718853398e+01    0.8834679    0.6572569  57.42  0.005002869    1.417    0.294
       326  -8.9393    130.4751     10.5158   5.1515437355e+01   5.1144718028e+01    0.3439498    0.1004334  57.27  0.001237943    2.690    0.628
       327 -12.7658     12.4078    125.1160   1.2132147949e+02   4.7561256479e+01     1.688508    0.6024977 -87.03 6.472306e-05    3.489    0.713
       328 -11.1692     28.2715     84.7668   1.1027711580e+02   5.5877258485e+01    0.8913206    0.4684133   9.64  0.004404266    2.598    0.615
       329 -11.7372     30.5789     72.8827   1.0681036232e+02   5.8389688582e+01    0.8618269    0.3414176 -45.03  0.003892945    2.138    0.532
       330 -11.6904     39.1481     66.0880   1.0179182695e+02   5.9103585933e+01     1.001916    0.4991695 -32.29  0.004633688    2.204    0.546
       331 -11.1290     19.2266     71.5947   1.1076465355e+02   5.9538934923e+01    0.5209528    0.3304903 -69.35  0.001281219    1.456    0.313
       332 -10.6627     25.0621     66.9233   1.0746796503e+02   6.0153631540e+01    0.5694599    0.1662074 -53.22  0.002133719    2.416    0.586
       333 -11.0114     19.2320     61.1345   1.0834037518e+02   6.1836495827e+01    0.5909426    0.3762537  -0.08  0.003495385    1.890    0.471
       334 -11.9429     10.3035    108.7341   1.1995905164e+02   5.1546354551e+01    0.7166856    0.4155927 -49.84  0.002429295    1.605    0.377
       335 -11.6323     15.8118    102.6064   1.1746907702e+02   5.2625638801e+01    0.6908798    0.3200146 -60.92  0.003577196    1.644    0.392
       336  -9.9540      5.1474    147.1611   1.2524970252e+02   4.2968271257e+01     0.275226    0.1574892  28.15  0.001661554    2.128    0.530
