#   1 NUMBER                 Running object number                                     
#   2 MAG_AUTO               Kron-like elliptical aperture magnitude                    [mag]
#   3 X_IMAGE                Object position along x                                    [pixel]
#   4 Y_IMAGE                Object position along y                                    [pixel]
#   5 X_WORLD                Barycenter position along world x axis                     [deg]
#   6 Y_WORLD                Barycenter position along world y axis                     [deg]
#   7 A_WORLD                Profile RMS along major axis (world units)                 [deg]
#   8 B_WORLD                Profile RMS along minor axis (world units)                 [deg]
#   9 THETA_WORLD            Position angle (CCW/world-x)                               [deg]
#  10 FWHM_WORLD             FWHM assuming a gaussian core                              [deg]
#  11 ELONGATION             A_IMAGE/B_IMAGE                                           
#  12 ELLIPTICITY            1 - B_IMAGE/A_IMAGE                                       
         1 -11.1143    202.1562     36.2772   6.5755529107e+01   3.0518461349e+01     1.303846    0.4792253 -56.86  0.004435508    3.902    0.744
         2 -12.0163    217.4496     28.9824   6.2258954143e+01   2.7899075720e+01    0.7064313    0.4942495  85.22  0.003021264    1.274    0.215
         3 -10.4623     89.5630     22.7886   8.3517372966e+01   5.7762943019e+01    0.7741344    0.3623974 -11.47  0.003238227    3.272    0.694
         4 -10.2994     67.2034     13.1218   8.6582523342e+01   6.2798499933e+01    0.2638978    0.1637135  44.12 0.0006617242    1.511    0.338
         5 -11.5358     66.9950     20.8238   8.9705457101e+01   6.2000237002e+01    0.6827157    0.4998618  -8.81  0.003102337    1.292    0.226
         6 -11.0779     73.1000     17.2478   8.6328265593e+01   6.1364222016e+01    0.4104231    0.2341775  44.75  0.002112493    1.604    0.376
         7 -11.8961     76.4122     31.6347   9.0745553490e+01   5.9108450374e+01    0.9516581     0.568796   2.96  0.004756836    2.181    0.541
         8 -12.2918     64.8013     31.0105   9.4379773343e+01   6.1100615376e+01    0.6804835    0.4324327  43.23  0.003013836    1.658    0.397
         9 -11.1691      9.2802     19.3456   1.1237515991e+02   6.9237145951e+01    0.6370804    0.2406612  17.23  0.003351537    2.930    0.659
        10 -11.4030     26.0974      4.4362   9.8454410566e+01   6.9530224466e+01    0.5157308    0.2895129 -12.57  0.003324057    1.643    0.391
        11 -11.1360     18.7118      4.2458   1.0168003148e+02   7.0353363502e+01    0.4197836    0.2932926 -34.09  0.003095286    1.642    0.391
        12 -12.0201     29.5307     24.6067   1.0545564061e+02   6.6622327606e+01     1.325532    0.2645003 -37.60  0.004861652    4.574    0.781
        13 -11.6448     13.2527      8.6114   1.0614222747e+02   7.0354377476e+01    0.3261647    0.2605776 -21.86   0.00182008    1.337    0.252
        14 -11.2772      3.1471     17.3431   1.1447868653e+02   6.9978473440e+01    0.2036954    0.1225492 -34.82 0.0004099242    1.297    0.229
        15 -13.1455      4.2531     10.4916   1.1123707729e+02   7.0858202955e+01     0.751588    0.3524362 -41.00   0.00300782    1.862    0.463
        16 -12.1421    132.1497     22.3402   7.3226908478e+01   4.8803211206e+01       1.4209     1.002068 -65.88  0.007639217    1.887    0.470
        17 -12.8199    112.5955     22.2681   7.7418875866e+01   5.3138778984e+01    0.6717238    0.5524256 -44.34  0.002188125    1.457    0.314
        18 -11.1375     77.2616      9.1663   8.1910409780e+01   6.1428372817e+01    0.4176588    0.2381853 -17.67  0.002407394    1.869    0.465
        19 -11.7553     82.6892      6.0567   7.9169597607e+01   6.0704612651e+01    0.6005077    0.3409719 -39.62  0.003334618    2.311    0.567
        20 -12.8453    132.8212      4.0779   6.7502959386e+01   5.0366584432e+01     1.254679    0.3657372  64.74  0.004842616    2.965    0.663
        21 -13.7893    100.4837      6.2517   7.4731211348e+01   5.7190200389e+01     0.655548    0.5128531 -35.23  0.002127743    1.547    0.354
        22 -12.4541     93.3397      8.2470   7.7184780875e+01   5.8459238544e+01     0.486566    0.3574535  40.49  0.001147875    1.124    0.111
        23 -11.4241    148.2396     25.4922   7.1137044977e+01   4.4729397500e+01    0.7061692     0.444613  29.75  0.002802286    2.023    0.506
        24 -11.8531     50.3824      9.9829   9.1111690743e+01   6.5764772892e+01    0.4431137    0.2834201  23.48  0.002484975    1.337    0.252
        25 -12.4476     43.5537     15.7739   9.6144272209e+01   6.6075861400e+01    0.8561395    0.4804867  46.59  0.004861275    2.386    0.581
        26 -10.1361    161.4738     18.5771   6.7000467222e+01   4.2342035085e+01     0.316354    0.2185149   4.21  0.001663706    2.143    0.533
        27 -10.3465    156.7153     15.7324   6.6956079395e+01   4.3762941388e+01    0.4255731    0.3736571 -53.73  0.002739358    1.262    0.207
        28 -12.3204    118.2718     16.2979   7.4168226839e+01   5.2515051149e+01    0.8782413    0.4803042  87.19  0.002674564    4.117    0.757
        29 -12.0743     18.7286     13.4667   1.0567581874e+02   6.9219207337e+01    0.5818234    0.2970341  26.16  0.003687184    1.918    0.479
        30 -10.5163    249.4926      9.9263   5.5425168979e+01   2.3212242026e+01    0.2807796    0.2138353  64.08  0.001898803    1.540    0.351
        31 -11.5634    220.9888     12.2121   5.8295139096e+01   2.9107843561e+01    0.7913168    0.2649644  71.53  0.003396562    2.635    0.620
        32 -11.9162    210.0844     16.7083   6.0348145969e+01   3.1072066073e+01     0.516165    0.3736522 -35.72  0.003124993    1.580    0.367
        33 -11.9751    231.7857      9.4197   5.6757178242e+01   2.7037789447e+01    0.5872539    0.3432638  87.56  0.002542072    1.497    0.332
        34  -9.6594    224.4765      8.5063   5.7209037534e+01   2.8745709117e+01    0.1984309    0.1409059  48.12 0.0005823619    1.865    0.464
        35 -10.4221     80.4617     18.0238   8.4376051000e+01   5.9973819914e+01    0.5377266    0.3005472 -52.64   0.00238676    3.690    0.729
        36 -10.4262    183.9347     18.0281   6.3702595572e+01   3.7051672572e+01    0.4148422     0.322289 -55.11   0.00252427    1.326    0.246
        37 -11.2026    200.0662      5.9068   5.8986499619e+01   3.4551600487e+01    0.6108587    0.2871557 -47.38  0.003012786    2.116    0.527
        38 -10.6285    188.1213      9.9536   6.1231558343e+01   3.6919057775e+01    0.4251153    0.3407738 -56.25  0.002719085    1.286    0.223
        39  -9.4870    193.1935      6.6299   5.9879277411e+01   3.6071137222e+01    0.3163558    0.1295636  56.92 0.0008773035    2.237    0.553
        40 -10.6884    201.5996     19.0872   6.1814575215e+01   3.2766205655e+01    0.6239904      0.38245  70.40  0.003112199    1.421    0.296
        41 -11.2972    149.7875     15.9938   6.8139388270e+01   4.5368138938e+01    0.5935974    0.3510861  25.21  0.002837279    2.447    0.591
        42 -10.5559    147.0001     12.2157   6.7517031789e+01   4.6387804848e+01    0.3122858    0.2053835 -65.18  0.001274692    1.905    0.475
        43 -10.8791    130.2626     13.9375   7.0990186654e+01   5.0072766144e+01    0.9002211    0.1850146  52.51  0.003139195    3.413    0.707
        44 -10.4705    163.6703      5.5544   6.3200561395e+01   4.3100500612e+01    0.2831621    0.2302731 -65.15  0.001120688    1.306    0.234
        45  -9.2732    168.9989      4.4871   6.2220935575e+01   4.1946674341e+01    0.3026099    0.1656574 -87.39  0.001027542    2.099    0.524
        46 -10.2233    166.0265      1.7810   6.1907431532e+01   4.2886302043e+01    0.2726164    0.1402266  68.26 0.0009927093    1.594    0.373
        47 -10.8357    170.2026     14.0579   6.4528539832e+01   4.0735771199e+01    0.3550658    0.1832108 -45.98   0.00135778    2.107    0.525
        48 -11.2047    165.4995     11.9861   6.4642390307e+01   4.2058598127e+01    0.4273175    0.2802933 -76.80  0.001947213    1.726    0.421
        49 -10.0482    140.8828     10.4106   6.8012487825e+01   4.7974271617e+01    0.3424928    0.1755851 -56.22  0.001293044    2.828    0.646
        50 -10.6915    123.0223     10.0911   7.1182783856e+01   5.2046233283e+01    0.3797048    0.1911159  55.05  0.001326687    1.621    0.383
        51 -11.1521    156.4434      4.7421   6.3987050364e+01   4.4866725088e+01    0.4932895    0.3366283  56.26  0.002647267    1.281    0.219
        52 -11.5846     68.1086      4.7264   8.2902625542e+01   6.3444092503e+01    0.7365565     0.267905  38.54  0.003516137    2.376    0.579
        53 -11.1643     60.0606      4.1704   8.5261284685e+01   6.4838045979e+01    0.3984866    0.1911326  27.13  0.001622661    2.061    0.515
        54 -11.5679     55.7775      2.4959   8.6000040099e+01   6.5673927415e+01     0.357346    0.2247677  33.39  0.001988121    1.314    0.239
        55 -11.3321    208.6010      3.6991   5.7657087650e+01   3.2823280152e+01    0.4752574    0.2952313 -88.34  0.002607568    1.420    0.296
        56  -9.9125    180.7463      5.0132   6.0906257515e+01   3.9139509906e+01    0.2044605    0.1774553 -64.46 0.0006728378    1.207    0.172
        57 -10.4958    175.8629      4.2275   6.1297680077e+01   4.0359229503e+01    0.3585967    0.1530803  73.13 0.0006467957    2.062    0.515
        58 -12.2769    246.5133      2.7845   5.4317866500e+01   2.4645302877e+01    0.5144033    0.2028649  63.93  0.001192806    2.419    0.587
        59 -10.2917    216.2603      4.3793   5.7091631322e+01   3.1023367016e+01    0.1889761     0.171488 -61.62 0.0006296217    1.280    0.219
        60 -10.3245    216.5456      1.5255   5.6471330497e+01   3.1256819176e+01    0.2882672    0.1286336  71.01  0.001173147    1.882    0.469
        61 -12.2172    112.3129      7.8715   7.2649844836e+01   5.4573818301e+01    0.9934953    0.2887706  57.61  0.004013018    2.737    0.635
        62 -10.2709     41.9606      3.7125   9.1579945168e+01   6.7602797277e+01    0.2335173    0.1649551 -28.79  0.001157642    1.601    0.375
        63 -10.4371     45.4968      1.4206   8.9217540060e+01   6.7324617735e+01    0.3751587    0.0718426  40.16  0.001044161    4.317    0.768
        64 -10.4107    223.8820      2.1870   5.5975519509e+01   2.9560518016e+01    0.2736556    0.1615102  60.01  0.001313217    1.749    0.428
        65  -9.7986    191.3089      1.6551   5.8932157195e+01   3.6997488249e+01    0.2584045    0.1287159  84.59 0.0008477356    1.927    0.481
        66  -9.8383    236.1895      3.5070   5.5235866837e+01   2.6744856299e+01    0.2097184     0.145911 -49.83  0.000866721    1.390    0.280
        67  -9.5045    229.7078      1.3829   5.5336123961e+01   2.8371880003e+01    0.1559267   0.09351701  72.73  0.000754833    1.462    0.316
        68 -10.5738    183.0728      1.3857   5.9764535990e+01   3.8937313129e+01    0.1821681    0.1005224  72.62 0.0003182862    1.502    0.334
        69 -10.1679     39.0119    115.5030   1.2734123763e+02   4.8181985569e+01    0.2035336    0.1523082 -61.38 0.0004042932    1.142    0.124
        70 -12.4995    228.0807    112.4973   7.9674794959e+01   1.2123168966e+01     0.884464    0.3726252  50.81  0.003472934    2.558    0.609
        71 -11.7511    207.5047    112.6288   8.3249164506e+01   1.6605574630e+01    0.5814521    0.3172657 -52.04  0.001516506    1.883    0.469
        72 -11.6925    194.7378    112.7088   8.5666690765e+01   1.9494623151e+01    0.4071625    0.3851924  74.87  0.002208855    1.070    0.065
        73 -10.5867    132.8354    111.2782   9.9269200158e+01   3.3951614802e+01    0.4306622    0.2568296 -35.57  0.001757905    1.848    0.459
        74 -11.3284      5.6738    118.6074   1.3748421906e+02   5.0194877366e+01    0.6141596    0.2129873 -66.09  0.002859401    2.136    0.532
        75 -10.9252    201.3908    108.1865   8.3310108559e+01   1.8850471044e+01    0.2862189    0.1826134 -49.91  0.001279974    1.527    0.345
        76  -9.9452     68.4878    106.0089   1.1630376447e+02   4.6810945428e+01    0.2134714   0.09942056 -36.39  0.000810557    2.605    0.616
        77 -11.6517    237.7979    113.4886   7.8348624566e+01   9.9108694137e+00    0.3296126    0.2522202 -41.34 0.0007865826    1.199    0.166
        78 -11.0076    230.6272    105.3470   7.7658025435e+01   1.2891603203e+01    0.3008972    0.2964489 -17.74  0.001044628    1.177    0.150
        79 -11.1106     47.9450    103.5021   1.2212993593e+02   4.9973280088e+01     0.465452    0.1722822 -38.93  0.001676133    3.327    0.699
        80  -9.1677     81.4788    102.4586   1.1143820872e+02   4.5655890200e+01    0.1424448    0.1322148 -37.78 0.0008088431    1.003    0.003
        81  -9.4668     75.5699    101.8158   1.1308452857e+02   4.6714908806e+01    0.1989398    0.1303809 -62.71 0.0008449075    1.684    0.406
        82 -11.4114      4.0139     99.5844   1.3509493246e+02   5.4531607886e+01    0.3263254    0.2307971 -70.30  0.001674672    1.218    0.179
        83 -11.7396    175.4897     97.2614   8.5647730151e+01   2.7032876663e+01    0.5820721    0.4180592 -85.03  0.002157007    1.835    0.455
        84 -11.3161    158.5151     96.5663   8.9129736244e+01   3.1184904734e+01    0.4665031    0.3800439  73.15  0.001928356    1.335    0.251
        85  -9.5282     63.8205     98.1628   1.1584184186e+02   4.9200410322e+01     0.197098    0.1529083 -25.36  0.001083005    1.342    0.255
        86 -10.4240    133.8961    102.8456   9.6754854162e+01   3.5519742682e+01    0.3261603    0.2057931 -40.75  0.001210361    1.599    0.375
        87 -10.2287    226.6159     96.4506   7.6272377238e+01   1.5361235314e+01    0.3455319    0.1347515 -35.27  0.001235776    2.778    0.640
        88  -9.5304     38.9778     96.9960   1.2354589224e+02   5.2373058102e+01     0.212359    0.1328609 -31.36 0.0009643364    1.691    0.409
        89  -9.7824     45.9968     98.5092   1.2162491764e+02   5.1302835844e+01    0.1773124    0.1311481  22.06  0.001016859    1.546    0.353
        90 -11.0048    188.3307     94.0621   8.2282769156e+01   2.4589512317e+01    0.2805243    0.2567977  47.93  0.001086854    1.168    0.144
        91 -10.9667    220.9712     92.2638   7.6192623261e+01   1.7356846214e+01    0.4003307    0.2342831 -68.34  0.001494694    2.274    0.560
        92  -9.4943    211.6166     91.7826   7.7587289712e+01   1.9562276537e+01    0.2190834    0.1246248 -49.92 0.0009536993    1.697    0.411
        93 -10.2287    214.1878     89.1652   7.6548675121e+01   1.9441172617e+01    0.2558551    0.1894764 -57.01 0.0005201722    1.293    0.227
        94 -10.6109     38.1384     91.8276   1.2265039826e+02   5.3583940025e+01    0.4271854    0.2186692  43.92  0.002049538    2.551    0.608
        95 -10.6316     32.9754     92.0000   1.2439409754e+02   5.4040177501e+01    0.2980036    0.1762612  33.81  0.001633242    1.976    0.494
        96 -10.8306      2.4297     89.6914   1.3390842493e+02   5.6754893439e+01    0.4526966    0.2367813 -44.24  0.002658569    1.595    0.373
        97 -10.3415      2.3247     83.6897   1.3284959843e+02   5.8027762090e+01    0.1988724    0.1390391 -67.46  0.001212781    1.280    0.219
        98 -11.9065      5.5128     80.2073   1.3110473194e+02   5.8576866138e+01    0.7052063    0.2832644 -63.25  0.003229323    2.049    0.512
        99  -9.0965    121.5092     91.5129   9.6869293107e+01   4.0511147134e+01    0.1477837     0.146071  -4.23  0.000810477    1.006    0.006
       100  -9.9844     87.9530     90.0463   1.0611943601e+02   4.7246307777e+01    0.3012727    0.1873261 -45.61  0.001005855    1.534    0.348
       101 -10.7147    193.5581     92.2538   8.0851523954e+01   2.3687348952e+01    0.4656246    0.2946801 -38.48  0.002101352    1.595    0.373
       102 -10.9764     51.3390     87.6563   1.1724586078e+02   5.3042779372e+01    0.5067307    0.3201932  11.25  0.002608406    1.970    0.492
       103 -10.6398     57.7678     85.1372   1.1444139224e+02   5.2779051925e+01    0.4060772    0.2592611   3.55  0.001993848    2.095    0.523
       104 -11.1579     14.5578     88.2605   1.2968845671e+02   5.6317659431e+01    0.3205133    0.2812988  33.89    0.0022764    1.428    0.300
       105 -11.0691    154.4329     87.6105   8.7625905518e+01   3.3872177384e+01    0.4958864    0.2543142  58.87  0.001910379    2.128    0.530
       106 -10.6188     98.1386     77.4582   9.9365415222e+01   4.7916988380e+01    0.4136895    0.2555904  53.59   0.00189121    1.921    0.479
       107  -9.8916    100.4329     83.5201   1.0049080121e+02   4.6318330716e+01    0.2664266    0.2390259  42.99 0.0005632573    1.163    0.140
       108 -10.6832    103.2283     80.9951   9.8927949975e+01   4.6275266177e+01    0.5486242    0.2132644 -45.34  0.001795222    2.600    0.615
       109 -10.6719    106.9698     87.0250   9.9616046276e+01   4.4368575389e+01    0.4308686    0.3123485  24.22  0.001761247    1.569    0.363
       110  -9.9100    108.7090     83.6944   9.8150549226e+01   4.4680034854e+01      0.26761    0.1929436  17.05 0.0003708957    1.715    0.417
       111 -10.0406     42.4401     87.2250   1.2011910832e+02   5.4128991704e+01    0.2494709    0.1024394 -50.67 0.0008411425    2.006    0.502
       112 -11.1163    248.6414     84.1078   7.0442585460e+01   1.2802432725e+01    0.2917872    0.2169476 -72.83 0.0005345556    1.337    0.252
       113  -9.4330    246.4458     87.4790   7.1447099642e+01   1.2691158710e+01    0.2146901    0.1480443 -68.90 0.0006396747    1.504    0.335
       114 -10.3949    242.0534     85.2911   7.1563246742e+01   1.3977062003e+01    0.3041023    0.2912039  31.46  0.001456604    1.339    0.253
       115 -11.1260    239.4570     82.2488   7.1252134803e+01   1.5038669880e+01    0.6256497    0.3799503 -27.82  0.002920758    2.090    0.522
       116 -10.2129    146.2012     86.8247   8.9310301737e+01   3.5942677859e+01    0.2126818    0.1846767   9.48  0.001075124    1.351    0.260
       117  -9.6888    205.1712     85.9228   7.7256441609e+01   2.2099863819e+01    0.2325814    0.1822927 -65.06 0.0006748028    1.269    0.212
       118  -9.8303    166.1550     86.0160   8.4633311288e+01   3.1386464787e+01    0.2615091    0.1687198 -66.53 0.0007889359    2.045    0.511
       119 -10.3547    118.9578     86.1993   9.6037794229e+01   4.2098638143e+01    0.4607188    0.2016985  41.48  0.001265348    2.349    0.574
       120 -10.6372    221.8017     84.3660   7.4243067226e+01   1.8553244961e+01    0.5237113    0.2839157  72.98  0.002204702    2.288    0.563
       121 -11.4909    217.4192     82.5096   7.4479825586e+01   1.9866059984e+01    0.5695794    0.3264072 -41.00  0.002016356    1.669    0.401
       122 -10.5454    219.7541     74.7489   7.2329465282e+01   2.0644822849e+01    0.3516376    0.2732227 -59.14  0.001201038    1.188    0.159
       123  -9.1623    223.3110     74.7180   7.1809646851e+01   1.9842693070e+01    0.2174287     0.126246 -46.99 0.0004604899    1.589    0.371
       124 -10.0835    140.4575     84.4422   9.0014110934e+01   3.7713407558e+01    0.2732256    0.1356987 -50.85  0.001026013    2.309    0.567
       125 -10.1204    194.6467     82.1474   7.8134647483e+01   2.5250318236e+01     0.309241    0.2285841 -78.50  0.001491277    1.535    0.349
       126  -9.8600    186.2482     84.4102   8.0226263434e+01   2.6855994372e+01    0.2590618    0.1876414  57.61  0.001010683    1.366    0.268
       127 -10.7704    188.2857     80.5005   7.8855003373e+01   2.7060722056e+01    0.4940703    0.3451657 -89.82  0.002260727    1.757    0.431
       128 -10.1225    188.7155     75.5649   7.7521918732e+01   2.7811419912e+01    0.3565065    0.2308546 -65.27  0.001237498    1.816    0.449
       129 -10.3776    192.4184     73.2762   7.6297325010e+01   2.7309043076e+01    0.3987712    0.3080851 -81.94  0.002030531    1.384    0.277
       130  -9.7521    181.9736     83.6403   8.0834225536e+01   2.8020202450e+01    0.2101868    0.1813807  69.89 0.0004547106    1.135    0.119
       131  -9.7796    229.4715     83.1265   7.2833200099e+01   1.7056873408e+01    0.2156849    0.1278611 -42.13   0.00102431    1.569    0.363
       132  -9.5662     75.9389     82.6037   1.0777499603e+02   5.0722708123e+01    0.1811214    0.1704211  -7.42  0.001095828    1.061    0.058
       133 -10.3687    160.1335     81.1991   8.4609521622e+01   3.3705235611e+01     0.385241    0.2470714  54.82  0.001152696    1.523    0.343
       134 -10.8234    135.1480     80.5867   9.0212144046e+01   3.9636555411e+01    0.3905433    0.2173953 -31.05  0.001594247    2.067    0.516
       135  -9.8930     62.6723     79.1556   1.1114726937e+02   5.3350186405e+01    0.3334713    0.2169949 -76.02  0.001449534    2.924    0.658
       136 -10.2193    201.7669     77.5982   7.5797698460e+01   2.4348249122e+01    0.2801704    0.1811498  67.28  0.001315678    1.583    0.368
       137 -10.2513    176.8677     77.7473   8.0274716444e+01   3.0293453682e+01    0.6090209    0.3542791 -73.11  0.002219965    2.898    0.655
       138 -10.4983    173.9720     72.7049   7.9496126266e+01   3.1860617398e+01    0.3615422    0.2597601 -84.93   0.00168164    1.710    0.415
       139  -9.5189    170.6774     70.6765   7.9589340118e+01   3.2999926409e+01    0.2667969    0.1356016  49.00  0.001085792    1.957    0.489
       140 -10.9057    167.6766     76.6613   8.1799122669e+01   3.2701468055e+01    0.6288261     0.373965  76.52  0.002488803    2.330    0.571
       141 -11.3985     68.2328     75.9992   1.0837362793e+02   5.3189293630e+01    0.4298483    0.2845343 -41.30  0.001339129    1.387    0.279
       142 -10.0235     57.6719     77.4728   1.1236014283e+02   5.4350962084e+01    0.3412995    0.2072092  -5.93  0.001574476    2.392    0.582
       143 -11.8451     59.5032     69.9391   1.0953060511e+02   5.5575212934e+01    0.5900406    0.4207671  24.95  0.002778287    1.468    0.319
       144 -10.9885     51.8371     71.1299   1.1255595047e+02   5.6329376641e+01    0.3725513     0.202482  30.00 0.0007722609    1.980    0.495
       145 -10.7454     26.4311     65.2941   1.2011147703e+02   6.0093572669e+01    0.4826743    0.1929304 -31.63   0.00208321    2.912    0.657
       146  -9.9661     46.6965     68.0419   1.1347780369e+02   5.7532379856e+01    0.2583051    0.1674828 -42.63  0.001141818    1.343    0.255
       147 -10.6964     42.2192     69.0168   1.1536815739e+02   5.7845237661e+01    0.3426954    0.2566504  19.30  0.002128441    1.434    0.303
       148 -11.8521     36.0798     64.0286   1.1617577927e+02   5.9438017498e+01    0.7246109     0.482706  37.87  0.004303089    1.851    0.460
       149 -10.4063    234.2145     73.1962   6.9970415782e+01   1.7666809359e+01    0.4203278      0.23877 -52.89  0.001854302    1.631    0.387
       150 -10.5997    138.6583     77.1694   8.8367210465e+01   3.9461954320e+01    0.2270689    0.1861163 -56.35 0.0005176834    1.322    0.244
       151  -9.3352     43.5229     78.4810   1.1751315758e+02   5.5828342192e+01    0.1297949    0.1073782 -33.36 0.0002604794    1.032    0.031
       152 -11.7661    124.7412     69.9995   8.9712315479e+01   4.3841376791e+01    0.5188682    0.4566727 -72.85  0.002166919    1.335    0.251
       153 -11.5002     82.1154     74.8998   1.0352154007e+02   5.1236034772e+01    0.2271473    0.1976041 -19.49  0.001325483    1.077    0.072
       154 -11.7885    250.2492     67.1717   6.6693221155e+01   1.5204884485e+01      0.97919    0.1858758 -37.06  0.002725058    5.610    0.822
       155 -11.9910    246.4587     56.2901   6.4869008246e+01   1.7667964358e+01    0.8988376    0.4749137 -76.58  0.002531801    2.428    0.588
       156 -11.6101    234.8295     56.6872   6.6294276071e+01   2.0120827816e+01    0.5757912    0.3256588  60.22   0.00265506    1.811    0.448
       157 -11.1037    237.9178     51.6494   6.4856870750e+01   2.0193819669e+01    0.3260821    0.2544883 -59.35  0.001163587    1.123    0.109
       158 -11.3185    234.0738     47.0566   6.4316023417e+01   2.1704508499e+01    0.3754269    0.2439531 -79.57   0.00121533    1.536    0.349
       159 -11.8147    223.9609     45.0594   6.5054788222e+01   2.4254026072e+01    0.9014121    0.6470751  70.46  0.005158167    1.328    0.247
       160 -10.5759    214.7393     71.8641   7.2395374833e+01   2.2272757587e+01    0.3466853    0.2873966  17.57  0.001454172    1.756    0.430
       161 -10.4355    150.4704     72.0070   8.4154136081e+01   3.7619645443e+01    0.6378019    0.4034585 -85.47   0.00242355    2.828    0.646
       162 -11.4940    151.5383     66.4997   8.2352242483e+01   3.8291215437e+01    0.6102446    0.2258369  48.16  0.002044117    2.609    0.617
       163 -10.7741    147.0225     63.1661   8.2376326388e+01   3.9900678831e+01    0.5025106    0.2936294  74.69  0.002000851    2.451    0.592
       164 -10.8657     32.8040     70.0134   1.1905010694e+02   5.8602997577e+01    0.4235693    0.1859062 -38.97  0.002045599    2.035    0.509
       165 -10.0652    202.3631     70.3925   7.3941755371e+01   2.5414500129e+01    0.2665093    0.1944918 -43.58 0.0009379021    1.355    0.262
       166  -9.2807    198.4611     70.5212   7.4600814862e+01   2.6321322470e+01    0.2197633    0.1367741  61.13 2.253649e-05    1.571    0.363
       167 -11.3065    115.9616     69.4170   9.1847412175e+01   4.5825789450e+01    0.3887388    0.2998115 -40.17  0.001779625    1.333    0.250
       168 -10.8327    112.2207     61.7689   9.0481055444e+01   4.7898814993e+01    0.2725908    0.2193576  25.54  0.001055203    1.262    0.207
       169 -10.4287    102.1635     70.4388   9.6032155813e+01   4.8438692021e+01    0.2900237    0.2317098 -62.97  0.001468671    1.590    0.371
       170 -10.6454      6.1557     71.0727   1.2895969694e+02   6.0402212226e+01    0.1923063    0.1546286  -1.75 0.0003497692    1.405    0.288
       171  -9.9136    226.3983     69.2024   7.0130001716e+01   2.0046835811e+01    0.3532767    0.1173408 -40.68  0.001310582    2.737    0.635
       172 -10.5236    179.6232     68.9235   7.7440154260e+01   3.1123045724e+01     0.494079    0.2089651  52.11  0.001797564    2.283    0.562
       173 -10.8674    162.1713     67.9341   8.0529896937e+01   3.5510803461e+01    0.5288624    0.3918348  55.28  0.002654307    1.288    0.224
       174 -10.2535    158.4942     57.6581   7.8402940300e+01   3.8030184495e+01    0.4624388    0.2836535  17.54  0.001746617    3.173    0.685
       175 -11.8779    159.8665     49.9848   7.5981199770e+01   3.8835531492e+01    0.7318172    0.4179378 -54.67  0.003115614    2.106    0.525
       176 -11.0601    164.9474     62.4357   7.8461901860e+01   3.5730048123e+01    0.5437784    0.2569025  53.01  0.002222292    1.984    0.496
       177 -11.6428    166.1005     56.2492   7.6542036722e+01   3.6407708722e+01    0.5895765    0.5165786 -62.62  0.002913925    1.174    0.148
       178 -11.3303    132.9884     68.0438   8.7061422120e+01   4.2340996821e+01    0.4692556    0.3086848  64.98  0.001664693    1.758    0.431
       179 -11.0602    141.9610     68.0683   8.4942289522e+01   4.0280649658e+01    0.4158201    0.2654882  68.51     0.001834    1.875    0.467
       180 -11.3402     19.5379     72.6365   1.2451921593e+02   5.9201714293e+01    0.3637134    0.2174571 -16.28  0.002085155    1.901    0.474
       181 -11.1799    109.3178     67.2605   9.3003821783e+01   4.7573159631e+01    0.3940419    0.2096234  24.25  0.001442062    3.052    0.672
       182 -11.4431    200.4976     89.8604   7.9015584887e+01   2.2489635212e+01    0.5818383    0.3148926  63.17  0.002020183    1.992    0.498
       183 -10.5094    205.2579     65.5470   7.2317520951e+01   2.5514257586e+01    0.3121288    0.2189096  87.53 0.0008722329    1.532    0.347
       184  -9.9488    190.0338     64.9911   7.4608332620e+01   2.9242381080e+01    0.2218662    0.2054757  65.02  0.001206437    1.118    0.106
       185  -9.7553    185.5199     64.5097   7.5250438195e+01   3.0410349805e+01    0.2313982    0.1874268  -0.89 0.0008271977    1.726    0.421
       186 -10.1216    185.5988     60.8143   7.4286964629e+01   3.0974416218e+01    0.2355109    0.1786654 -66.80  0.000776781    1.374    0.272
       187 -11.1070     10.8619     63.6158   1.2549055361e+02   6.1585052370e+01    0.3742557    0.2139413 -50.83  0.001750542    1.365    0.267
       188 -12.7611     19.5429     58.9738   1.2098108811e+02   6.1856068547e+01    0.5338912    0.3354458 -28.63  0.001373251    1.410    0.291
       189  -9.6654    234.3042     63.3897   6.7811629598e+01   1.9208926082e+01    0.2144031    0.1581658 -32.59  0.000517536    1.552    0.356
       190 -10.1609     57.2526     60.2215   1.0730572349e+02   5.7662171827e+01    0.2946827    0.2041257  41.30    0.0015703    1.698    0.411
       191 -10.0082     52.7892     59.6237   1.0871292162e+02   5.8350400213e+01    0.6350462    0.3157704 -59.51  0.002574077    3.498    0.714
       192 -11.4536     67.2817     61.9862   1.0437791515e+02   5.5935419057e+01    0.2806576    0.2363209   0.07 0.0007470757    1.113    0.101
       193 -10.4355     97.9668     61.7747   9.4522722300e+01   5.0744753137e+01    0.2259563    0.1888445 -26.21 0.0004280256    1.185    0.156
       194 -11.0692    221.1600     56.5142   6.7964183503e+01   2.3216133949e+01    0.5753414    0.3800652  88.75  0.001998115    1.589    0.371
       195 -10.7747    216.0379     60.0603   6.9461661418e+01   2.3853118843e+01    0.3936333    0.2284355  65.76  0.001403887    1.687    0.407
       196 -10.4252    212.8738     55.6529   6.8873459550e+01   2.5260115141e+01    0.4277561    0.2399321 -77.44  0.001815555    2.381    0.580
       197  -9.9839    142.0204    243.4762   1.2305781482e+02   3.3173964572e+00    0.1816648    0.1091633  20.88 0.0006849072    2.488    0.598
       198 -11.3701    200.1054     58.9188   7.1492297826e+01   2.7776957231e+01    0.6495746    0.5009388 -64.10  0.003522057    1.264    0.209
       199 -10.9401    200.7010     46.1841   6.8315827142e+01   2.9512835851e+01     1.009727    0.1868096 -39.39  0.003078718    4.475    0.777
       200 -11.2054    204.6350     43.8057   6.7209250144e+01   2.8913098313e+01     0.433722    0.2670486 -64.58  0.001908945    1.720    0.419
       201 -10.8211    207.8087     41.3650   6.6218504841e+01   2.8502475207e+01    0.2899046    0.2388065  51.99 0.0008840989    1.389    0.280
       202 -10.3145    177.8806     60.5625   7.5554868281e+01   3.2886405984e+01    0.4205773    0.3088084  -5.43   0.00172128    2.036    0.509
       203 -10.9993    171.3689     49.5963   7.3779431075e+01   3.6107778674e+01    0.5198286    0.1894388 -39.02    0.0015984    2.761    0.638
       204 -11.6913    180.4477     38.6184   6.9396063583e+01   3.5411778769e+01    0.5985408    0.3318825 -73.77  0.002482388    2.597    0.615
       205  -9.9624    186.9540     38.2759   6.8335019276e+01   3.3886880823e+01    0.2699102    0.1831553  63.02  0.001430322    1.345    0.256
       206 -10.9226    174.0128     57.4754   7.5424140669e+01   3.4301692392e+01    0.3665837    0.2585308 -28.91   0.00113053    1.627    0.386
       207 -11.4551    175.7744     52.3027   7.3738364311e+01   3.4646204201e+01    0.5362311    0.3416961 -47.26  0.001813402    1.622    0.383
       208  -9.9577     79.5104     61.1712   1.0004221675e+02   5.4152156859e+01    0.3590134    0.1746791  51.76  0.001474141    2.864    0.651
       209 -10.4320    237.9434     76.3300   7.0164244921e+01   1.6344516257e+01     0.301208    0.2080003 -48.18 0.0009505435    1.297    0.229
       210 -10.9150    191.6195     58.7514   7.2773265462e+01   2.9838458252e+01    0.3120609    0.2419784  71.32  0.001672459    1.219    0.180
       211 -10.3483      3.3733     57.7618   1.2688075983e+02   6.3154097442e+01    0.2616524    0.1931897  86.22   0.00167536    2.190    0.543
       212 -11.4383     88.0305     55.5629   9.5491366511e+01   5.3607928091e+01    0.6953031    0.3480958  56.56  0.002314662    3.064    0.674
       213 -10.6998     85.8685     52.2640   9.5056637863e+01   5.4518474263e+01    0.4186006    0.2700913  -0.71  0.002017328    2.059    0.514
       214 -11.1339     35.4582     56.3464   1.1411640317e+02   6.0918441027e+01    0.4205846    0.2952777   5.78  0.002562145    1.472    0.321
       215 -11.0115     31.9213     43.3207   1.1129102166e+02   6.3522789603e+01    0.3066348    0.2624291  36.41  0.001452717    1.588    0.370
       216 -11.7088     42.7605     49.6735   1.0919303637e+02   6.1291911806e+01    0.5979571    0.2359221  29.66  0.002689927    2.671    0.626
       217 -11.1688     38.1135     44.0475   1.0908618904e+02   6.2749266924e+01    0.3693059    0.3484663  68.47  0.002624298    1.690    0.408
       218 -10.1046    134.4108     52.1019   8.1914436107e+01   4.4532878657e+01    0.5186889     0.234679  32.77  0.001714961    3.717    0.731
       219 -11.4463    150.1673     53.0301   7.8767888583e+01   4.0715698537e+01     0.573619    0.4584094 -11.66  0.002971258    1.522    0.343
       220 -11.5525    141.0984     51.1868   8.0146305109e+01   4.3120768665e+01    0.4324372    0.3383507  38.63  0.001249005    1.287    0.223
       221 -10.6493    146.1895     48.2775   7.8203170773e+01   4.2342324653e+01    0.4999093    0.2389407  59.60  0.002101614    2.000    0.500
       222 -10.4991    114.4840     52.5181   8.6928548668e+01   4.8874479166e+01     0.233942    0.1365386 -32.84 0.0007570665    1.804    0.446
       223 -11.5443    120.9240     54.0715   8.5767648715e+01   4.7256294431e+01    0.6734636    0.5082872 -86.21  0.003330404    1.957    0.489
       224  -9.5699     85.2105     59.7792   9.7765421186e+01   5.3415436890e+01    0.1875198    0.1466653   0.74  0.000352425    1.334    0.250
       225 -10.8991     12.4044     56.3213   1.2301487827e+02   6.2869468440e+01    0.3054777    0.1701768  30.18  0.001838901    2.180    0.541
       226 -10.8904     99.7635     54.9888   9.1788712289e+01   5.1496619339e+01    0.3733326    0.1821021  39.10  0.001114948    2.026    0.506
       227 -10.9715     60.7302     52.6094   1.0356807545e+02   5.8491682978e+01    0.4713025    0.2064015 -45.57 0.0006506119    2.353    0.575
       228  -9.9967     55.0424     50.0707   1.0474979460e+02   5.9695043463e+01    0.2522236    0.2215031  20.35   0.00136788    1.237    0.192
       229  -9.9822     54.9983     46.2317   1.0344185967e+02   6.0321677508e+01    0.2473264     0.164993  37.05   0.00135685    1.628    0.386
       230 -10.0247     58.5150     45.5069   1.0191159827e+02   5.9949421184e+01    0.2379245     0.164862 -31.25 0.0009630593    1.334    0.250
       231  -9.4954    138.8503     58.6096   8.2862909457e+01   4.2528458935e+01    0.2220232    0.1680348 -41.42 0.0007402929    1.397    0.284
       232 -10.6311    106.1220     53.4283   8.9476993987e+01   5.0472215598e+01    0.5025815    0.1903395  37.58  0.001796346    3.062    0.673
       233 -10.1341     71.4572     53.4791   1.0015184088e+02   5.6743981043e+01    0.2672636    0.1195831 -39.46  0.001206558    2.165    0.538
       234 -11.0833     25.7542     53.0505   1.1685702541e+02   6.2429963447e+01    0.2446091    0.1650893  -3.66 0.0005575071    1.517    0.341
       235 -10.6306     76.3736     51.7456   9.7925025175e+01   5.6230233364e+01    0.2252693    0.2108073  73.11  0.001076375    1.475    0.322
       236 -10.1897    195.0329     47.9324   6.9554488996e+01   3.0619311704e+01    0.3828199    0.2097459 -46.10  0.001219079    1.814    0.449
       237  -9.6768     28.9983     49.0155   1.1432619620e+02   6.2845576858e+01     0.179123    0.1434763 -24.29 0.0004439507    1.022    0.022
       238 -10.1749      6.7936     48.8018   1.2317430994e+02   6.4610097482e+01    0.2166499     0.141568 -29.70 0.0007099969    1.250    0.200
       239 -10.1603     93.6283     48.3803   9.1376757876e+01   5.3684045592e+01    0.2840615    0.1480765  40.96 0.0009232449    1.819    0.450
       240 -10.3153    152.9195     44.5954   7.5783890529e+01   4.1254848179e+01    0.3802255    0.2089554 -19.54  0.001493934    2.535    0.606
       241  -9.2100    129.5582     46.5089   8.1309283636e+01   4.6436242097e+01    0.1374888    0.1276347  44.89 8.016369e-05    1.011    0.011
       242 -12.4346     18.7747     42.3306   1.1631615987e+02   6.4885944844e+01    0.6833113    0.4645889  30.23  0.001503883    1.787    0.440
       243 -10.7273     15.4891     32.6246   1.1445484389e+02   6.6739077470e+01    0.3875792    0.2266753  -9.43  0.002434053    1.699    0.411
       244 -10.6633    142.5004     43.5800   7.7577688861e+01   4.3856976224e+01    0.3503093    0.2609127  34.67  0.001685884    1.433    0.302
       245 -10.7710    118.1352     42.0133   8.2607372547e+01   4.9581036956e+01    0.4875104    0.2554507 -38.34  0.002265955    2.064    0.515
       246 -10.1134     99.9212     38.1239   8.6062055817e+01   5.3892845372e+01    0.3320326     0.239325  11.93  0.001280236    1.534    0.348
       247 -10.3817    249.2709     43.7286   6.2008675969e+01   1.8900813572e+01    0.2805405    0.1378676  63.77  0.001415572    2.045    0.511
       248 -10.3410    213.5950     43.3686   6.5943343620e+01   2.6873399446e+01     0.255126    0.2313905  40.96  0.001052902    1.421    0.296
       249  -9.6187    106.5371     43.8190   8.6188056352e+01   5.1786813376e+01    0.2455115    0.1831525 -83.84  0.001212219    2.247    0.555
       250  -9.6932     67.1297     43.7378   9.8248078697e+01   5.8945727425e+01    0.2031924    0.1612309 -39.01   0.00125449    1.397    0.284
       251 -12.3002    185.4892     47.4642   7.0884506874e+01   3.2985912645e+01     0.731879    0.6570658  13.64  0.004268048    1.434    0.303
       252 -10.4574     87.0300     41.4151   9.0955229777e+01   5.5914991939e+01    0.3272419    0.2382435 -36.49  0.001520337    1.475    0.322
       253  -9.4334    238.4082     42.2528   6.2828191885e+01   2.1434033420e+01     0.180785    0.1010755 -51.70 0.0006060833    1.592    0.372
       254  -9.8242    191.4725     26.7217   6.4854354753e+01   3.4258958760e+01    0.2499528    0.1810695 -15.66  0.001195246    1.922    0.480
       255 -11.1696    194.8583     39.1346   6.7421388430e+01   3.1875684559e+01    0.7490779     0.294085 -50.13  0.002951879    2.770    0.639
       256 -11.0088    194.4301     30.9141   6.5482645197e+01   3.3040622679e+01    0.4437276    0.3083077  69.56  0.001682741    1.284    0.221
       257  -9.9793     48.7162     41.9667   1.0427289227e+02   6.1818590121e+01    0.2175938    0.1404622 -18.07  0.000184098    1.496    0.331
       258 -10.1076     46.1467     36.8652   1.0340721519e+02   6.2921286621e+01    0.2369543    0.1452921 -33.15 0.0008825673    1.479    0.324
       259 -11.1548     54.6533     36.5527   1.0008796576e+02   6.1838268532e+01    0.7068529    0.3551897  40.84  0.003685407    2.149    0.535
       260 -10.2276     49.0355     34.2242   1.0132338129e+02   6.2935339019e+01    0.2636124    0.1691242  33.16 0.0009220263    1.582    0.368
       261 -10.1168     51.1728     30.7878   9.9215168110e+01   6.3131307201e+01    0.2291819    0.1618915 -17.29 0.0006226432    1.264    0.209
       262 -10.2728     55.0075     29.7191   9.7380352951e+01   6.2739779025e+01    0.2200472      0.16483   7.10 0.0005623952    1.171    0.146
       263 -10.0883    161.6609     41.2724   7.3218235733e+01   3.9603855123e+01    0.2516578    0.1559827  72.13 0.0008035044    1.645    0.392
       264 -10.0599    161.7481     37.7413   7.2222795015e+01   4.0042943785e+01    0.2676646    0.2039987 -56.12 0.0007926234    1.422    0.297
       265  -9.5949    242.4813     40.5069   6.2042976507e+01   2.0795447142e+01    0.1323136    0.1023119 -72.34  2.61296e-06    1.073    0.068
       266  -9.8219    130.1672     40.1517   7.9190712550e+01   4.7154951111e+01    0.1990294    0.1665312  36.23 0.0004025353    1.156    0.135
       267  -9.1258    250.3127     39.7128   6.1103492215e+01   1.9242685729e+01    0.1314294   0.07828747 -69.72 0.0002710909    1.581    0.368
       268  -9.5471    173.0271     38.7862   7.0609379701e+01   3.7184669432e+01    0.2158981    0.1814969 -86.62 0.0007516969    1.160    0.138
       269  -9.6604    169.9823     36.9942   7.0626747353e+01   3.8152590416e+01    0.2084681    0.1687786 -85.42 0.0003690257    1.247    0.198
       270 -11.6046    147.0404     35.2708   7.4211823546e+01   4.3862909179e+01     0.777039    0.3172378  56.53  0.003235494    2.117    0.528
       271  -9.9562    136.2382     38.5828   7.7384218655e+01   4.5968734335e+01    0.3112028    0.1568032  58.40  0.001393491    1.829    0.453
       272 -10.5887    124.1678     35.6234   7.9118238530e+01   4.9078511460e+01    0.4318593    0.2745625 -24.64   0.00222403    1.769    0.435
       273  -9.7233    119.6869     33.1717   7.9364306246e+01   5.0368370166e+01    0.2983696    0.1548431 -45.57  0.001038166    2.399    0.583
       274 -10.3865    109.7764     37.1647   8.3110901274e+01   5.1999584141e+01    0.3730466    0.1714552 -36.65  0.001308215    2.337    0.572
       275  -9.3616     25.3089     38.2480   1.1224825801e+02   6.4990198634e+01    0.1137417   0.07102664 -15.19 0.0003762054    1.508    0.337
       276 -10.4312    222.2108     36.3814   6.3350291273e+01   2.5847275187e+01    0.3122847    0.2059181  75.25  0.001129582    1.394    0.282
       277 -10.1569     16.2246    240.3850   1.4659932714e+02   2.2226542378e+01    0.1546846   0.07801385  53.25 0.0007263254    1.636    0.389
       278 -11.5585    216.0502     35.3578   6.3832818586e+01   2.7393924444e+01    0.2474354    0.1947037 -86.68 0.0003135557    1.106    0.096
       279 -11.6350    211.4929     33.2354   6.3892192788e+01   2.8726881613e+01    0.5654572    0.3924986 -53.50  0.002870205    1.374    0.272
       280 -10.3127     97.5518     43.0580   8.8420683174e+01   5.3694013442e+01    0.3758135    0.2791483 -60.80  0.001988532    1.992    0.498
       281  -9.9720    126.7573    216.7774   1.2235758874e+02   1.1173683133e+01    0.1987218      0.15288  72.30  0.001059997    1.380    0.275
       282 -10.3537     26.1553    212.4886   1.4279730567e+02   2.6925388273e+01    0.2261403    0.1689523 -61.52  0.001487071    1.529    0.346
       283 -10.2407     88.8560     33.8560   8.7726181856e+01   5.6584890594e+01    0.8633267    0.3811888  39.35   0.00393371    2.128    0.530
       284 -10.1895    247.5174    203.4992   9.5427222973e+01  -7.7803463103e+00    0.1294655    0.1101286  -9.03 0.0001976248    1.001    0.001
       285  -9.8150    234.6508    200.6840   9.7215119237e+01  -5.2652919739e+00    0.1398183   0.09545407   0.35  0.000704748    1.728    0.421
       286 -10.6173    247.4124    191.8017   9.3180103478e+01  -5.8679706151e+00    0.1925447    0.1110255 -27.35 0.0009506627    1.707    0.414
       287 -10.7096     80.9249     33.1839   8.9889271529e+01   5.8119755296e+01    0.2934873    0.2198802  38.41 0.0005313724    1.254    0.203
       288  -9.9081     37.6457    180.3106   1.3727993342e+02   3.2924338164e+01    0.1376345    0.0823605  70.66 0.0007043981    1.728    0.421
       289 -11.0608     70.8108     30.4282   9.2122543340e+01   6.0208546591e+01    0.2918301    0.1977647   7.15  0.001081038    1.533    0.348
       290 -11.6725    246.0181    177.4457   9.0565288071e+01  -3.2117145136e+00    0.4134422    0.3185089  71.92  0.002134311    2.048    0.512
       291 -11.7913    247.1228    172.6597   8.9403263035e+01  -2.5696527276e+00    0.3619708    0.2189405 -43.29  0.001700124    1.557    0.358
       292 -10.0512    228.7920    175.5825   9.3282719967e+01   1.3829034786e-01    0.1807066    0.1345441  53.64 0.0004916707    1.597    0.374
       293 -10.9783     24.2042     32.1266   1.1054602207e+02   6.6055317353e+01    0.5369917    0.2018373 -50.00  0.002488089    3.121    0.680
       294  -9.3671      9.3312    167.3281   1.4224106504e+02   3.8722310233e+01    0.1204481   0.07678263 -50.91  0.000705151    1.713    0.416
       295 -11.1360    247.2101    166.0230   8.8030582758e+01  -1.4227804660e+00    0.2178581    0.1985482  26.89 0.0004512074    1.196    0.164
       296 -11.2407    249.3172    161.6295   8.6769285341e+01  -1.0147040366e+00    0.3699346    0.1999544 -43.76  0.001225072    1.698    0.411
       297 -10.9011     13.8216    165.0442   1.4100546068e+02   3.8866547593e+01    0.1966675    0.1701575  66.62  0.001380316    1.243    0.195
       298  -9.9027    244.9032     25.7238   5.8839658329e+01   2.2245762358e+01     0.231918    0.1495047 -77.11  0.001012136    1.371    0.271
       299  -9.5818    245.8701     33.3587   6.0264234177e+01   2.1043298084e+01    0.4224587    0.1232462  65.97  0.001484462    3.185    0.686
       300 -10.8958    248.4756     29.6168   5.9282217402e+01   2.0986998777e+01    0.8978937    0.2003295  60.46  0.003319799    4.123    0.757
       301 -10.7360    236.4310     32.2080   6.0950446573e+01   2.3230248882e+01    0.3277985    0.2286254  82.80  0.001401301    1.291    0.225
       302 -11.7980    229.6261     29.3991   6.1053849617e+01   2.5097026845e+01    0.6563039    0.4023085 -84.18  0.003577409    1.581    0.367
       303  -9.8637    238.3441    163.6827   8.9081992266e+01   5.6908224793e-01    0.1361544    0.1093348 -74.83 0.0004402647    1.719    0.418
       304 -10.0869      2.7172    161.6172   1.4316724733e+02   4.0557937622e+01    0.2313489    0.1073332 -64.74  0.001252672    1.695    0.410
       305 -11.0287    249.5924    155.7286   8.5501772102e+01  -1.8260226894e-02    0.2913168    0.2177331 -46.13 0.0009948447    1.268    0.212
       306 -10.1558     76.8260    156.2139   1.2427915939e+02   3.3625825085e+01    0.2548118    0.1429896  73.48 0.0009560407    2.885    0.653
       307 -11.2629    229.5255    154.1359   8.8628811621e+01   3.9821365809e+00      0.34183    0.2399909 -48.56  0.001722347    1.400    0.286
       308  -9.2383     33.6094    155.6912   1.3521227685e+02   3.9199229592e+01    0.1317247   0.08795871 -40.10 0.0007011992    1.822    0.451
       309 -12.5092     19.4730    148.2847   1.3776771379e+02   4.2291909081e+01     0.662961    0.3676681 -42.59  0.003475008    2.110    0.526
       310 -10.1847    178.9092     30.8699   6.7631434228e+01   3.6765504707e+01    0.3772964    0.2123568  62.81  0.001158405    1.567    0.362
       311 -10.5645    183.0704     28.0130   6.6307656220e+01   3.6111917407e+01    0.5843042    0.2617156 -50.41  0.002530411    2.468    0.595
       312  -9.9284    178.3978     27.0297   6.6719978696e+01   3.7350124182e+01    0.4185777     0.134669  55.89  0.001616245    2.671    0.626
       313 -11.0355    171.4906     30.9693   6.8779341923e+01   3.8540009113e+01    0.3321517    0.2312118  79.53 0.0008376389    1.394    0.283
       314  -9.6472    166.9008     30.0000   6.9243698378e+01   3.9761208272e+01    0.3135991    0.1400435  60.43  0.000986979    1.932    0.482
       315 -11.1446    108.7971     30.0362   8.0958256684e+01   5.3078703270e+01    0.3993084    0.2915513  75.15  0.001776724    1.801    0.445
       316 -10.5432    104.2549     29.0055   8.1760812159e+01   5.4142862441e+01     0.270132     0.203727 -21.46  0.001211338    1.421    0.296
       317 -10.0338     34.9203    150.9037   1.3423553328e+02   4.0208650201e+01    0.2127581     0.138105  74.13  0.001128418    1.720    0.419
       318 -10.7948    153.1312     28.1524   7.1035893136e+01   4.3270959439e+01    0.3580686    0.2305774 -19.89  0.001010926    1.933    0.483
       319  -9.8226     15.5918     21.2793   1.1024201782e+02   6.8440238934e+01     0.151286    0.1014877 -23.77 0.0002458433    1.153    0.132
       320 -10.7532     11.7177     25.8229   1.1369187903e+02   6.8090522042e+01    0.4890063    0.2199529 -17.03  0.002438714    2.726    0.633
       321 -11.1771      5.0668     26.7334   1.1701229505e+02   6.8434381168e+01    0.3880848    0.2080746   8.62  0.002505305    1.919    0.479
       322  -9.6348     40.6506     27.4949   1.0201867474e+02   6.4947899941e+01    0.2732697   0.09923649 -36.17  0.001300166    2.545    0.607
       323 -10.4777     40.7844     21.4778   9.9580828052e+01   6.5732349297e+01    0.2591085    0.1435014 -32.89 0.0007962895    1.703    0.413
       324 -11.8851    236.3497    135.1110   8.3321142334e+01   6.2172706638e+00    0.4205627    0.3613036  25.19  0.002155237    1.359    0.264
       325 -11.3292    248.1027    144.8914   8.3477990322e+01   2.1899000703e+00    0.3104818     0.273569  30.61  0.001592552    1.281    0.220
       326 -10.2511     55.1530     17.6136   9.2537222371e+01   6.4222703051e+01    0.2565059    0.1721397  -1.03 0.0008467748    1.415    0.293
       327 -10.2712     36.6214     26.9540   1.0343108735e+02   6.5503992951e+01    0.1823535    0.1298184   2.97 0.0004579852    1.228    0.186
       328 -10.0796    159.5499     24.1567   6.8832629220e+01   4.2196013870e+01    0.4831619    0.2768119 -86.72  0.002140286    2.425    0.588
       329 -11.8895    246.1082    140.6193   8.2897820043e+01   3.3314078075e+00    0.3814602    0.3114318  55.35  0.001701083    1.408    0.290
       330 -12.2112    242.1734    147.5732   8.5025283560e+01   2.8004436382e+00    0.4814607    0.3785765 -57.03  0.002442203    1.357    0.263
       331 -10.6759     50.6276     25.1352   9.7224798706e+01   6.3958929985e+01    0.4230078    0.1531374  32.46  0.001624878    2.796    0.642
       332 -12.6441    235.8044    144.4388   8.5435753219e+01   4.5872775510e+00    0.7305705    0.4734116 -66.49  0.003257043    2.220    0.550
       333  -9.6790    201.2479     25.2686   6.3285607803e+01   3.2120902693e+01    0.1794139    0.1293781 -70.11 0.0007700849    1.326    0.246
       334 -10.4645    168.4993     24.0572   6.7403421018e+01   4.0067870302e+01     0.509357    0.2210598  53.02  0.002252168    2.092    0.522
       335 -11.3879     98.1266     22.0357   8.0917786964e+01   5.6165983549e+01    0.2774751    0.2210462  36.71 0.0008270736    1.078    0.072
       336 -10.7691     39.1828    146.8158   1.3255572506e+02   4.0742089455e+01    0.2846354    0.2362663 -58.65  0.001152104    1.149    0.130
       337  -9.5703    247.3847     17.1784   5.6964926314e+01   2.2787336831e+01    0.2400455    0.1052116 -39.80 0.0008511505    2.169    0.539
       338  -9.1329    247.6827     13.6928   5.6275981392e+01   2.3144809185e+01    0.1695717    0.1124315 -41.31  0.000600078    1.577    0.366
       339 -10.2222     38.4804    143.4854   1.3224123661e+02   4.1615552717e+01     0.218762    0.1977563 -62.50 0.0006728567    1.130    0.115
       340 -10.7552    244.4434     20.8256   5.7919278743e+01   2.2959917048e+01     0.310949    0.2106183 -81.06 0.0009076704    1.251    0.201
       341 -10.2354    240.5511     19.7608   5.8050255257e+01   2.3921762192e+01    0.2570419    0.1480027 -55.29 0.0006860619    1.518    0.341
       342  -9.1446    228.4297     21.5431   5.9531141512e+01   2.6349497924e+01    0.1232544    0.1038682 -86.17  8.02665e-05    1.095    0.087
       343 -10.0344      5.0917    147.1676   1.4115271124e+02   4.3695484780e+01     0.190658    0.1320157 -57.82  0.001221027    1.323    0.244
       344 -10.9443      7.2136    143.2675   1.4020100274e+02   4.4439698577e+01    0.3886907    0.1831628  47.17   0.00203006    2.431    0.589
       345  -9.5722    221.3367    142.2702   8.7522101957e+01   7.8710114495e+00     0.142927    0.1139174   5.58 0.0002586452    1.598    0.374
       346 -11.4424    212.3143    138.3994   8.8328214623e+01   1.0500821685e+01     0.522225    0.4169747  -1.27  0.002026363    1.611    0.379
       347 -10.6297      3.7098    135.2536   1.4014349054e+02   4.6529260160e+01     0.274313    0.2195832  81.68   0.00138737    1.248    0.199
       348  -9.7836      9.0026    134.9613   1.3875522899e+02   4.6227452948e+01     0.201439    0.1767649  13.53 0.0007167918    1.495    0.331
       349 -11.0628     15.0196    132.2873   1.3683481236e+02   4.6397196936e+01    0.3377093    0.2491668 -45.00  0.001355395    1.396    0.283
       350  -9.7313    187.5188     14.4949   6.2392248459e+01   3.6585260420e+01    0.2385875    0.1387646  75.53 0.0006708576    1.514    0.339
       351 -11.2960     12.0095    130.0195   1.3732729017e+02   4.7149384890e+01    0.3802414    0.2194683 -46.96  0.001806048    1.675    0.403
       352 -11.3547    249.2672    132.7545   8.0724461120e+01   4.1601442626e+00    0.2737082    0.2639022  43.64   0.00171094    1.183    0.155
       353 -11.4525    242.0465    129.7478   8.1223735141e+01   6.0897396847e+00    0.3147689    0.2517277  29.55  0.001719037    1.526    0.345
       354 -11.7729    226.0462    126.8793   8.3251736410e+01   9.8524578364e+00    0.5192116    0.4084831 -13.19  0.001643083    1.588    0.370
       355  -9.8101     72.5901    129.1777   1.2026539883e+02   4.0821213301e+01    0.2031373    0.1197744 -47.91 0.0006903603    1.593    0.372
       356 -11.7190     25.2887    128.3002   1.3348072323e+02   4.6484205060e+01    0.5037256    0.2463951  22.61  0.002501688    2.586    0.613
       357  -9.5881    232.5440     18.0389   5.8424349787e+01   2.5866929968e+01       0.1718    0.1078748 -45.97 0.0005704148    1.526    0.345
       358 -10.7644     56.2147    126.9854   1.2451186514e+02   4.3546389372e+01    0.4446681    0.2530786 -31.14  0.001354886    2.428    0.588
       359 -11.0981     12.9579    124.9758   1.3637572035e+02   4.8242532494e+01    0.1949117    0.1522117 -66.42 0.0007169337    1.015    0.015
       360  -9.5928    207.6908    127.3304   8.6662361954e+01   1.3686826372e+01    0.1550344    0.1158509 -74.75 0.0004344409    1.666    0.400
       361 -10.8374    246.9473    121.9941   7.8786721270e+01   6.5419446227e+00    0.2204837    0.1885153 -47.00 0.0009620998    1.026    0.026
       362  -9.1579    205.6667    122.6924   8.5961219006e+01   1.5050111853e+01    0.1500853    0.1210004   6.25  0.000336573    1.669    0.401
       363  -9.9349     92.4520     15.7471   8.0153355215e+01   5.7937185568e+01    0.2104597    0.1464101  47.01 0.0003295666    1.264    0.209
       364  -9.5768    178.5550     14.7490   6.3583745766e+01   3.8681047811e+01    0.1559855    0.1152888 -53.18 0.0004189379    1.419    0.295
       365  -9.9217    242.4680     13.1830   5.6601166588e+01   2.4304290452e+01    0.2481003    0.1405306  72.65  0.001439332    1.600    0.375
       366 -10.0482    238.2784     13.7527   5.7062447361e+01   2.5132222784e+01    0.2066541    0.1501286  68.97  0.001325977    1.398    0.285
       367  -9.8089     17.6221    122.3083   1.3469571802e+02   4.8506338551e+01    0.1253844    0.0848529  71.53 0.0007027742    1.784    0.440
       368 -10.4532     22.9073    107.8975   1.3077606052e+02   5.1382740151e+01    0.4996795    0.2552984   0.27   0.00230352    3.196    0.687
       369 -11.2829     27.8792    101.3682   1.2800746890e+02   5.2434724605e+01    0.4780464    0.2834299  72.50  0.002189628    3.023    0.669
       370 -11.1729     17.7110     81.7224   1.2725522878e+02   5.7475579984e+01    0.2416976    0.1913974 -24.50 0.0007349057    1.253    0.202
       371 -11.9728     10.4967    107.1667   1.3437784036e+02   5.2455337430e+01     0.778738    0.2685844 -42.85  0.003395906    2.859    0.650
       372 -11.7173     18.0418    104.2912   1.3161220946e+02   5.2568505809e+01    0.3430648    0.3157428 -30.38  0.002327764    1.210    0.174
       373 -11.4245     16.4269     98.3331   1.3102974968e+02   5.4005854520e+01    0.4034687    0.2446508 -20.41  0.001326282    2.031    0.508
       374 -11.6206     21.9863     95.8313   1.2878174018e+02   5.4139278107e+01     0.431989    0.2762888 -29.46  0.001986149    1.660    0.398
       375 -12.5467     24.6599     83.1014   1.2518211018e+02   5.6654959125e+01      0.82156    0.4481566 -73.78  0.003986982    2.453    0.592
       376 -11.4949     29.2667     80.6927   1.2303018204e+02   5.6768121027e+01    0.5843043    0.2485754 -59.54  0.002526896    2.184    0.542
       377 -10.3303    217.1035    120.2878   8.3315289805e+01   1.3010976153e+01    0.3316205    0.2112127 -27.04   0.00108352    1.884    0.469
       378  -9.6904     28.0698    120.3549   1.3141836664e+02   4.8092764044e+01    0.2570277    0.1500611 -82.07 0.0007128519    1.917    0.478
       379  -9.4580     20.1800    119.3471   1.3351405417e+02   4.8988159808e+01    0.1818579    0.1295213 -55.42  0.001115136    1.171    0.146
       380 -11.0032    232.8782     99.1685   7.5927536230e+01   1.3521375355e+01    0.4095241    0.2968135 -89.54  0.001834941    1.638    0.390
       381  -9.8574    245.1458     93.1753   7.2844801834e+01   1.1990883196e+01     0.213105    0.1808475 -67.90   0.00048276    1.084    0.078
       382 -11.6287    245.7263     97.5452   7.3705164933e+01   1.1117854159e+01    0.7085242     0.392308  79.96  0.002938202    2.840    0.648
       383 -12.4058    246.7179    108.9766   7.6024049262e+01   8.9130568073e+00    0.6737108    0.4326067 -50.76  0.003438226    1.406    0.289
       384 -11.8233    241.0968    100.1799   7.4934879199e+01   1.1611408599e+01    0.5216762    0.3931593 -82.83  0.001711416    1.497    0.332
       385 -10.2958     13.0202    117.4857   1.3526167042e+02   4.9953495961e+01    0.1526213    0.1239011  16.39 0.0006852217    1.557    0.358
