#   1 NUMBER                 Running object number                                     
#   2 MAG_AUTO               Kron-like elliptical aperture magnitude                    [mag]
#   3 X_IMAGE                Object position along x                                    [pixel]
#   4 Y_IMAGE                Object position along y                                    [pixel]
#   5 X_WORLD                Barycenter position along world x axis                     [deg]
#   6 Y_WORLD                Barycenter position along world y axis                     [deg]
#   7 A_WORLD                Profile RMS along major axis (world units)                 [deg]
#   8 B_WORLD                Profile RMS along minor axis (world units)                 [deg]
#   9 THETA_WORLD            Position angle (CCW/world-x)                               [deg]
#  10 FWHM_WORLD             FWHM assuming a gaussian core                              [deg]
#  11 ELONGATION             A_IMAGE/B_IMAGE                                           
#  12 ELLIPTICITY            1 - B_IMAGE/A_IMAGE                                       
         1 -12.6733    245.7962     61.2570   3.7989252159e+01   1.8150295638e+01     2.376978    0.6939675 -41.14  0.009866616    2.709    0.631
         2 -13.7589    239.9482     16.3493   2.9626595053e+01   2.5112487107e+01     2.416743      1.54226 -59.62    0.0159171    1.256    0.204
         3 -12.0047    218.6077     26.7560   3.3453526643e+01   2.8233820969e+01     1.105265    0.5773757 -40.86   0.00470356    1.763    0.433
         4 -11.0901    146.4837     16.5105   3.9371172473e+01   4.5806964172e+01    0.5734643    0.3924669 -26.00  0.003139358    1.699    0.411
         5 -10.1301     92.7710     15.2675   4.9567299984e+01   5.8268605527e+01     0.531171    0.3737653   8.04  0.003048203    1.617    0.382
         6  -9.8523    139.2522     14.9752   4.0037001974e+01   4.7666769053e+01    0.2896804    0.2179116 -33.12  0.001730733    1.499    0.333
         7  -9.2949    114.0041     13.5407   4.4100908198e+01   5.3693597716e+01    0.3050631    0.2100681  68.83  0.001725756    1.373    0.272
         8  -8.9748    133.5215     11.0277   3.9755053838e+01   4.9383752594e+01    0.2745417    0.1371319 -74.72  0.001045233    3.656    0.726
         9  -9.8299     80.6473      8.9189   5.0289936694e+01   6.1413525757e+01    0.3036004    0.2491481  51.03  0.001978828    1.157    0.136
        10  -9.5857     75.1934      9.4060   5.2067986860e+01   6.2481616322e+01     0.266431    0.2162975 -44.34  0.001552774    1.621    0.383
        11  -9.8349    184.4905      5.9534   3.1991487447e+01   3.7987327176e+01    0.4840851     0.257782 -53.55  0.002618119    1.834    0.455
        12  -8.5724    183.4903      1.4926   3.1032964917e+01   3.8631486220e+01    0.2096642   0.09847117  88.31 0.0008853899    2.115    0.527
        13  -8.3507    161.4018      8.6912   3.5176889355e+01   4.3043488778e+01     0.210989    0.1092239 -36.55 0.0007612606    2.035    0.509
        14  -9.0466    100.9344      6.4272   4.4314407063e+01   5.7261251068e+01    0.2277318    0.1683918 -45.09  0.001371141    1.661    0.398
        15  -7.8442     33.3022      7.6661   6.7236155983e+01   6.9992168833e+01   0.09705874   0.09476034 -11.60 0.0004132105    1.658    0.397
        16  -8.5401    130.3168      5.6455   3.8602224000e+01   5.0599374757e+01    0.1292564   0.08790742 -69.26 0.0004919575    1.744    0.427
        17  -9.7621     47.3345      2.6092   5.8551373416e+01   6.8292568424e+01    0.3911031    0.2579852  60.03  0.002261337    2.152    0.535
        18  -8.3713    203.5266      1.9987   2.9436202207e+01   3.4160420527e+01    0.1635407    0.1082662 -38.36  0.001029059    1.583    0.368
        19  -9.0941    146.5240      2.0652   3.5222887434e+01   4.7103536573e+01     0.450317    0.1633061  81.06  0.001679284    3.412    0.707
        20  -8.2363    117.3138      1.6547   3.9467757922e+01   5.3927284474e+01    0.1242411   0.08863692 -70.35 0.0007047177    1.713    0.416
        21 -11.1419    228.2621    181.6858   6.5490577249e+01   8.5080800939e-01     1.120603    0.8273104  89.45  0.005040822    3.386    0.705
        22 -10.6487    233.6193    246.9155   7.6303159660e+01  -1.0069180730e+01    0.3744402     0.188462 -16.59  0.001953022    2.161    0.537
        23 -11.1080    224.5712    239.9342   7.6800229829e+01  -7.9871553533e+00     1.084534    0.5208736 -40.37   0.00569935    2.159    0.537
        24  -8.5149    222.4570    234.4802   7.6274616923e+01  -6.9191816004e+00    0.2423184    0.1783146 -13.35 0.0009584413    1.149    0.130
        25 -11.1181    187.8858    232.0228   8.2622089013e+01  -1.7624231680e+00     1.568774     1.103681 -73.96  0.007234909    3.313    0.698
        26  -9.8949    186.1010    242.3448   8.4662302425e+01  -3.1906162077e+00    0.3739112     0.297929 -22.75  0.001538236    1.251    0.201
        27 -11.5604    133.7206    249.2312   9.6610735357e+01   3.3032291008e+00    0.8270591    0.4470064 -59.09  0.004130465    2.365    0.577
        28 -11.0400    131.2648    243.2838   9.6343121653e+01   4.7448481526e+00    0.5154578    0.3100688 -59.64  0.002674764    2.052    0.513
        29  -8.9269    176.0966    197.2990   7.8948776469e+01   6.4082924326e+00      0.24706    0.1805325 -30.73 0.0006283892    1.352    0.260
        30  -8.2278    171.2503    197.2445   8.0001438801e+01   7.2401276840e+00    0.1867771    0.1744424  72.62   0.00106058    1.360    0.265
        31 -10.5323    190.7499    242.8939   8.3813888882e+01  -3.9315835954e+00    0.6390764    0.4785717 -65.24  0.003554665    2.382    0.580
        32 -11.6198    211.8017    171.2537   6.6430158250e+01   5.3706403073e+00     1.061751    0.6036385 -57.15  0.004461639    2.564    0.610
        33 -10.5007    205.0699    163.4858   6.6105983469e+01   8.0055513033e+00    0.4978015    0.3211586 -16.10  0.002269635    1.928    0.481
        34 -11.1834    238.4938    165.1486   6.0430336598e+01   2.1588125988e+00    0.5638823    0.3595444 -32.86  0.002772659    1.333    0.250
        35 -12.7980    234.2493    148.4524   5.7726747994e+01   5.7773308704e+00     1.946226     1.034312 -57.00  0.008167148    2.703    0.630
        36 -11.1547    192.6122    159.8131   6.7805260830e+01   1.0983237774e+01    0.5623008    0.3888675  28.72  0.002601667    1.592    0.372
        37  -8.2024     23.4905    157.9926   1.1182385801e+02   3.8923722409e+01    0.1936876   0.08178088 -50.69 0.0008067603    2.337    0.572
        38  -8.4797    141.7629    157.4101   7.8867340755e+01   2.1300793383e+01    0.2116326    0.1496005  26.51 0.0003027389    1.558    0.358
        39  -9.4365    152.3424    150.6531   7.4755326660e+01   2.0761210107e+01    0.4993495    0.2497575 -36.16  0.001835229    2.233    0.552
        40  -8.3751    128.8341    151.7716   8.0951288701e+01   2.5131707431e+01      0.21786    0.1897616 -89.58  0.000828666    1.347    0.257
        41  -8.4222     59.0114    146.4896   9.9878323191e+01   3.8032914434e+01    0.2498791      0.18613 -63.95  0.001263312    1.238    0.192
        42  -9.7450    192.6871    139.9785   6.3393943783e+01   1.4961251663e+01     0.550808    0.3646398  66.98  0.002385029    2.242    0.554
        43 -10.4009    216.5121    139.0037   5.8721340473e+01   1.0608093824e+01    0.5124334    0.3436558 -73.70  0.002235652    2.560    0.609
        44 -10.3551    216.0000    135.0267   5.7941024118e+01   1.1447938159e+01    0.4374327    0.3212158 -39.85  0.001968828    1.201    0.168
        45 -12.5398    244.8218    125.0827   5.1257433067e+01   8.0915397323e+00     2.000925    0.7443921 -45.05  0.008306641    2.308    0.567
        46 -11.3202    224.0766    112.9028   5.1742202522e+01   1.3967939310e+01     1.057992    0.7505757 -71.55  0.005400123    1.788    0.441
        47  -9.6233    218.3883    126.4811   5.5652134224e+01   1.2588967788e+01    0.3440455    0.2660556 -47.34  0.001884946    1.181    0.154
        48  -9.8237    166.3008    136.7792   6.8258867574e+01   2.0980436150e+01    0.7027346    0.3323842 -54.26  0.002474336    2.535    0.606
        49  -8.2875    154.4907    124.0428   6.7897301379e+01   2.6232811961e+01    0.2515901    0.1508875 -42.76  0.001040432    1.617    0.382
        50  -9.3499    171.4609    116.8918   6.2285699936e+01   2.4067791916e+01    0.5642328    0.2700466 -42.91   0.00217487    1.990    0.497
        51  -8.7516     25.3100    118.0299   1.0571078118e+02   4.8962526864e+01    0.3462753    0.1699098  42.67  0.001544225    2.405    0.584
        52 -10.5649    196.9429    107.7088   5.5053921763e+01   2.0387154447e+01      1.11491    0.4410387 -50.38    0.0039191    2.772    0.639
        53  -9.6739    197.4149     95.5843   5.2067962620e+01   2.2509884436e+01    0.6845219    0.2689703 -46.05  0.002569637    2.405    0.584
        54 -10.0980    121.8835    109.0231   7.2358727932e+01   3.6516043316e+01    0.6428573    0.4050606 -49.47   0.00211098    1.600    0.375
        55  -9.4447    160.5193    108.3551   6.2509536679e+01   2.8218493711e+01    0.4199829    0.3615588 -76.04  0.001667897    1.304    0.233
        56  -9.2979     97.0773    109.6607   7.9836236932e+01   4.1293994477e+01    0.3069258    0.2813084  57.96 0.0005338653    1.200    0.166
        57  -7.6845    105.3328    108.6693   7.7047554808e+01   3.9950654293e+01    0.1587107    0.1258709  84.68 0.0004917659    1.724    0.420
        58  -8.3021    112.9503    139.2657   8.2457052472e+01   3.1194099268e+01    0.2203407    0.2112514  19.53   0.00113636    1.071    0.066
        59  -9.0382    139.7866    102.5062   6.5855646363e+01   3.4046548417e+01    0.3750908    0.1860912 -45.48   0.00142671    2.003    0.501
        60 -10.6868    234.3382     44.8205   3.5762985305e+01   2.2684578765e+01    0.7219052    0.6207702  18.74  0.004668189    1.840    0.457
        61 -11.9232    239.0851     94.5035   4.5643717092e+01   1.4274759459e+01     1.593946    0.9135646 -58.19  0.007965405    1.822    0.451
        62 -10.5770    243.5850    246.9584   7.4540702139e+01  -1.1228456674e+01    0.3610281    0.2059986 -16.62  0.002126125    1.567    0.362
        63 -10.2719    122.5474     98.4018   6.9236016552e+01   3.8679040516e+01    0.6873611    0.5745695  27.50  0.003416568    1.263    0.209
        64 -11.0326    215.3503     95.4308   4.9161573444e+01   1.8764957405e+01    0.9387806     0.379747 -40.12   0.00348706    2.200    0.545
        65  -9.5750     57.4276    100.0327   9.0640957475e+01   4.9953019386e+01    0.4503244     0.259591 -60.47    0.0016318    1.776    0.437
        66  -9.3707    106.1222     98.5264   7.3998074329e+01   4.2066275907e+01    0.5270633    0.3554723 -13.48  0.002154706    2.137    0.532
        67  -9.0440    211.7966     82.9135   4.6818093742e+01   2.1625670436e+01    0.3764763    0.2087966 -58.11  0.001361728    1.964    0.491
        68  -9.2307     83.9810     83.4432   7.6603711065e+01   4.9518653136e+01    0.2458929    0.1870183 -41.01 0.0009779951    1.280    0.219
        69  -9.9997    152.9678     78.7163   5.6165450693e+01   3.5630835911e+01    0.8122625    0.3472663 -52.42  0.002753173    3.042    0.671
        70  -9.9024    147.4226     70.2459   5.4948758955e+01   3.8398362176e+01    0.4884689      0.37507  66.32  0.002254624    1.345    0.256
        71  -9.6017    181.2944     79.6962   5.0912564702e+01   2.8888821618e+01    0.6095245    0.3782405 -72.57  0.002389105    2.286    0.562
        72 -10.3995    248.3403     84.4000   4.2415799430e+01   1.4186046172e+01    0.5559164    0.3510496 -40.01  0.002336061    1.370    0.270
        73  -9.1096    142.0342     80.9959   5.9265801653e+01   3.7759796960e+01    0.2369461    0.1823469 -76.33 0.0006093151    1.645    0.392
        74 -10.7429    216.2317     72.8412   4.3898595895e+01   2.2321506776e+01    0.8054494     0.358627 -50.69  0.003338564    2.156    0.536
        75  -9.8601    214.8801     64.5342   4.2191567857e+01   2.3891043428e+01    0.4771203    0.2785681 -34.81  0.001809275    1.731    0.422
        76 -11.3801    234.3002     58.4252   3.8596750441e+01   2.0794664736e+01    0.8543728    0.5089769 -73.58   0.00432512    1.865    0.464
        77  -9.7469    105.7786     71.2202   6.5811626780e+01   4.7639032304e+01    0.6946244    0.4508975 -67.78  0.002797212    2.640    0.621
        78  -9.3233     30.9027     66.3760   9.1898888816e+01   6.0595459475e+01    0.4202436    0.2822114   1.46  0.002314479    1.581    0.367
        79  -8.3509     81.9499     66.0196   7.1678423034e+01   5.3329108288e+01    0.2159206    0.1819979  87.56 0.0008217011    1.754    0.430
        80 -10.3223    200.7475     60.6123   4.3145156781e+01   2.7555475835e+01    0.7446246    0.3270484 -45.98  0.003234498    2.107    0.525
        81  -7.9679     47.4748     64.9793   8.4428194990e+01   5.8985834710e+01    0.2042538    0.1230405 -46.05  0.001020706    1.558    0.358
        82  -8.0761     66.5832     59.8315   7.5082079780e+01   5.7155094015e+01    0.1880734    0.1294054 -49.41  0.000636745    1.651    0.394
        83  -8.2750    147.9991     56.6677   5.0878745025e+01   4.0434908272e+01    0.3066121    0.1315648 -44.84  0.001185592    2.478    0.596
        84  -8.6071    108.5161     55.1268   5.9725407645e+01   4.9785812215e+01    0.2706159    0.2308207 -87.34  0.001456507    1.500    0.333
        85  -8.5716      9.3373     55.3144   9.8458150209e+01   6.4657590409e+01    0.1356384   0.07102992 -31.31 0.0002471109    1.695    0.410
        86  -8.1042    119.0119     53.2148   5.6328552766e+01   4.7733750368e+01    0.1992587    0.1094332  52.63 0.0008747603    1.713    0.416
        87  -8.6722    250.5133    243.9981   7.2851790404e+01  -1.1613294047e+01    0.1675685   0.09362786 -30.78  0.001027012    1.575    0.365
        88 -10.6754    223.4435     44.1316   3.6700402524e+01   2.5003162644e+01    0.6993654    0.5148697 -10.80  0.003914186    2.174    0.540
        89  -9.6099    155.1031    241.9501   9.1040845882e+01   1.4060060354e+00    0.2792025    0.1795874 -34.72 0.0009353198    1.738    0.425
        90  -8.5145    124.2155     52.4042   5.4790843488e+01   4.6662778113e+01    0.2003876    0.1325871  65.95 0.0005823899    1.651    0.394
        91  -9.0568     97.2438     48.3621   6.0605670948e+01   5.3248656272e+01    0.2879393     0.249166 -53.76  0.001637844    1.390    0.280
        92 -10.1244    249.9762     45.1841   3.4411546205e+01   1.9595880563e+01    0.4691223    0.1803093 -41.20  0.001720969    2.126    0.530
        93  -8.9900    250.4838     39.4870   3.3266360544e+01   2.0252313118e+01    0.2536445    0.1401892 -38.42  0.001466328    1.684    0.406
        94  -9.2315    156.9020     43.6701   4.5476220875e+01   4.0162931982e+01    0.3481299    0.2116976 -66.58  0.001213331    2.115    0.527
        95  -8.0792     26.9422     47.4580   8.7574727775e+01   6.4745111167e+01    0.1785411    0.1149742  18.48 0.0005104512    1.559    0.359
        96  -9.8828    200.9665     42.6106   3.8856937414e+01   3.0057518416e+01    0.5746256    0.3058902 -53.39  0.002840807    1.813    0.448
        97  -8.5985     57.0498     45.4886   7.3528322390e+01   6.1179681219e+01    0.2869002    0.1197839  43.27  0.001195734    2.619    0.618
        98  -9.9449    174.8646     42.8247   4.2383440108e+01   3.6017212138e+01    0.4884153    0.2834226  69.29  0.002232786    1.660    0.398
        99  -8.5360     85.5733     42.7920   6.2167750023e+01   5.6467048012e+01    0.1805021    0.1272904 -42.34 0.0009450142    1.619    0.382
       100  -8.3079    103.1820     41.6440   5.6536924795e+01   5.2935596294e+01    0.2098491    0.1116488  43.49 0.0007963336    1.740    0.425
       101  -9.5827    127.3431     39.4242   4.9903126555e+01   4.7739579709e+01    0.3574954    0.3256865  49.60  0.002150887    1.028    0.027
       102  -8.4616    143.8279     38.3997   4.6280160738e+01   4.3970422508e+01    0.2085554    0.1102922  51.00 0.0009497831    1.767    0.434
       103  -8.6572     65.4937     34.1404   6.5725992364e+01   6.1488959263e+01    0.3359855    0.1212849 -36.91  0.001370225    2.879    0.653
       104  -7.9584      7.5137     40.4939   9.4815112362e+01   6.7695391085e+01    0.1209951    0.0944868 -28.00 0.0008103543    1.027    0.026
       105  -9.0188     42.9194     31.6912   7.3955281476e+01   6.5460205363e+01    0.3271819    0.2011108   7.38  0.001743539    1.773    0.436
       106 -10.4565    149.2341    235.7139   9.1371715214e+01   3.4086222611e+00    0.4359541    0.2214113 -27.82  0.001773362    3.076    0.675
       107  -8.7999    127.4838     26.9992   4.5875573656e+01   4.9199384935e+01     0.181815    0.1112563  13.30 0.0008099674    2.538    0.606
       108  -8.1692     93.7842     27.4053   5.3918071188e+01   5.6766502229e+01     0.193352    0.1065354  44.36 0.0009460411    1.595    0.373
       109  -8.5177    184.4344     25.7405   3.6776081746e+01   3.5909793590e+01    0.2223373    0.1144532 -37.94 0.0006683212    1.938    0.484
       110  -8.4317     33.4689     26.0092   7.5887185635e+01   6.7584509483e+01    0.1974342    0.1431973  17.59  0.001199262    1.232    0.189
       111  -9.3734    152.1424     19.8429   3.9482834217e+01   4.4128029886e+01    0.2010074    0.1620154 -77.10 0.0006650266    1.252    0.201
       112  -8.8944    155.6040     18.2145   3.8526421489e+01   4.3476447892e+01     0.161547     0.127713  -8.80 0.0008500824    1.632    0.387
       113  -9.8170    244.1190    236.3465   7.2677104703e+01  -9.8534386147e+00     0.220962    0.1514601 -32.85 0.0008675121    1.454    0.312
       114 -10.8469    141.2453    235.2818   9.3047299679e+01   4.7140990011e+00     0.390191    0.2202566  38.84  0.001940981    1.585    0.369
       115  -8.9929    155.3629     13.6547   3.7295615482e+01   4.3988910063e+01    0.2074172    0.1358575 -70.26  0.001095329    1.674    0.403
       116 -11.2462    134.8732    229.6949   9.3633978130e+01   6.7654129786e+00       0.3538    0.3128827  17.89  0.002152692    1.080    0.074
       117 -10.9443    248.4867    167.0021   5.9170823501e+01   3.3988308282e-01    0.9876647    0.5435071 -26.25  0.004965934    1.781    0.439
       118 -11.6165    246.7615    181.3497   6.2241283467e+01  -1.7990391149e+00     1.325214    0.5625565 -40.91  0.006164357    2.039    0.510
       119 -11.1052    248.8607    220.4291   6.9103344442e+01  -8.1555894977e+00     0.806565    0.3534394 -31.81  0.003632044    1.970    0.492
       120  -9.0570     14.1797     10.3916   7.8673201034e+01   7.2053993614e+01     0.149141   0.09390175  29.34 0.0008810129    1.665    0.399
       121 -12.9574    247.0432    203.7773   6.6414484620e+01  -5.4251127372e+00     2.182084    0.8153894 -38.54  0.009971682    2.311    0.567
       122 -10.3401    185.9634    248.2967   8.5622871135e+01  -4.1091374252e+00    0.5259278    0.4052834   2.08   0.00304332    1.162    0.139
       123 -12.2686    224.9399    218.3262   7.2994887038e+01  -4.7731841536e+00       1.2723    0.8527522 -51.81  0.006932426    2.143    0.533
       124  -7.8673     33.4889    224.5451   1.1565860650e+02   2.1935497295e+01    0.1232169    0.1032633  72.07 9.760242e-05    1.033    0.032
       125  -8.5618     94.9710    222.4934   1.0171237449e+02   1.4366349472e+01    0.2056299    0.1217339  37.64 0.0005776996    1.531    0.347
       126  -9.5399    156.6441    225.5177   8.8171225734e+01   4.1457270803e+00    0.2617812    0.2107103 -24.18  0.000522566    1.300    0.231
       127  -7.8453     18.3076    215.2903   1.1820842367e+02   2.5579805711e+01    0.1104285   0.08913261 -49.65 0.0003331319    1.577    0.366
       128 -10.0548    223.5660    207.8035   7.1338086993e+01  -2.8895912886e+00    0.3765334    0.2664224  -3.17  0.001631404    1.368    0.269
       129 -11.6031    231.4276    189.1897   6.6387009597e+01  -9.1020843227e-01     1.163833     0.355165 -37.77  0.004397404    2.926    0.658
