#   1 NUMBER                 Running object number                                     
#   2 MAG_AUTO               Kron-like elliptical aperture magnitude                    [mag]
#   3 X_IMAGE                Object position along x                                    [pixel]
#   4 Y_IMAGE                Object position along y                                    [pixel]
#   5 X_WORLD                Barycenter position along world x axis                     [deg]
#   6 Y_WORLD                Barycenter position along world y axis                     [deg]
#   7 A_WORLD                Profile RMS along major axis (world units)                 [deg]
#   8 B_WORLD                Profile RMS along minor axis (world units)                 [deg]
#   9 THETA_WORLD            Position angle (CCW/world-x)                               [deg]
#  10 FWHM_WORLD             FWHM assuming a gaussian core                              [deg]
#  11 ELONGATION             A_IMAGE/B_IMAGE                                           
#  12 ELLIPTICITY            1 - B_IMAGE/A_IMAGE                                       
         1  -9.0198     45.9796     21.4761   8.9431041601e+01   6.6993972892e+01    0.4098029    0.1666303 -41.55  0.001474458    2.140    0.533
         2 -11.4701     80.4247     23.3931   7.6696936254e+01   6.1096779606e+01     0.600048    0.2979214  34.16 0.0005757933    2.281    0.562
         3  -9.4430     26.6124     21.3419   9.8536026342e+01   6.9236077494e+01    0.6739104    0.2393609 -43.99  0.003129167    2.245    0.554
         4  -9.0317    144.6420     23.3938   5.9846812223e+01   4.6293946041e+01    0.2754961    0.2285913  31.96 0.0002816501    1.223    0.182
         5  -9.5655     20.1833      8.8843   9.6334857494e+01   7.2074192778e+01     0.342847    0.1988695 -17.23  0.001966763    1.905    0.475
         6  -8.5478     15.4587     15.5053   1.0187873188e+02   7.1295662510e+01    0.2486546    0.1580346 -55.71 0.0009040497    1.478    0.323
         7  -9.9688     77.2755     13.1992   7.3006681648e+01   6.3139731160e+01    0.7048694    0.2544499  46.05  0.002711918    2.695    0.629
         8  -9.4578     64.4607     14.0700   7.8127102070e+01   6.5351461854e+01    0.3693304    0.2239139  23.89  0.001093023    1.858    0.462
         9  -9.8507    133.6132     13.5484   5.8264322353e+01   5.0264988035e+01    0.4155519    0.2385446  62.45 0.0001363066    1.672    0.402
        10  -9.3665    107.0812     12.5314   6.3826819580e+01   5.6865997112e+01    0.5291094    0.2715645  23.87  0.002063287    2.695    0.629
        11  -8.6447     96.8956     12.3115   6.6461594053e+01   5.9195411996e+01    0.3403055    0.1824047  28.86  0.001073977    2.194    0.544
        12  -9.2434     31.6128     10.8623   9.1247014158e+01   7.0554632190e+01    0.4145756    0.2457602   9.35  0.001622015    2.091    0.522
        13  -9.0356     31.8056      6.2623   8.8787076418e+01   7.1274841357e+01    0.2893518    0.1805553   7.76 0.0004022893    1.857    0.461
        14  -9.3885    125.2117     10.4525   5.8738292987e+01   5.2716686486e+01    0.3037547    0.2047739  38.41 0.0004525812    1.448    0.310
        15  -7.6593    142.6299      9.7860   5.5119480073e+01   4.8327693574e+01    0.1940799    0.1288849 -33.68 0.0003461833    1.564    0.361
        16  -8.8441     71.6159      8.9107   7.2861388513e+01   6.4770217898e+01    0.2225814    0.1856237  43.63 0.0005397461    1.305    0.234
        17  -8.3775    131.3120      4.8513   5.5253114641e+01   5.1731311600e+01    0.3101668      0.12163 -29.48  0.001203939    2.507    0.601
        18  -7.8366    134.2130      3.3729   5.4131593120e+01   5.1124554832e+01    0.1876048    0.1312653  77.82 0.0001062117    1.523    0.344
        19  -9.8320    119.2676      6.9257   5.8533830957e+01   5.4551060287e+01    0.2645524    0.2284044  20.85 0.0002057555    1.120    0.107
        20  -8.8023     41.1418      5.9994   8.4002057285e+01   7.0121893708e+01    0.3306363    0.1747673 -21.68  0.001278212    1.986    0.496
        21  -9.5744     46.7924      6.1478   8.1448373347e+01   6.9298169452e+01    0.3205541    0.2134039  12.51 0.0004134555    1.607    0.378
        22  -7.9257    156.1285      7.1063   5.1923396265e+01   4.5027358594e+01    0.2272697    0.1785851  38.94 0.0004750034    1.283    0.221
        23  -8.6611     77.2714      6.8343   6.9850287574e+01   6.3942084911e+01    0.2499575    0.1312401  39.78  0.001116007    1.847    0.459
        24  -9.8668      8.2542      5.2932   1.0147524266e+02   7.3689263118e+01     0.420755    0.2160281  -2.38  0.001235232    2.557    0.609
        25  -6.8992    161.2825      6.6645   5.1006455473e+01   4.3694764047e+01    0.1489878    0.1030003 -57.97 0.0003791617    1.619    0.382
        26  -8.1683    100.2336      6.2776   6.2771772754e+01   5.9125527987e+01     0.185269    0.1625293 -54.33 0.0004780791    1.389    0.280
        27  -8.8469     92.6726      5.3647   6.4392319299e+01   6.0906762512e+01    0.3793969    0.1791879  49.10  0.001710348    1.940    0.485
        28  -9.6374     84.9215      5.4901   6.6728327260e+01   6.2547394021e+01    0.2550618    0.2199376 -12.84  0.001555546    1.132    0.116
        29  -9.5318    110.9661      3.6187   5.8942954766e+01   5.6889441895e+01    0.4099705    0.2510633 -39.28  0.001985916    1.817    0.450
        30  -8.1871    125.7581      3.9008   5.5931827364e+01   5.3228187788e+01    0.2183375    0.1731102  29.83 0.0005540219    1.234    0.190
        31  -8.5360     57.8036      3.1043   7.5052889157e+01   6.7965207623e+01    0.3083292    0.1851182  20.97  0.001623462    1.827    0.453
        32  -8.3729    143.1526      2.2997   5.2189493626e+01   4.8899266609e+01    0.2229168    0.1869356  16.77 0.0002880478    1.253    0.202
        33  -8.3162    153.0862      3.4666   5.1073363774e+01   4.6174421769e+01    0.2245147    0.1303276  65.11   0.00102168    1.578    0.366
        34  -8.2591    180.8940      1.8882   4.6892720968e+01   3.8889889983e+01    0.2248342    0.1760046  48.18 0.0006965212    1.294    0.227
        35  -7.9449    172.3342      1.6871   4.7843453527e+01   4.1194677245e+01    0.1906644    0.1498113  39.50  0.001006255    1.331    0.249
        36  -8.5343    105.2771      2.0900   5.9583523926e+01   5.8382341690e+01     0.256451    0.1657631  46.37  0.001310123    1.405    0.288
        37  -6.9805    159.6961      1.2643   4.9341498016e+01   4.4610736798e+01    0.1413651    0.1031507 -66.20 0.0001919169    1.524    0.344
        38  -7.5627      2.8188      1.3719   1.0296601591e+02   7.4752464880e+01     0.141496   0.08851435  -9.38 0.0005370948    1.685    0.407
        39  -7.6543    124.2709    106.9936   9.1541832613e+01   3.6404447541e+01    0.2536516    0.1610329  10.55 0.0008843609    3.385    0.705
        40  -9.6560    241.5294    248.7416   9.4582342395e+01  -6.3817589137e+00    0.2460661    0.1637015  42.61 0.0008758997    1.593    0.372
        41 -10.1168    220.5622    250.3368   9.8057209947e+01  -3.6046689305e+00    0.4043602    0.1015826  41.11  0.001838909    2.953    0.661
        42 -11.4438    190.7963    249.2572   1.0269907185e+02   8.3512181429e-01     1.071865     0.170873  39.35  0.003560183    5.176    0.807
        43  -7.9193    109.4011    106.6899   9.5367967434e+01   3.9386577222e+01     0.242781    0.1812576  19.82  0.001162472    1.759    0.432
        44  -9.6737     15.0070    104.8687   1.2211252961e+02   5.2079226922e+01    0.3468459    0.1831549 -39.92  0.001840244    2.475    0.596
        45  -8.1162     67.8390    104.4244   1.0658412802e+02   4.6691802227e+01    0.2894435     0.139352  23.73  0.001150678    3.187    0.686
        46  -8.0429    219.5018     99.1046   6.9387773617e+01   1.6243215040e+01    0.2070942    0.1868591  38.62 0.0002917444    1.127    0.113
        47 -10.1110     12.6359     93.8659   1.2147141430e+02   5.4727588604e+01    0.4679215    0.2941875  16.94  0.002828841    2.102    0.524
        48  -8.7006    243.2444     97.4042   6.5292808879e+01   1.1308572642e+01    0.1814822    0.1372702  69.42 0.0004832153    1.655    0.396
        49  -7.4410     83.6093     93.6937   9.9524704330e+01   4.6776615365e+01    0.1431725    0.1088921 -16.05 0.0001354955    1.815    0.449
        50  -8.5612     43.8047     92.0533   1.1147811173e+02   5.2455853938e+01     0.313944    0.2173455 -26.05  0.001719901    1.955    0.489
        51  -8.1928    110.2094     90.8510   9.1097263480e+01   4.2636478608e+01    0.3626674    0.1975374  28.03  0.001361423    2.719    0.632
        52  -8.1974     96.6641     90.2985   9.4806862684e+01   4.5303809935e+01    0.3056214    0.2114736   1.34   0.00129764    2.501    0.600
        53  -9.0061     23.2852     89.8613   1.1760065593e+02   5.4854248542e+01    0.2202833    0.1368402 -32.61  0.001230728    2.078    0.519
        54  -8.8934      1.8122     89.2099   1.2421517793e+02   5.6434815980e+01    0.2871014     0.118282 -61.41  0.001540617    1.878    0.468
        55  -7.8729    236.6547     88.6690   6.4103519361e+01   1.3954094985e+01    0.1492376    0.1039745  16.78 0.0007050195    1.758    0.431
        56  -7.5072    139.3359     87.3487   8.2464470017e+01   3.7151892588e+01    0.1606047    0.1217879   7.51 0.0007047395    1.781    0.438
        57 -10.1874     37.2804     81.2877   1.1150398405e+02   5.5577615398e+01     0.680786    0.3639628 -27.17  0.003033817    3.056    0.673
        58  -7.9204    126.2570     84.1607   8.4865168617e+01   4.0693838960e+01     0.250858    0.1664392   6.39 0.0008743937    2.739    0.635
        59  -7.9489     65.9920     84.3008   1.0269791567e+02   5.1521588513e+01    0.1774535    0.1744594 -39.08 0.0005680061    1.117    0.104
        60  -8.6594     88.5500     78.7429   9.4078444584e+01   4.9236864952e+01    0.4694569    0.2693007  18.85  0.001787257    3.111    0.679
        61  -9.7347      8.1067     77.6052   1.2070454716e+02   5.8672996459e+01    0.4101545    0.2466228 -32.65  0.001735834    2.031    0.508
        62  -7.9186    184.4555     77.9343   6.9901620288e+01   2.7961736764e+01    0.2300844    0.1492896 -32.06 0.0004309164    1.535    0.348
        63  -9.0397     50.9551     76.4953   1.0580156503e+02   5.5198353740e+01     0.444167    0.2400081  16.28   0.00201191    2.799    0.643
        64  -7.7686    120.5135     76.1677   8.4006605097e+01   4.3530124860e+01    0.2821558    0.1711839  27.62  0.001122927    2.256    0.557
        65  -8.0341    106.7751     76.1557   8.7852441102e+01   4.6384696434e+01    0.4344957    0.1628535  36.00   0.00136076    3.665    0.727
        66 -10.5571     24.7964     71.4561   1.1386087467e+02   5.8903397050e+01    0.6711857    0.3837583 -42.73  0.003742413    1.742    0.426
        67  -8.2064     74.9427     74.2855   9.7152374789e+01   5.2429569826e+01    0.1812578    0.1762542   3.29 0.0003082196    1.116    0.104
        68  -8.2817     48.2660     71.4088   1.0549321580e+02   5.6646794920e+01    0.2131192    0.1309609  23.10 0.0009004215    2.008    0.502
        69  -7.6998    129.9719     69.0333   7.9266446177e+01   4.2797227359e+01    0.2466676    0.1866218   9.97 0.0009170391    1.715    0.417
        70  -7.7037    116.1876     68.9376   8.2924644090e+01   4.5876714963e+01    0.2486697    0.1743382 -11.11  0.001078686    1.969    0.492
        71  -7.6736     59.0685     68.0712   1.0080333288e+02   5.6055583595e+01    0.1820372    0.1497597 -39.25            0    1.160    0.138
        72  -8.9965     83.3959     64.4608   9.1418081598e+01   5.3132873433e+01    0.4750202     0.292852 -17.91  0.001955548    2.612    0.617
        73  -8.1881     11.4769     60.9766   1.1671594732e+02   6.2173149373e+01    0.2451622    0.1510937  72.51  0.001386258    2.108    0.526
        74  -8.4817     15.9032     64.2826   1.1569056698e+02   6.1158021256e+01    0.2264382      0.19559 -41.73 0.0009967797    1.215    0.177
        75  -8.9274     19.7010     60.9394   1.1357159080e+02   6.1632756436e+01    0.1985274    0.1817168 -14.98 0.0004556043    1.290    0.225
        76  -7.9501    121.3727     61.8705   7.9181486346e+01   4.6074157534e+01    0.4934734    0.2121226  35.27  0.001575723    3.388    0.705
        77  -9.5056     62.5513     61.1488   9.7544613466e+01   5.7071121767e+01    0.6131479    0.3035446  23.60  0.002569783    2.891    0.654
        78  -9.8525     36.9633     59.1982   1.0652169287e+02   6.0540120325e+01    0.4842839    0.2916772 -15.39  0.001986032    2.464    0.594
        79  -9.1123     26.0118     60.7448   1.1111127331e+02   6.1189083891e+01     0.280278    0.2031804  -6.71  0.001730321    1.753    0.430
        80  -8.2201     95.9869     59.7309   8.5824921623e+01   5.1787422513e+01    0.2961437     0.175143 -19.13  0.001155796    2.610    0.617
        81  -7.9708    111.6167     58.2706   8.0659637600e+01   4.8878592056e+01    0.2563557    0.1730632  27.88 0.0008058093    1.774    0.436
        82  -7.8983     99.4222     55.7572   8.3390346165e+01   5.1874731802e+01    0.2037362    0.1333981 -29.02 0.0005975062    1.608    0.378
        83 -10.2174     74.5888     50.1566   8.9590457620e+01   5.7480329056e+01     0.591804    0.3877665 -35.99 0.0004743525    1.442    0.307
        84  -9.2365     45.1883     49.0899   1.0034585672e+02   6.1813732089e+01    0.4189961    0.2084236 -34.34  0.001425448    2.264    0.558
        85  -8.1186    216.9439     51.0096   5.6963673445e+01   2.3838842097e+01    0.2165474     0.214855 -30.70 0.0005552255    1.041    0.039
        86  -8.5470    118.7687     51.0638   7.6133796472e+01   4.8586111969e+01    0.2971483    0.2011261  45.24 0.0008191571    1.483    0.326
        87  -8.9001    106.4144     48.8137   7.8793394043e+01   5.1695777396e+01    0.4328222    0.2578127   5.06  0.001488007    3.529    0.717
        88  -7.6490      2.1881     44.8166   1.1719436994e+02   6.6187427343e+01    0.2560565    0.1121226 -57.66  0.001423785    1.639    0.390
        89  -8.6060      4.0000     40.4327   1.1542961862e+02   6.7029602861e+01    0.2733541    0.1224496 -65.06  0.001489544    1.733    0.423
        90  -7.4673    142.4983     44.5088   6.7939185572e+01   4.3950085898e+01     0.153437    0.1434809  23.29 0.0008096959    1.068    0.064
        91 -10.9508     83.1833     40.0537   8.2791112068e+01   5.7857931787e+01    0.3707595    0.2587534 -21.08   0.00188568    1.516    0.340
        92  -8.8452     87.5361     37.9819   8.0503768274e+01   5.7397770211e+01    0.2694218    0.2292011   5.92  0.000602168    1.196    0.164
        93  -9.3830     56.1755     43.5490   9.4086555594e+01   6.1549287781e+01    0.7257508    0.3227687 -27.54  0.002442734    4.249    0.765
        94  -7.4283    124.6254     39.7051   7.0429439166e+01   4.9070763427e+01    0.1597307    0.1095684  24.08 0.0007025122    1.739    0.425
        95  -9.6626     11.8039     46.3515   1.1344613536e+02   6.5333323379e+01    0.3708082    0.2404806 -24.59  0.001996896    1.742    0.426
        96  -9.5269     69.3970     36.7416   8.6389697886e+01   6.0844858071e+01    0.4451786    0.2919279   6.06  0.001965207    2.130    0.531
        97  -8.4823     73.8445     34.1833   8.3704611373e+01   6.0547855971e+01    0.3058816    0.1853307 -28.97 0.0006488832    1.629    0.386
        98  -8.7058     35.5222     37.9894   1.0068892761e+02   6.5133922384e+01    0.3177078    0.1529478 -52.44  0.001601076    1.756    0.430
        99  -8.8171     39.0960     35.4590   9.8223362454e+01   6.5252286533e+01    0.2835366    0.1919414  -1.25   0.00160384    1.833    0.454
       100  -7.9270    105.9614     36.8389   7.4348384914e+01   5.3792835640e+01    0.2471738    0.1524822  26.37 0.0009768725    2.014    0.504
       101  -8.3696     91.9556     36.9741   7.8659635964e+01   5.6702093838e+01    0.2150769    0.1990701 -13.12 0.0004285071    1.022    0.021
       102  -8.7706     55.9152     35.4798   9.1133944780e+01   6.3129410135e+01    0.2510082    0.1675089 -36.08 0.0004555011    1.329    0.247
       103  -9.3749     19.0074     35.5312   1.0729679544e+02   6.7108841017e+01    0.2506593     0.139158 -38.95  0.000750377    1.600    0.375
       104  -9.2289     21.9977     32.0585   1.0478360971e+02   6.7576180825e+01    0.3230997    0.2109956   5.49  0.001146443    1.855    0.461
       105  -8.7564      1.8808     27.6130   1.1312820086e+02   6.9793466049e+01    0.4009971    0.1133139 -51.62  0.001925622    2.298    0.565
       106  -9.1948      6.0272     33.9621   1.1287942093e+02   6.8276158678e+01    0.2730161    0.1951714  -8.71  0.001459841    1.637    0.389
       107  -7.8396      2.7201     31.7008   1.1383930664e+02   6.8915567447e+01    0.1520651    0.1149645 -44.66  0.000197391    1.120    0.107
       108  -9.1305     61.1512     27.9147   8.5880440293e+01   6.3706820997e+01    0.4825489    0.2423612 -19.45  0.001854533    3.273    0.694
       109  -8.4333     42.1780     27.9439   9.3931781728e+01   6.6324028731e+01    0.2598492    0.1637758 -15.34 0.0008140765    1.911    0.477
       110  -9.4064    248.5317    248.4293   9.3473067071e+01  -7.3011253961e+00     0.222622    0.1875107  30.63  0.001855599    1.504    0.335
       111 -11.1594    169.6835    246.9136   1.0590612489e+02   4.2575804362e+00    0.5459369    0.1745713  44.19   0.00265481    2.350    0.574
       112  -9.1093     69.3875     25.8714   8.1784802988e+01   6.2704444024e+01    0.7708511    0.4087328  62.47  0.002788471    4.407    0.773
       113 -10.1039    188.2765    234.8055   1.0126860797e+02   2.8313701466e+00    0.2327002    0.2031886 -10.09 0.0009919913    1.375    0.273
       114  -7.6775    101.8989     25.3738   7.0809907881e+01   5.6397494952e+01    0.2044138    0.1182816  39.90 0.0005329613    1.740    0.425
       115  -7.5336     98.6692    240.7041   1.1733783943e+02   1.5505413658e+01   0.09629192   0.07837681  26.63   0.00033848    1.637    0.389
       116  -9.2447     92.4694     20.5139   7.1487303531e+01   5.9097670451e+01    0.2800703    0.2378288  13.54 0.0005574483    1.121    0.108
       117  -8.4411    111.9863     19.2141   6.5462518322e+01   5.4921810286e+01    0.2321739    0.1969271  10.11 0.0003278631    1.166    0.143
       118 -10.1164    134.6820    234.3204   1.1048246087e+02   1.1199119058e+01    0.1995994    0.1643945  49.64 0.0002381776    1.090    0.082
       119  -9.1236      8.7039     20.2177   1.0729143614e+02   7.0881694287e+01    0.3921444    0.1923917  28.31   0.00226535    2.459    0.593
       120  -8.7728     12.5035     18.5154   1.0465653412e+02   7.0952413243e+01    0.2465285    0.1691956 -22.79  0.001640343    1.415    0.293
       121  -7.9678      6.9163    221.2779   1.3156772780e+02   2.9359644014e+01    0.1329372   0.09402319  62.83 0.0004980334    1.117    0.105
       122  -8.0515    129.0786     22.1931   6.2621561284e+01   5.0409090118e+01    0.2368062    0.1842856  31.09   0.00069156    1.300    0.231
       123  -8.5239    139.6765     20.5081   5.9744055143e+01   4.7923274322e+01    0.5112864     0.212261  38.42  0.001733685    2.968    0.663
       124  -8.4891    127.4191     16.8844   6.0876010025e+01   5.1457571174e+01    0.2247206    0.1966747  70.23 0.0004633648    1.204    0.170
       125  -7.4021    136.9849    220.0209   1.0844400112e+02   1.2916862987e+01     0.133965    0.1144957  52.07  0.000332134    1.093    0.085
       126  -8.7280    244.2262    206.4045   8.7669859290e+01  -2.7261732477e+00    0.2034004    0.1608107  14.91 0.0002505398    1.063    0.060
       127  -7.5037    177.6349    205.1419   9.8941434224e+01   8.3626192614e+00    0.1512668    0.1134047 -20.63 0.0005897871    1.652    0.395
       128  -9.0586    242.5580    188.4689   8.4812839748e+01  -4.9356374070e-01     0.208418    0.1948007   3.63 0.0005883956    1.359    0.264
       129  -8.9872    230.5166    183.3182   8.5866431386e+01   2.1224092629e+00    0.2484752     0.176512  39.54 0.0001898667    1.323    0.244
       130  -8.8449     88.6655     13.0275   6.9218794114e+01   6.0874657173e+01     0.374725    0.1503372  49.09  0.001368593    2.363    0.577
       131  -8.6261    231.3901    178.5227   8.4829204207e+01   2.5679901608e+00    0.2084677    0.1747087  10.32 0.0001431033    1.046    0.044
       132  -7.4807    231.4836    173.4906   8.3859731745e+01   3.1870001208e+00    0.1285128    0.1065794  15.07  0.000119942    1.001    0.001
       133  -7.4666    152.3759    173.1906   9.8707633881e+01   1.7890743403e+01    0.1588937    0.1278366 -64.66 0.0001560239    1.483    0.326
       134  -7.8239     85.1702    173.2001   1.1304624070e+02   2.9195755856e+01    0.1723232    0.1669529 -86.06 0.0006704913    1.271    0.213
       135  -8.9945    199.2426    170.9065   8.9085557873e+01   9.4230734404e+00     0.262644    0.2114724 -25.33 0.0003139049    1.329    0.248
       136  -8.4667     85.0466    157.7594   1.1104189562e+02   3.2378368017e+01    0.1990741    0.1676258 -81.15 0.0004233596    1.140    0.123
       137  -7.5797    151.9829    157.0000   9.5880320831e+01   2.0863065886e+01     0.236981   0.07336059  44.26 0.0008033586    2.949    0.661
       138  -7.0104    129.4905    154.4912   1.0034816984e+02   2.5606767929e+01    0.1372514    0.1265516  54.40 -0.0001230623    1.031    0.031
       139  -8.3224    205.2012    152.1486   8.4241238602e+01   1.1088840312e+01     0.179536    0.1680326  75.60 0.0006465283    1.352    0.260
       140  -7.3373    145.6775    150.3625   9.5976205472e+01   2.3331309896e+01    0.1456074    0.1087709  82.35 0.0007041403    1.781    0.439
       141  -7.3157    133.6930    148.3250   9.8260932742e+01   2.6036324948e+01    0.1425027    0.1067328  79.22 0.0007035877    1.649    0.393
       142  -9.1870     67.4469    144.8032   1.1341381543e+02   3.7642968041e+01    0.4124973    0.2443086  66.53  0.002122543    1.824    0.452
       143  -8.2084    247.0283    141.5005   7.4800601583e+01   4.5360243697e+00    0.1915786   0.09476481  26.99 0.0008095353    2.515    0.602
       144  -7.3041    139.6514    138.7126   9.4996817008e+01   2.6783392915e+01    0.1428244    0.1132061  10.57 0.0007023028    1.659    0.397
       145  -7.4268    108.9658    136.5621   1.0185535112e+02   3.3003178581e+01    0.1839226    0.1249341  15.17 0.0008052223    2.424    0.587
       146  -7.7118      5.0098    134.0000   1.2741916444e+02   4.6375013571e+01    0.1493773   0.06224493  26.08 0.0005803277    2.879    0.653
       147  -7.5648     40.9728    129.0387   1.1798629171e+02   4.4310158774e+01    0.1961276    0.1336645 -16.43  0.001027657    2.652    0.623
       148  -7.3165    143.6437    126.6843   9.1477909904e+01   2.8365959663e+01    0.1507284    0.1167877   8.14 0.0002659375    1.746    0.427
       149  -8.2264     11.9894    122.2508   1.2473023967e+02   4.8422453447e+01    0.2103201   0.07460275 -48.94 0.0008960363    3.625    0.724
       150  -7.6526     99.4304    119.3660   1.0086537610e+02   3.8405854141e+01     0.259362    0.1318832  26.30 0.0009470494    3.192    0.687
       151  -7.5597    119.0323    119.0000   9.5715438668e+01   3.4899331056e+01    0.2425933   0.08107298  43.29 0.0008057266    2.965    0.663
       152  -7.4514    159.2198    117.0332   8.5659159136e+01   2.6908697462e+01    0.1912442    0.1230962 -40.08 0.0004367271    1.601    0.375
       153  -8.5733    246.4820    111.5099   6.8167177499e+01   8.6874591625e+00    0.1368714    0.1210249  -7.15 0.0008103241    1.008    0.008
       154  -8.8496      2.4439    109.8284   1.2611038915e+02   5.1817144947e+01    0.3553182   0.09445994 -51.24  0.001406661    4.222    0.763
       155  -8.0738    133.6951    107.0443   8.9179263703e+01   3.4435985338e+01    0.3539648    0.1865948 -37.16  0.001407086    2.112    0.527
       156  -7.2067     35.2940    108.3195   1.1674774829e+02   4.9582350964e+01    0.1226444   0.08322849 -46.69 0.0006012239    1.609    0.378
