#   1 NUMBER                 Running object number                                     
#   2 MAG_AUTO               Kron-like elliptical aperture magnitude                    [mag]
#   3 X_IMAGE                Object position along x                                    [pixel]
#   4 Y_IMAGE                Object position along y                                    [pixel]
#   5 X_WORLD                Barycenter position along world x axis                     [deg]
#   6 Y_WORLD                Barycenter position along world y axis                     [deg]
#   7 A_WORLD                Profile RMS along major axis (world units)                 [deg]
#   8 B_WORLD                Profile RMS along minor axis (world units)                 [deg]
#   9 THETA_WORLD            Position angle (CCW/world-x)                               [deg]
#  10 FWHM_WORLD             FWHM assuming a gaussian core                              [deg]
#  11 ELONGATION             A_IMAGE/B_IMAGE                                           
#  12 ELLIPTICITY            1 - B_IMAGE/A_IMAGE                                       
         1 -13.0148    122.3254     12.8027   7.7596758623e+01   5.3413827296e+01     1.870465     1.232353 -70.23  0.008640603    2.280    0.561
         2 -12.3507    210.4372      9.3800   6.3392190075e+01   3.1053660135e+01    0.8441662    0.3377898 -26.62  0.001380942    2.596    0.615
         3 -13.0953    167.8852     59.8744   8.4517336708e+01   3.5588682278e+01     2.352489    0.9967517 -54.49  0.002959426    3.902    0.744
         4 -13.8864    141.4925     35.5538   8.1927763855e+01   4.5977122614e+01     6.099645     2.303868  50.34   0.01627194    2.429    0.588
         5 -14.5922    222.7181     45.5174   7.1611488464e+01   2.3568876395e+01     3.083631      1.81622  79.52   0.01390446    1.891    0.471
         6 -13.9659    207.5392     58.9364   7.7338005391e+01   2.5470063091e+01     4.893557     3.663366 -55.28   0.02423433    1.354    0.262
         7 -15.0868    247.9295     23.7233   6.3483585115e+01   2.0295255417e+01     1.897233     1.170149 -21.67  0.003310417    1.866    0.464
         8 -15.4192    243.3938      7.8183   6.0119502646e+01   2.3159965267e+01     3.825593    0.6958607  62.92   0.01267726    4.369    0.771
         9 -11.3254    184.6472      9.6253   6.6296813738e+01   3.7711743774e+01    0.6964805    0.2101594 -32.30  0.002530934    3.045    0.672
        10  -8.4455    188.6195     10.8102   6.6167399791e+01   3.6549620590e+01    0.2648439    0.2137237 -21.58 0.0007776574    1.393    0.282
        11  -9.8376     96.9478     12.8293   8.3836880935e+01   5.9202900304e+01    0.2669323    0.2111901  45.22   0.00155819    1.192    0.161
        12 -11.1304      7.4105      9.8883   1.1971197737e+02   7.2732788500e+01    0.3369448    0.2122436 -24.37  0.002323653    1.342    0.255
        13  -8.7343     52.7113      8.2043   9.6682551536e+01   6.7918540490e+01    0.2399732   0.09037393 -37.75  0.001075223    2.680    0.627
        14  -9.9274      3.4415      3.1895   1.1891072113e+02   7.4093480205e+01    0.2601414    0.1471553 -17.60  0.001703084    1.677    0.404
        15  -9.1857    205.2879      3.8726   6.2420684656e+01   3.2924846186e+01    0.1804896     0.158874 -75.78 0.0003147843    1.038    0.036
        16  -8.7981    171.9366      2.4801   6.5692385754e+01   4.1726664821e+01    0.2580869    0.1669406 -46.22 0.0006542681    1.629    0.386
        17  -7.4720    154.2742      3.6418   6.8474953026e+01   4.6234270093e+01    0.1420118   0.09818742 -59.57   0.00025422    1.652    0.395
        18 -14.5885    183.6775     95.5994   9.1750502043e+01   2.5371237496e+01     10.81623     8.540769  75.60   0.05128771    1.451    0.311
        19  -9.0505    133.5201      1.4786   7.1052290712e+01   5.1711026645e+01    0.2646374    0.1220827  65.16 0.0006255143    1.941    0.485
        20  -8.5573     37.9053    226.6532   1.4582928209e+02   2.4715535293e+01    0.1611119    0.1220298 -87.68 0.0005128719    1.295    0.228
        21 -10.0596     87.9953    222.1846   1.3646150404e+02   1.8970203551e+01    0.1744859    0.1402045  17.65  0.001098671    1.993    0.498
        22  -8.9051     34.9611    213.7574   1.4552760013e+02   2.7436554356e+01    0.1348473   0.07902616  44.76 0.0003156807    1.577    0.366
        23 -11.1864    215.7688    117.4465   9.1297531800e+01   1.3868989296e+01    0.8413165    0.4700067  66.75  0.003284785    2.549    0.608
        24  -9.2730    147.2051     98.6409   1.0067307445e+02   3.3600985496e+01    0.3126008    0.2640723  30.19 0.0007503638    1.289    0.224
        25  -9.9222    192.0197    133.4997   9.9693176646e+01   1.6373757470e+01    0.3107323    0.2228218 -44.34 0.0003440776    1.441    0.306
        26  -9.2249    133.7023     95.6765   1.0320960490e+02   3.7291297966e+01    0.3060373    0.2625064 -61.65 0.0007183581    1.221    0.181
        27 -10.0659    157.0607     91.0515   9.6207126914e+01   3.2761323413e+01     0.558596    0.3847489  21.35   0.00223667    2.038    0.509
        28  -9.5870    202.4613     90.1614   8.6706683962e+01   2.1705668635e+01     0.283313    0.2253849 -76.46 0.0007160777    1.498    0.332
        29 -10.3970    165.9603     87.0177   9.3057559415e+01   3.1344700357e+01    0.9427862     0.517724 -69.18  0.002729833    4.251    0.765
        30 -11.3199    154.9958     80.5634   9.3612139758e+01   3.5256329223e+01    0.3781021    0.3549754 -29.82 0.0005816881    1.086    0.079
        31  -9.8667    140.7649     87.8444   9.9172718168e+01   3.7268856768e+01    0.3357356    0.3218078  82.42 0.0009393739    1.072    0.068
        32 -13.0214     14.3734    199.1514   1.4835316955e+02   3.2404355988e+01    0.8175125    0.5826464  83.13  0.004147965    1.081    0.075
        33  -9.6193    222.4216     81.0889   8.0987031843e+01   1.8355033444e+01     0.555497    0.1767541 -46.54  0.001682802    3.604    0.723
        34 -10.0193      3.3952     80.3016   1.4004269165e+02   5.8922808038e+01    0.2906814    0.1455131  77.08  0.001433243    2.791    0.642
        35  -9.6958    181.7582    196.8045   1.1465731444e+02   7.3710246957e+00    0.2140664    0.1939567  42.12 0.0003367913    1.082    0.076
        36  -9.0886    150.3245     69.3002   9.1230772645e+01   3.8456279463e+01    0.3883833    0.2116776 -47.91  0.001524499    1.993    0.498
        37 -10.5248    187.9307     67.8091   8.3100420438e+01   2.9117620697e+01    0.3401017    0.2658962  30.09  0.001475329    1.492    0.330
        38 -10.7958    192.7986     64.1485   8.1188434264e+01   2.8448684263e+01    0.4658759    0.3270344  31.01   0.00146915    1.771    0.435
        39 -10.3427    248.9890    142.9086   9.1545192489e+01   2.8720091501e+00    0.4136873    0.2672288 -34.09   0.00216448    1.460    0.315
        40  -8.8056     73.1982     59.7249   1.1021974003e+02   5.6330633697e+01    0.3263271    0.1752367 -59.34  0.001372442    2.476    0.596
        41  -8.8455    185.8776     56.7770   8.0234041871e+01   3.1389901874e+01    0.4019716    0.2160032 -57.41  0.001504646    2.405    0.584
        42  -8.7724    124.5588    127.9476   1.1374835184e+02   3.2259889298e+01    0.2314514    0.1967831  39.37  0.001197458    1.227    0.185
        43 -11.0471    112.5794     45.7104   9.2729755695e+01   5.1356969422e+01    0.5704162    0.4409272  44.94  0.002367294    1.275    0.216
        44  -8.5007    197.0244     43.4806   7.4554756104e+01   3.0407836700e+01    0.2757958    0.1723121 -52.50 0.0006998445    1.676    0.403
        45  -9.1619    191.5186    192.5389   1.1201597839e+02   6.2247704800e+00    0.5245017    0.2661207 -63.09  0.001502646    7.023    0.858
        46  99.0000     70.3399    160.0324   1.3302964208e+02   3.4188658640e+01      1.53873     1.277387  -3.81  0.008968262    1.907    0.476
        47 -10.9131     68.2658    144.5820   1.3131521759e+02   3.7984109890e+01    0.7106571    0.3843921  67.60  0.002802314    2.338    0.572
        48  -9.1913    201.1866     33.0943   7.1000968013e+01   3.0697646414e+01    0.2302511    0.1861681 -49.82 0.0003490649    1.210    0.174
        49  -9.5887    133.9175    147.8854   1.1574890193e+02   2.6038510400e+01    0.3442954     0.203645 -59.48  0.001128281    1.879    0.468
        50 -10.0464    112.9639     29.5184   8.6442082581e+01   5.3644452619e+01    0.2138927    0.1900861 -10.10  0.000564771    1.120    0.107
        51  -8.5509    202.7586     28.9643   6.9630934887e+01   3.0805341170e+01    0.1871525    0.1712373 -55.48  0.000268009    1.082    0.075
        52 -10.8369    217.8149    189.6664   1.0655487676e+02   1.7891288764e+00    0.7505191    0.3231224  55.84  0.002663821    3.964    0.748
        53  -9.2489    126.7488    142.7610   1.1641049309e+02   2.8566005915e+01    0.3261488     0.234006  81.45   0.00150417    1.778    0.438
        54 -13.4966     46.4451    175.7083   1.4022189096e+02   3.3803734553e+01     1.628773     1.294723 -15.64  0.003132408    2.279    0.561
        55  -9.2788    222.7364    178.4420   1.0350334587e+02   2.5310627833e+00    0.2523909    0.1232403  48.07  0.001131851    2.083    0.520
        56  -9.5522    219.7127    171.2243   1.0261148906e+02   4.1918498349e+00    0.4840525    0.3086649 -48.66  0.002392258    1.966    0.491
        57 -10.1609    143.4063    146.4792   1.1323875235e+02   2.4409680265e+01    0.5084295    0.3441801  76.30   0.00206118    2.075    0.518
        58 -12.1274     56.2671    166.8834   1.3712807158e+02   3.4527589159e+01    0.6583766    0.4510811  88.06  0.001972701    1.315    0.239
        59  -8.0098    241.5405    171.5270   9.8818172089e+01   9.3074428989e-02    0.1332932    0.1121866   6.72  0.000284052    1.044    0.042
        60  -9.5820    230.5412    167.2132   9.9845690897e+01   2.7428664821e+00     0.254435    0.1839655 -52.15  0.001335056    1.843    0.457
        61 -10.3108    236.7326    161.8162   9.7645268503e+01   2.3818277660e+00     0.263313    0.1877394  52.21  0.001415433    1.608    0.378
        62  -8.4570    203.6529    160.8974   1.0349716725e+02   9.0343734275e+00     0.190933    0.1761782 -31.43 0.0005988355    1.153    0.132
        63  -9.2717     59.9838    248.3133   1.4350090873e+02   1.8280594111e+01    0.1669974    0.1275467  85.22 0.0002736295    1.269    0.212
        64  -9.2941    134.9264    107.2686   1.0605217173e+02   3.4584638580e+01    0.3398106    0.3075682 -40.69  0.001768114    1.122    0.109
