#   1 NUMBER                 Running object number                                     
#   2 MAG_AUTO               Kron-like elliptical aperture magnitude                    [mag]
#   3 X_IMAGE                Object position along x                                    [pixel]
#   4 Y_IMAGE                Object position along y                                    [pixel]
#   5 X_WORLD                Barycenter position along world x axis                     [deg]
#   6 Y_WORLD                Barycenter position along world y axis                     [deg]
#   7 A_WORLD                Profile RMS along major axis (world units)                 [deg]
#   8 B_WORLD                Profile RMS along minor axis (world units)                 [deg]
#   9 THETA_WORLD            Position angle (CCW/world-x)                               [deg]
#  10 FWHM_WORLD             FWHM assuming a gaussian core                              [deg]
#  11 ELONGATION             A_IMAGE/B_IMAGE                                           
#  12 ELLIPTICITY            1 - B_IMAGE/A_IMAGE                                       
         1 -12.5003     75.2662     51.7126   7.7166251554e+01   5.7019802684e+01     1.385774    0.8007873 -43.55  0.006630847    1.768    0.435
         2 -13.2262     42.4975     45.7030   8.7490600272e+01   6.2834580539e+01     1.150809    0.6372296  42.80 0.0007088695    2.491    0.599
         3 -12.0546    124.8916     28.0272   5.3980362022e+01   5.0230121060e+01    0.8470172    0.4916241  41.34  0.002053967    1.659    0.397
         4 -12.5473    120.4270     57.5612   6.5561046997e+01   4.7149138780e+01     2.431634     1.436168 -65.73  0.008311492    3.818    0.738
         5 -12.8681    119.4993     37.9091   5.8803497806e+01   5.0248551775e+01    0.9222653    0.6989682 -78.18  0.004560824    1.966    0.491
         6 -12.9258    142.7081     24.0851   4.9085277488e+01   4.6465974661e+01     2.995996     1.051932  69.38   0.01004008    3.619    0.724
         7 -12.2299    132.0645     15.0405   4.7931199457e+01   4.9904046744e+01     1.324803    0.5323842  67.03  0.005318792    2.569    0.611
         8  -9.6064    141.6648     12.1096   4.5276037732e+01   4.7896805576e+01    0.1908401    0.1667071  56.28 0.0003904034    1.040    0.039
         9 -12.2856     60.5376     47.0796   8.0780014410e+01   6.0167618324e+01      1.12013    0.5166373 -44.46  0.004988158    2.152    0.535
        10 -10.6229    147.0635     16.3859   4.5805495581e+01   4.6205756721e+01    0.5250619    0.2991484  45.14   0.00257576    1.703    0.413
        11 -11.4867      5.7307     34.4772   1.0014338629e+02   6.8264757591e+01      1.30316     0.441678 -46.45 0.0009676869    2.044    0.511
        12  -9.8330     31.9379     12.1421   7.7417506782e+01   6.9467501241e+01    0.1952585    0.1485488  12.85 0.0005732951    1.210    0.173
        13 -11.9238     35.9102     18.7606   7.8847210863e+01   6.8052062991e+01    0.6300412    0.3912151 -28.57  0.002808688    1.386    0.278
        14 -11.7848     20.1379     21.9964   8.7961938320e+01   6.9329383303e+01     1.099447    0.1962355 -43.92  0.003816498    4.408    0.773
        15 -12.3364     22.7194     11.7031   8.1722513692e+01   7.0620083488e+01    0.6179738    0.3719586 -22.54  0.003853162    1.351    0.260
        16 -12.5812     17.0400     12.8820   8.5254706628e+01   7.1043496035e+01    0.8293282    0.5311234 -14.72  0.003954772    1.284    0.221
        17 -11.2790    183.0058     25.3268   4.3297785354e+01   3.6617778872e+01    0.5488737    0.4434471  21.11  0.002790847    1.503    0.335
        18 -11.0301    105.9881     20.7373   5.5594498742e+01   5.5294726293e+01    0.4487994    0.2862986 -28.70  0.001305484    1.631    0.387
        19 -12.2835    113.2297     25.2448   5.5593415804e+01   5.3199845324e+01    0.8471024    0.4062813  51.88  0.003034964    1.888    0.470
        20 -10.8674    198.9736     29.2929   4.2388603307e+01   3.2385291374e+01    0.6089108    0.4242697 -26.86  0.003329803    1.509    0.337
        21 -12.1495     48.9187     12.7969   7.0259685408e+01   6.6997323766e+01    0.7150066    0.2919208  40.56  0.003437055    2.384    0.581
        22 -10.7554    214.6650     23.1837   3.9125669310e+01   2.9483608236e+01      0.44548    0.3297637  12.20   0.00246964    1.968    0.492
        23 -10.3778     47.1288     19.0391   7.4052811810e+01   6.6475652134e+01    0.3297735    0.2819916   2.10  0.001607501    1.180    0.153
        24 -10.5562     87.3570      7.4983   5.4882793102e+01   6.0537949282e+01    0.5669001     0.323122  54.71   0.00244425    1.667    0.400
        25 -11.2602     90.7091     20.9720   5.9726694225e+01   5.8509810972e+01    0.6300096    0.4450659  -5.04  0.003520961    1.418    0.295
        26 -11.1890     85.9811     14.2936   5.8220910436e+01   6.0178386234e+01    0.7358934    0.3983831  13.54  0.002835189    2.299    0.565
        27 -10.8972    178.7897     21.0330   4.2635586515e+01   3.8093949664e+01    0.5363626    0.2605005  43.52  0.001725434    2.392    0.582
        28 -11.9349     68.1109     17.9956   6.5520830191e+01   6.3186955164e+01    0.5156691    0.4580922   8.85  0.002979385    1.162    0.139
        29 -12.1045    237.6383     15.9103   3.5393931228e+01   2.5287537481e+01     0.569001    0.3819943  67.17   0.00259406    1.546    0.353
        30 -11.3394    165.0777     17.9608   4.3585122820e+01   4.1710448915e+01    0.4520134    0.2670145  39.23    0.0015111    1.901    0.474
        31 -10.6224    226.1626     15.5676   3.6257502656e+01   2.7777751423e+01    0.3761619    0.1999736 -42.83  0.001842348    1.663    0.399
        32 -11.4522    192.6469      7.8400   3.7468857256e+01   3.6134603022e+01    0.7160783    0.4545023   2.41  0.003046914    2.328    0.570
        33 -12.2763    104.6375     12.8345   5.2785912056e+01   5.6375982376e+01     0.507937    0.3846868 -18.24  0.001897733    1.376    0.273
        34 -11.4407    211.8718      9.6329   3.6103107749e+01   3.1556144370e+01    0.5342706    0.3268293   0.71  0.001735921    2.701    0.630
        35  -9.3412    191.4529     16.5924   3.9896863354e+01   3.5549723689e+01     0.314509     0.190709  -1.71  0.001490772    2.473    0.596
        36  -9.2140     94.2997     12.2585   5.5092333421e+01   5.8657393825e+01    0.1567327     0.146748  71.19 0.0005907883    1.323    0.244
        37  -9.4216      4.5223     12.5134   9.1899846028e+01   7.2189307279e+01    0.2467533    0.1242917  28.28  0.001461913    2.341    0.573
        38  -7.5464      5.3167      9.3283   8.9920993787e+01   7.2625248997e+01    0.2212744    0.1004087 -19.89  0.001043351    2.279    0.561
        39 -11.9983    246.8678      6.8113   3.2773907037e+01   2.4353450759e+01     0.525023     0.393686   4.51   0.00234204    2.121    0.529
        40 -11.0696    242.4209      3.7896   3.2438951668e+01   2.5570042803e+01    0.3315983     0.177916  71.77  0.001910944    1.829    0.453
        41  -9.8822     65.9903     10.4730   6.2725650635e+01   6.4394781760e+01    0.2450946     0.172429  46.07 0.0008794818    1.471    0.320
        42 -10.4342     63.5241      6.6808   6.1740442702e+01   6.5218213147e+01    0.2958778    0.2311702  14.51  0.001198412    1.037    0.035
        43  -9.7753    168.8015      9.7724   4.0674695551e+01   4.1600530851e+01    0.3272008    0.1573251  49.97  0.001518198    2.035    0.509
        44  -9.2589    163.1274     10.0536   4.1484930402e+01   4.2935638716e+01    0.1996334    0.1642531  43.02 0.0008509159    1.244    0.196
        45 -10.7254    237.1455      5.2691   3.3114454638e+01   2.6512263097e+01    0.2781585    0.1569167 -34.72  0.001608531    1.668    0.401
        46 -10.7170    232.5606      7.4265   3.3915538640e+01   2.7257745077e+01    0.3066525    0.2001422 -75.47  0.001140918    1.432    0.302
        47 -10.2002    228.3387      3.4816   3.3355473185e+01   2.8553136578e+01    0.2668476    0.2166589 -31.73  0.001468697    1.342    0.255
        48 -10.9254    218.7396      3.3125   3.4043432128e+01   3.0651152591e+01    0.3186467    0.2615066 -31.41  0.001003304    1.328    0.247
        49 -10.5341    223.6168      1.8872   3.3347305157e+01   2.9724723925e+01    0.3300353    0.1762583  70.64  0.001149957    1.771    0.435
        50  -9.5601     78.4863      7.5173   5.7379090999e+01   6.2322925962e+01    0.2273794    0.1500362  48.05 0.0006853158    1.416    0.294
        51 -11.2283     75.7748      3.3734   5.6270407450e+01   6.3218740631e+01    0.6649435    0.3158925  44.86  0.003138554    1.779    0.438
        52  -9.4543      1.1400      7.3160   9.1341572798e+01   7.3253929047e+01    0.2277687   0.05718954 -45.89 0.0006413844    3.225    0.690
        53 -11.2531      3.0892      1.8617   8.7370624990e+01   7.3909274396e+01    0.3861766    0.1658897  14.19  0.002098093    2.557    0.609
        54  -9.6231     12.9784      1.8539   8.1663158836e+01   7.2994973830e+01    0.3811308    0.1466726  28.99  0.002008206    2.635    0.620
        55 -10.4752    183.5428      4.5621   3.7534552900e+01   3.8567420552e+01      0.39156    0.2815016 -22.94  0.002126323    1.548    0.354
        56 -10.0431    152.7581      7.2112   4.2023165342e+01   4.5672934419e+01    0.4894986    0.1733425  68.16  0.001956412    2.584    0.613
        57 -10.9152     41.2752      4.6242   6.9252141061e+01   6.9091039681e+01    0.4484357    0.2358928  -2.45  0.002306015    2.156    0.536
        58 -10.9374    176.6985      5.7027   3.8584636022e+01   4.0083401985e+01    0.3941492    0.2069706  82.24  0.001312577    1.961    0.490
        59  -9.7345    169.5344      2.6099   3.8523883092e+01   4.2051317899e+01    0.3112672    0.1772957 -62.58 0.0005983821    2.042    0.510
        60  -9.0226    163.0768      5.9111   4.0259186373e+01   4.3312936996e+01    0.1766825    0.1388953  44.38 0.0005543203    1.293    0.227
        61 -10.7959    114.3368      3.6164   4.7125525206e+01   5.4985056410e+01    0.4563788    0.2738794  51.68 0.0009511374    1.420    0.296
        62 -11.0562    106.6397      1.9636   4.8031988661e+01   5.6841281928e+01    0.6127697    0.2946436  66.27  0.002062222    2.104    0.525
        63  -9.0389     31.3348      6.1340   7.4557374178e+01   7.0309670797e+01     0.149936   0.09266765 -32.13 0.0002967875    1.619    0.382
        64 -12.1825    134.2991      2.5007   4.3227555315e+01   5.0443011849e+01    0.4000201    0.2550311  65.79  0.001144682    1.416    0.294
        65 -10.2160    142.5008      3.1852   4.2207819986e+01   4.8449733877e+01    0.4463274    0.2119558  57.93  0.001689342    1.780    0.438
        66  -9.1533     54.9193      4.4010   6.3675950421e+01   6.6940886192e+01    0.1273723    0.1091615  78.73 6.468816e-05    2.089    0.521
        67 -10.6451    206.4941      2.4104   3.4827741663e+01   3.3464148559e+01    0.4786815     0.210706  83.99  0.001944891    2.370    0.578
        68  -9.7095    158.3100      2.3547   3.9796794920e+01   4.4747501753e+01    0.3634875    0.1676973  47.74  0.001682626    2.117    0.528
        69  -9.2858    151.9358      1.2809   4.0289493486e+01   4.6352712454e+01    0.2467645     0.108469  77.26 0.0007561424    2.394    0.582
        70  -9.1759    123.0834      1.2129   4.4631126214e+01   5.3159024179e+01    0.3003926   0.09987141  68.15  0.001139786    2.985    0.665
        71 -11.8356     18.8489    122.2674   1.1465552365e+02   4.7773599259e+01    0.2691963    0.1795933 -68.06 0.0002623326    1.190    0.160
        72 -10.1294    142.9634    249.6944   1.0302971707e+02   4.0163390371e+00     0.178513    0.1348577  36.16  0.001160739    1.108    0.098
        73 -11.4194     22.7033    127.2010   1.1424942494e+02   4.6275925829e+01    0.2669601    0.2218595  42.04 0.0002778375    1.422    0.297
        74 -11.7347     23.6760    135.0467   1.1504296489e+02   4.4284755062e+01    0.8996692    0.3348283  38.43   0.00399826    2.910    0.656
        75 -12.1444     30.0264    132.8868   1.1300346114e+02   4.4270217988e+01    0.6825414    0.3373291 -56.39  0.003365095    1.680    0.405
        76 -10.3776     47.2770    135.9040   1.0865506285e+02   4.1831961811e+01    0.5088542    0.1788352 -60.01  0.001307438    2.288    0.563
        77  -9.8586    216.4195    137.2497   6.7272593323e+01   1.1325711263e+01     0.396981    0.2067073 -38.10  0.001717808    1.726    0.421
        78  -9.8333     80.2054    136.7182   9.9563563080e+01   3.7445440656e+01    0.4638647    0.2792047 -29.94  0.001951791    2.273    0.560
        79 -10.6199     67.3775    135.6496   1.0295874437e+02   3.9488350710e+01    0.3862109    0.2292415 -48.03 0.0006808349    1.585    0.369
        80 -10.2869     40.0883    137.9059   1.1095977624e+02   4.2087379882e+01    0.2222075    0.1979124  75.21  0.000455828    1.181    0.153
        81  -9.1601    192.4522    136.4676   7.1698153933e+01   1.6254116082e+01    0.1517056    0.1388357 -23.78 8.969176e-05    1.022    0.022
        82 -10.0805     93.3566    135.1827   9.5581607551e+01   3.5801018447e+01    0.4583148    0.1386447 -54.74  0.001215058    3.105    0.678
        83  -9.8701     92.8962    128.9109   9.4329408659e+01   3.7392152492e+01    0.3774328      0.25715 -73.69  0.001688194    1.805    0.446
        84  -9.1682    107.9008    146.1108   9.3984452950e+01   3.0754959750e+01     0.227645    0.1999062  83.92 0.0005750782    1.273    0.215
        85 -10.2176     74.0485    132.6719   1.0049004377e+02   3.9318465478e+01    0.3030468     0.212099 -24.99  0.001442954    1.829    0.453
        86 -10.0385     61.6884    132.3437   1.0395598913e+02   4.1034064838e+01    0.4168564    0.3193533 -30.69  0.002232336    1.493    0.330
        87  -9.6971     39.1626    132.8629   1.1044645272e+02   4.3421166897e+01    0.2420446     0.177459  38.30 0.0008814314    1.560    0.359
        88  -9.3709    103.9003    130.8535   9.1698547207e+01   3.5079893034e+01    0.2193841    0.1968351 -16.69 0.0002886421    1.197    0.164
        89 -11.3647     10.6272    127.1802   1.1761395735e+02   4.7165459453e+01    0.4620057    0.1972511 -59.77  0.000457057    1.798    0.444
        90 -10.2632     82.0450    125.3416   9.6644117676e+01   3.9954361684e+01    0.4563765    0.3226917 -12.73  0.001887765    1.968    0.492
        91  -9.3565    241.6459    127.9670   6.0840933581e+01   8.1742025834e+00    0.2557731    0.1475635  28.28  0.001146117    2.340    0.573
        92  -9.2123    223.9932    126.9323   6.3504101062e+01   1.1690093619e+01    0.2189401    0.1640981 -57.92 0.0005098926    1.625    0.385
        93  -9.7923      4.2541    121.0375   1.1864181669e+02   4.9042224424e+01    0.2626484    0.1443396 -76.57 0.0008972312    1.467    0.318
        94  -9.7315      7.0596    114.5022   1.1701626753e+02   5.0440214857e+01    0.2624114     0.247648  43.00  0.001363576    1.334    0.250
        95 -11.8619      2.1634    111.5935   1.1807385478e+02   5.1414804186e+01    0.4055215    0.2167066 -81.12 0.0007875845    1.654    0.395
        96 -11.4885      3.8437    105.4500   1.1674754872e+02   5.2784544029e+01    0.4577347    0.3761005  88.67  0.002604146    1.252    0.201
        97  -9.5485     49.7762    122.9864   1.0568845976e+02   4.4748952903e+01    0.3275649    0.2237332 -20.98  0.001165789    1.927    0.481
        98 -11.0508     45.6177    120.1912   1.0641419312e+02   4.5886558741e+01    0.6435025    0.3487359 -85.62  0.002260002    2.668    0.625
        99  -9.7495     53.5031    124.5081   1.0486803805e+02   4.3952761374e+01    0.3473718     0.197381 -61.84  0.001460151    1.525    0.344
       100  -9.8564     56.4699    122.5027   1.0360090835e+02   4.4099665755e+01    0.3354376    0.2500881  51.35  0.001800555    1.556    0.358
       101 -10.9681     63.2183    150.6577   1.0670996217e+02   3.6328684339e+01    0.4373422    0.3208821  -2.49  0.001793676    1.969    0.492
       102 -12.0871    104.0422    122.4126   8.9653548800e+01   3.7057771054e+01    0.4686747    0.4040294 -30.30 0.0009077889    1.163    0.140
       103  -9.2963     94.4208    123.4855   9.2645423618e+01   3.8447634154e+01    0.1510206    0.1377219 -48.59 0.0008050914    1.014    0.013
       104  -9.3515     68.3551    123.3013   1.0022505625e+02   4.2400292579e+01    0.1487809    0.1036404 -28.27 0.0007038189    1.706    0.414
       105  -9.1103     71.4440    120.7195   9.8753708657e+01   4.2612212994e+01    0.2020358    0.1212106 -47.43 0.0005058742    1.511    0.338
       106 -10.9359     33.2055    119.2952   1.0998166424e+02   4.7320179759e+01    0.3660021    0.2815891 -84.35  0.001421974    1.294    0.227
       107 -10.0457      2.9696    126.4083   1.1961490092e+02   4.7834943665e+01    0.3260002    0.2060458  80.16  0.001857179    1.603    0.376
       108  -9.5773    185.9523    118.8613   6.8645358263e+01   2.1041835920e+01    0.3024558    0.1930129  47.07  0.001341272    1.675    0.403
       109  -9.0990    148.6465    119.6913   7.7200512647e+01   2.8912301380e+01    0.1637348    0.1229394   0.52 0.0007043303    1.721    0.419
       110  -8.9623     13.5802    118.9689   1.1571878218e+02   4.8947867245e+01    0.1821728   0.09919998 -68.41 9.687382e-05    1.431    0.301
       111  -9.3814     58.5093    117.4976   1.0197533205e+02   4.5083552119e+01    0.2720378    0.1012816 -49.98   0.00103687    2.294    0.564
       112  -9.7088    113.6596    115.8855   8.5312608121e+01   3.6820530911e+01    0.2592786     0.217735  15.92 0.0006083514    1.323    0.244
       113  -8.8828    109.4474    116.5061   8.6649618174e+01   3.7463444676e+01    0.2366675    0.1382996 -37.63 0.0006605201    1.741    0.426
       114 -10.3680    107.5613    112.0183   8.6012384611e+01   3.8845367393e+01     0.420865    0.3410713 -86.84     0.001254    1.637    0.389
       115 -11.0411    102.6313    109.3849   8.6732404901e+01   4.0347745546e+01    0.6665374    0.5152758 -27.82  0.002407249    1.345    0.256
       116  -9.7773     66.9961    113.9993   9.8614739618e+01   4.4853017321e+01    0.3468123    0.2467382  85.72  0.001632963    1.974    0.493
       117  -9.7637     67.4993    110.5270   9.7663951831e+01   4.5625331001e+01    0.3636418     0.226593  24.22  0.001717787    1.902    0.474
       118 -11.7956     17.0740    101.0357   1.1189427851e+02   5.3025211590e+01    0.4271105    0.2886959  17.10 0.0003779521    1.851    0.460
       119 -12.1973     34.8406     93.5946   1.0450980880e+02   5.3378769642e+01     1.507958     1.001808 -76.09  0.006561371    1.667    0.400
       120 -11.3780     42.1916     93.8932   1.0206065904e+02   5.2597232435e+01    0.3463509    0.2946435  84.48  0.001321364    1.443    0.307
       121 -11.6967      9.6310     96.9106   1.1361765384e+02   5.4481153145e+01    0.8552878    0.5170775 -82.13  0.004702875    1.662    0.398
       122 -11.9300      7.1077     88.5595   1.1303816167e+02   5.6585334388e+01    0.5070152    0.4548942  37.88  0.002784222    1.428    0.300
       123 -11.6016     18.7281    106.0482   1.1221286931e+02   5.1708098611e+01    0.3196626    0.2217471 -40.86 0.0002111882    1.411    0.291
       124 -11.9557     24.7030    113.6421   1.1161238475e+02   4.9421313166e+01     1.030584    0.3847981  12.80  0.003943781    4.296    0.767
       125 -12.3683     25.2653    107.9606   1.1048046752e+02   5.0754404921e+01    0.9200086     0.577893 -23.42  0.004879197    1.999    0.500
       126 -11.8117     22.6177     94.8747   1.0893541076e+02   5.4093205593e+01    0.4795319    0.3438416 -20.64  0.001568113    1.598    0.374
       127 -12.0887     18.2987     89.7267   1.0940314453e+02   5.5617598961e+01    0.7519373     0.338537 -45.40  0.001909727    1.868    0.465
       128 -12.0219     44.3119     85.0712   9.9161217563e+01   5.4426050634e+01    0.6807789     0.448935  31.93  0.003657492    1.765    0.433
       129 -10.8276     37.8631     86.1650   1.0173228800e+02   5.4829660531e+01    0.2780996    0.2580362 -87.48 0.0008104552    1.293    0.227
       130  -9.4656    126.9942    113.6377   8.1093875550e+01   3.4722482139e+01    0.2191545    0.2012888  28.66 0.0008803188    1.135    0.119
       131  -9.8423     48.7115    112.3995   1.0395295950e+02   4.7464021187e+01    0.2433228    0.2074996 -70.41  0.001273954    1.133    0.118
       132 -11.0859    170.2734    110.5171   6.9767156531e+01   2.6111337229e+01    0.4509878    0.3506504 -31.94  0.001330861    1.233    0.189
       133  -9.6592     94.6657    111.9803   8.9745760385e+01   4.1136351236e+01    0.3328929    0.2284831  13.58  0.001463198    1.926    0.481
       134 -10.2784    130.7742    109.9740   7.9102208480e+01   3.4757734649e+01    0.3611463     0.214112  34.63  0.001477734    1.874    0.466
       135 -10.1111    120.6950    109.0890   8.1556984134e+01   3.6992772322e+01    0.3909096    0.2750962 -23.70  0.001728702    1.632    0.387
       136 -11.4539     79.3542    108.3037   9.3442537469e+01   4.4461624348e+01    0.7031627    0.3869408  29.75  0.001450346    2.083    0.520
       137 -10.5628     90.3419    104.2854   8.9027567551e+01   4.3655174471e+01    0.4245808    0.3364237   1.63  0.001114132    1.493    0.330
       138 -10.3990     85.9826    103.9712   9.0279812815e+01   4.4443160012e+01    0.4478145    0.2821038 -30.49  0.001545082    1.776    0.437
       139  -9.5261     58.4873    108.5162   1.0003972794e+02   4.7272081050e+01    0.2828293    0.1259875 -58.63 0.0007830088    1.997    0.499
       140 -10.1565    157.1691    106.8007   7.1702797624e+01   2.9759267467e+01    0.4086209    0.3103717  -3.12  0.001624506    1.642    0.391
       141 -10.2762    143.4884    106.1070   7.4788966826e+01   3.2896423077e+01    0.3551781    0.3044274 -72.05  0.001471862    1.403    0.287
       142 -11.6857    145.7943    100.4422   7.2624262810e+01   3.3563354015e+01    0.5648031    0.4542768 -27.96  0.001836404    1.229    0.186
       143  -9.4437    181.1996    103.8509   6.5676607912e+01   2.4970284360e+01    0.3320779    0.1658498 -54.13  0.001157061    2.687    0.628
       144 -10.1284     61.3031     97.6898   9.6546077526e+01   4.9498799854e+01    0.2145264    0.1291349  40.19 0.0005272285    1.928    0.481
       145  -9.7581     50.5232    101.9533   1.0112344267e+02   4.9788804889e+01    0.2864063     0.182845 -50.33 0.0007084765    1.318    0.241
       146 -11.4023     52.2170     95.9531   9.9148146216e+01   5.1019509923e+01    0.7717473    0.4568523 -81.11  0.002806445    2.795    0.642
       147  -9.8912    120.6688    101.4151   7.9417648048e+01   3.8680597142e+01    0.2787611      0.18248 -25.24  0.001092161    1.769    0.435
       148  -8.9251     82.4289    102.5246   9.0999502406e+01   4.5344961494e+01    0.1494651    0.1327029 -39.78 0.0001654137    1.011    0.011
       149  -9.2799    208.8815    100.9286   5.9727860925e+01   1.9391458766e+01    0.2185616    0.1852773 -13.79 0.0004066173    1.227    0.185
       150  -9.8943    210.1837     97.6230   5.8664915031e+01   1.9686012418e+01    0.5121656    0.2759942  34.61  0.002038946    2.539    0.606
       151 -11.0997     90.1666     89.2448   8.4831679923e+01   4.7066534475e+01    0.8238162    0.4286696 -27.46  0.003046022    2.612    0.617
       152  -9.9150     80.7273     98.4206   9.0434361145e+01   4.6559999123e+01    0.2854038    0.2326393   0.76 0.0009775186    1.388    0.280
       153  -9.6833     77.3140     96.9368   9.1121027207e+01   4.7426485592e+01    0.2748421    0.2254494 -13.16 0.0006358419    1.316    0.240
       154 -10.1398     82.7751     93.4034   8.8387554458e+01   4.7376545532e+01    0.3591983    0.2525341  23.76  0.001089172    1.609    0.379
       155 -11.0695     76.9485     92.9209   9.0130762345e+01   4.8398253484e+01    0.5320252      0.37948  16.93  0.001465551    1.645    0.392
       156 -11.5035     67.2624     95.3659   9.3975324567e+01   4.9245822108e+01     0.468273     0.433782  -7.70  0.001490548    1.140    0.123
       157 -10.0905    117.7444     92.9966   7.7768726793e+01   4.1066821175e+01    0.3910657    0.2814833  -6.31  0.001235031    1.808    0.447
       158 -11.0095    124.5785     93.7859   7.6128984340e+01   3.9495037047e+01    0.6271409    0.5018641  46.62  0.002305387    1.334    0.250
       159 -11.3622    120.8288     87.0127   7.5102340419e+01   4.1664878450e+01    0.6862662    0.4292484 -46.31  0.002999974    1.601    0.376
       160 -10.7380    152.2249     91.4992   6.8509261566e+01   3.3900964113e+01    0.5077453     0.416232 -73.70  0.002400025    1.539    0.350
       161  -8.8825    138.5603     92.8221   7.2200874613e+01   3.6693363162e+01    0.3364776    0.1809696  19.79 0.0009658759    4.269    0.766
       162 -10.8274    100.4687     91.1224   8.2220005379e+01   4.4819526019e+01    0.5813643    0.3546875  50.15  0.002327153    1.954    0.488
       163 -10.3692    104.8542     86.6136   7.9540493198e+01   4.4950040349e+01     0.528316    0.3236891 -21.93  0.002162575    2.068    0.516
       164 -10.9836    113.6637     83.4732   7.6003917864e+01   4.3853156929e+01    0.4132321    0.3452101 -37.62  0.001522845    1.144    0.126
       165  -9.9538     66.6063     88.7234   9.2387774422e+01   5.0856831018e+01    0.3594841    0.2262478 -22.47  0.001120572    1.936    0.483
       166 -10.4238     66.8570     81.9697   9.0358214377e+01   5.2325927010e+01    0.4630027    0.3582287  13.61  0.002505085    1.430    0.301
       167 -10.6519     80.6221     83.6547   8.6219615309e+01   4.9871939392e+01    0.5029875    0.3408611 -34.65   0.00245776    1.382    0.276
       168 -10.1148     76.1297     75.6866   8.5237613153e+01   5.2279620689e+01    0.3707607    0.3055483 -48.95  0.001663691    1.247    0.198
       169 -10.2656     77.4888     81.0489   8.6461950594e+01   5.0932252310e+01    0.4604963    0.2261018 -43.56  0.001529704    1.827    0.453
       170 -11.0035     73.0165     78.8249   8.7287344832e+01   5.2101159244e+01    0.4575883    0.3673772 -55.62  0.001683577    1.344    0.256
       171 -10.3811    183.7228     85.8811   6.0275200892e+01   2.7678714742e+01    0.6946809     0.258588 -42.57  0.002395311    2.580    0.612
       172 -10.2315    109.0429     80.9090   7.6522697315e+01   4.5297013593e+01    0.3797106    0.3069091 -22.88  0.001149374    1.213    0.175
       173 -10.3855    165.6163     83.6053   6.3241749037e+01   3.2290546260e+01    0.4027644    0.3205291 -54.66  0.001271209    1.353    0.261
       174 -11.5113    142.8868     83.9613   6.8476104017e+01   3.7455490956e+01    0.4645129    0.3621913  33.84 0.0009822416    1.350    0.259
       175 -10.3500    127.6077     82.5109   7.1884655226e+01   4.1115833991e+01     0.407842    0.2750584 -32.08  0.001714155    1.458    0.314
       176 -10.3114    127.1820     76.9476   7.0240803719e+01   4.2268615006e+01    0.3255642    0.2601628 -52.97 0.0004749389    1.391    0.281
       177 -11.8125    122.8565     68.7958   6.8728202389e+01   4.4702045890e+01    0.5631679    0.4978074  24.96  0.001607244    1.126    0.112
       178 -11.3791     58.0163     77.6759   9.2195604694e+01   5.4464394223e+01     0.652106    0.3312451 -63.59 0.0004139103    2.781    0.640
       179 -12.3727     52.4753     74.0210   9.3117898001e+01   5.5955303661e+01    0.6479276    0.3317865 -57.79 0.0007655419    2.064    0.515
       180 -11.1329     47.0601     74.4557   9.5251583508e+01   5.6499531712e+01    0.3717122    0.2104956 -55.46 0.0009612963    1.647    0.393
       181  -9.6293    103.0000     79.9190   7.7992192547e+01   4.6680237965e+01    0.3426697    0.1943061 -35.80  0.001044251    1.701    0.412
       182 -10.3215    103.8252     74.8596   7.6103722234e+01   4.7522176670e+01    0.4648478    0.3382895 -54.55  0.001386387    1.608    0.378
       183  -9.4313    160.7471     93.8442   6.7249589665e+01   3.1512070033e+01    0.2856296     0.209725  85.66 0.0009417009    2.038    0.509
       184 -10.4018    232.6480     76.8116   5.0103811633e+01   1.8287449680e+01    0.5693436    0.2797236 -48.39  0.002505142    1.975    0.494
       185 -11.8664     14.1150     74.4319   1.0769652541e+02   5.9411633230e+01    0.5185789    0.3595573 -53.37  0.002637801    1.108    0.098
       186  -8.9925    170.3506     78.2663   6.0719447536e+01   3.2124298610e+01    0.1531228    0.1155225  20.96 0.0006013781    1.620    0.383
       187  -9.2130    213.4911    248.5013   8.9672521578e+01  -6.0219914471e+00    0.1197329   0.09233851  11.93  6.68276e-05    1.006    0.006
       188 -10.0380     94.4958     76.0755   7.9357682317e+01   4.9054363668e+01    0.4905007    0.3580478  29.52  0.002142497    1.446    0.308
       189 -11.6679     85.7974     73.4240   8.1273609041e+01   5.1139939863e+01    0.7427098    0.5105307  35.63  0.002944973    1.543    0.352
       190 -11.0969     79.7778     67.8780   8.1419529489e+01   5.3266216710e+01    0.5132926     0.438356  59.42  0.001728863    1.563    0.360
       191 -10.2561     84.0695     64.1557   7.8693407632e+01   5.3247883286e+01    0.3563417    0.2183168 -24.79 0.0009897564    1.727    0.421
       192 -11.2645     91.2263     62.8864   7.5915235039e+01   5.2192114391e+01    0.5877082    0.4009177  56.22  0.002784612    1.946    0.486
       193 -12.0387     89.4317     57.8050   7.4671208326e+01   5.3439260278e+01     1.046498    0.7348441  52.41  0.005219117    1.742    0.426
       194 -10.6509     12.9874     47.5133   1.0102651867e+02   6.5246880169e+01     1.076963    0.1870929 -38.65  0.003017255    6.323    0.842
       195  -9.4236     22.6680     37.0227   9.2961201872e+01   6.6502831604e+01    0.5763547    0.3465466  40.87  0.003173685    2.460    0.594
       196  -9.5371    175.0150    246.4931   9.6493654190e+01  -2.3520496184e-01    0.1943756    0.1015547  35.55 0.0009327388    1.616    0.381
       197 -12.2818     21.4640     46.8535   9.7028372286e+01   6.4739017996e+01    0.5542915    0.3656899 -43.86  0.002380122    1.210    0.173
       198 -10.9742     33.8732     58.1331   9.5424993872e+01   6.1351603532e+01      0.47714    0.2469493 -30.17  0.002325785    1.920    0.479
       199 -12.1322     48.6463     60.2058   9.0179274104e+01   5.9304116978e+01    0.8319334    0.6406032  44.02  0.004784879    1.708    0.415
       200 -11.3126     41.1008     57.1719   9.2162288538e+01   6.0790732345e+01    0.4322606    0.3161596  56.29  0.001667231    2.248    0.555
       201 -11.6392     26.0155     56.4152   9.8145241413e+01   6.2429191626e+01      1.04787    0.5130348 -42.07  0.004260689    1.618    0.382
       202 -10.7750     20.1333     55.1290   1.0023769624e+02   6.3174402023e+01    0.2605279    0.2572058 -26.43 0.0007384277    1.346    0.257
       203 -11.8865      1.7878     70.9873   1.1163200537e+02   6.0869173945e+01    0.5721192    0.1687888 -64.55  0.001289886    2.533    0.605
       204 -12.5188      6.2660     62.8536   1.0808375759e+02   6.2435960608e+01    0.8197584    0.4238076 -26.23  0.004434539    2.020    0.505
       205 -12.2397    186.4450     70.5824   5.5519856659e+01   2.9615175186e+01    0.9905851    0.6246189 -36.63  0.003473484    1.501    0.334
       206  -9.0943    113.6714     75.1361   7.3332431889e+01   4.5485322693e+01    0.3985007     0.159225  37.36   0.00135145    2.920    0.658
       207 -10.2176     63.8247     75.1736   8.9359078538e+01   5.4221274532e+01    0.4388527    0.3165703  31.56  0.001459691    1.534    0.348
       208 -11.5613     40.6432     70.5495   9.6534731706e+01   5.8048657564e+01    0.4975048    0.2831185 -50.77  0.001605302    1.480    0.324
       209 -11.6189     32.6485     72.0809   1.0003243520e+02   5.8499075381e+01    0.6037486    0.2786264  26.98  0.002263146    2.486    0.598
       210  -9.7175    152.8390     72.9803   6.2817643105e+01   3.7151884040e+01    0.4883861    0.1746248  41.28  0.001506233    3.447    0.710
       211  -9.8323    162.2081     70.8278   6.0172466641e+01   3.5311239520e+01    0.3050726    0.2556017 -68.54  0.001042615    1.380    0.275
       212 -10.4982     14.9594     67.3864   1.0570903970e+02   6.0924380127e+01     0.316308    0.2285707 -18.92  0.001703893    1.439    0.305
       213 -10.6483    171.3522     66.7511   5.7158047891e+01   3.3805608699e+01    0.7273352    0.3723544 -37.79  0.003017429    1.868    0.465
       214 -10.5629     22.1036     65.7863   1.0245622603e+02   6.0763770132e+01    0.3695814    0.3335991 -67.34  0.001061276    1.304    0.233
       215 -11.4443    219.9704     66.3496   4.9236162518e+01   2.2602438793e+01    0.5895112    0.3744989  57.69  0.002390075    1.695    0.410
       216  -9.6655    192.5216     65.6723   5.3136516524e+01   2.8961942898e+01    0.2739375     0.224919 -81.13 0.0008415544    1.368    0.269
       217 -10.8750     59.0937     62.7923   8.7057010423e+01   5.7430345388e+01    0.4755657    0.3993098 -44.24  0.002544315    1.224    0.183
       218  -9.7535     53.1273     65.9832   9.0364795709e+01   5.7571647114e+01    0.2803391    0.1817122  42.06  0.001034135    1.935    0.483
       219  -9.9238    105.8029     64.0022   7.1848391484e+01   4.9153184337e+01    0.3504869    0.2114782 -36.90  0.001591839    1.594    0.373
       220 -10.9552    106.3439     58.4911   6.9757396295e+01   5.0000982637e+01    0.3896432    0.3132238  61.41  0.001233329    1.535    0.349
       221  -9.5189    202.1211     64.5036   5.1315516587e+01   2.6908698786e+01    0.2934991     0.207186  71.39 0.0008608284    1.568    0.362
       222  -9.7459    198.4480     62.9263   5.1452593141e+01   2.7997433326e+01    0.3350862    0.2275527 -58.54  0.001436755    1.613    0.380
       223 -11.3703    233.9569     61.0072   4.6147586966e+01   2.0361242529e+01    0.5433547    0.3877692  69.02  0.002589813    1.544    0.352
       224 -10.1781    159.0080     62.3069   5.8234150855e+01   3.7457664410e+01    0.5205867    0.2284727  44.50  0.001940094    2.431    0.589
       225 -11.0881    127.3049    241.8763   1.0506733999e+02   7.6015870529e+00    0.3586154    0.2465153 -60.53  0.002181379    1.730    0.422
       226  -9.7301     68.0077    240.4951   1.1628177662e+02   1.6021814351e+01    0.1730568    0.1001356  38.93  0.001029527    1.588    0.370
       227 -10.8386    148.8052    237.5820   1.0029125960e+02   5.0923418438e+00    0.4345182    0.2082073  32.80  0.001977418    1.924    0.480
       228 -12.4963    117.2956     42.6854   6.1085986694e+01   5.0094322420e+01    0.7065781    0.4882121 -45.76  0.002731804    1.664    0.399
       229 -11.9148    113.9972     38.6761   6.0450190045e+01   5.1375473632e+01    0.6022487    0.3954197 -12.44  0.001052552    1.681    0.405
       230  -9.6815    148.7699     60.7445   5.9882582462e+01   4.0136655096e+01    0.4976825    0.1742295  56.73  0.001656202    3.021    0.669
       231 -10.0522    136.4936     56.3926   6.1210607257e+01   4.3696324895e+01     0.982333    0.4632643 -35.08  0.003951773    2.081    0.519
       232 -11.6378    145.8220     46.7306   5.5981728592e+01   4.2926200083e+01     1.084835    0.4284002 -23.75  0.003772496    3.094    0.677
       233 -10.6375    162.3279     44.5864   5.2140745889e+01   3.9251185596e+01     0.559085    0.4251799  26.18  0.002869867    1.514    0.339
       234 -10.8946    138.0815     33.4538   5.3125361023e+01   4.6499760623e+01    0.4937637    0.3514842 -55.35  0.001513039    1.706    0.414
       235  -9.4659     15.3445    233.6081   1.2526619557e+02   2.3181845860e+01    0.1978803    0.1088965 -78.42  0.001237659    1.619    0.382
       236 -11.1460    155.7661     42.0854   5.2549944670e+01   4.1169797666e+01    0.4376551    0.4174879   5.80  0.001462837    1.073    0.068
       237 -11.8274    153.0366     35.9412   5.1094881537e+01   4.2613461873e+01    0.3294665    0.2857236  58.88 0.0003496135    1.115    0.103
       238 -10.6428    243.5921    231.7124   8.1567057166e+01  -7.9459416334e+00    0.2649179    0.1472151  37.75  0.001521985    1.919    0.479
       239  -9.4936     23.7493    231.7619   1.2369248856e+02   2.2705426681e+01    0.1569513   0.09577311  64.82  0.001045828    1.333    0.250
       240 -11.0177    157.7162     55.2802   5.6318529112e+01   3.8845581064e+01     0.628637    0.4729663  70.51  0.003140622    1.471    0.320
       241 -10.3247    155.3480     49.6262   5.5010186028e+01   4.0237667536e+01    0.3732102    0.2633571 -19.52 0.0009184598    1.535    0.349
       242 -11.5252    159.8275     30.0115   4.8058984741e+01   4.1679711870e+01    0.5278469     0.256551  43.14  0.001586239    2.228    0.551
       243 -11.7686    164.1462     27.8139   4.6697744486e+01   4.0884712665e+01      0.27903    0.2466032 -30.95  0.000391052    1.179    0.152
       244  -9.6078    187.7294     55.4015   5.1055217946e+01   3.1630165272e+01    0.2744091    0.2113982  54.95  0.001423659    1.327    0.246
       245  -8.9048     67.9369     32.9191   7.2215546058e+01   6.1260833481e+01    0.4930546    0.4651696 -11.05  0.003210815    1.292    0.226
       246 -11.1344     60.7631     36.4409   7.6388521781e+01   6.1895385249e+01     0.387769    0.2351281 -30.40 0.0006115369    1.493    0.330
       247 -11.7034     57.9361     30.0620   7.4738942752e+01   6.3301297598e+01    0.4921787    0.2976537  16.67  0.001389896    1.785    0.440
       248 -11.6249     48.9304     30.1371   7.8401827233e+01   6.4625451515e+01    0.6024701    0.2773594  29.22  0.002258974    2.293    0.564
       249 -10.4313     66.2612     54.2385   8.1348666629e+01   5.8022195019e+01    0.3705809    0.2465756 -57.19   0.00179483    2.095    0.523
       250  -9.3933    167.6739    237.6879   9.6614485184e+01   2.1976631705e+00    0.1262615   0.08845089   5.42 0.0004760542    1.663    0.399
       251 -11.3379    201.5262     48.4653   4.7133729716e+01   2.9356832540e+01    0.8942716    0.4329858 -40.55  0.003957487    1.908    0.476
       252 -10.3484    244.8619     51.1748   4.2642443117e+01   1.9456175561e+01    0.2403356    0.1893186 -86.43 0.0006386166    1.337    0.252
       253 -10.8947    240.5165     49.9567   4.2818158877e+01   2.0518789396e+01    0.3551559    0.2600834 -36.36  0.001083513    1.248    0.199
       254  -9.6282    211.5757     52.4511   4.6830717779e+01   2.6494074000e+01    0.2225898    0.1844207  57.93  0.001275174    1.287    0.223
       255 -10.7608    173.8016     48.1653   5.1239741666e+01   3.5990800450e+01    0.5149918     0.421837 -83.09  0.002769562    1.357    0.263
       256  -9.5622    176.7365     43.5948   4.9423141669e+01   3.5901022160e+01    0.2784695    0.2158365  74.14  0.001163712    1.331    0.249
       257  -9.8782     91.1320     47.9045   7.0440841129e+01   5.4778693580e+01    0.3131971    0.1817404 -42.73  0.001447913    1.860    0.463
       258  -9.5777      2.3800     48.6228   1.0608807241e+02   6.5652564380e+01    0.2337419    0.2154392 -28.36  0.001597691    1.275    0.216
       259  -9.2796    193.5430     45.9919   4.7579128188e+01   3.1564769634e+01    0.2423717    0.1734794 -79.39 0.0007937403    1.616    0.381
       260 -10.7791    135.4882     45.6942   5.7840689385e+01   4.5512787231e+01     0.553484    0.2082908  55.18  0.001684771    2.565    0.610
       261  -9.9051    139.5252     43.5237   5.6232495289e+01   4.4862751832e+01    0.2785616    0.2320497  43.50  0.001380205    1.157    0.136
       262  -9.4818    108.4670    229.9800   1.0734055626e+02   1.2485673494e+01    0.1714416    0.1213539 -62.23   0.00059425    1.561    0.359
       263  -8.7945    101.3328     44.6727   6.6137872073e+01   5.3237822140e+01    0.1479826    0.1313257   7.21 0.0004710085    1.020    0.020
       264 -11.0788     94.0983     41.1600   6.6922838477e+01   5.5225572298e+01    0.6890374    0.2856057  48.16  0.002792769    2.419    0.587
       265 -10.7842    198.5151    232.6672   8.9903589316e+01  -1.7085613642e+00    0.3826286    0.3009554  20.03  0.002479772    1.072    0.068
       266  -9.9418    233.9705    223.1581   8.1752647211e+01  -5.5158116489e+00    0.2381575    0.1441549  13.52  0.001142257    1.596    0.373
       267 -11.9420     26.8322     27.8309   8.7261055050e+01   6.7703939875e+01    0.5213178    0.4007793  17.77  0.002467839    1.402    0.287
       268  -9.3152      9.8522    217.8365   1.2535686545e+02   2.6780545864e+01    0.1588131   0.09771919  71.63  0.000745718    1.308    0.236
       269 -10.3621    164.9731    212.4331   9.3173459375e+01   6.8348470661e+00    0.2807042    0.2120668  48.01 0.0009404027    1.411    0.291
       270  -9.7252    153.2917    207.8600   9.4847486705e+01   9.5980443453e+00    0.2392787    0.1752109  45.18 0.0009998883    1.351    0.260
       271  -9.5681     61.1322    206.6898   1.1445079989e+02   2.3622889007e+01    0.2015399    0.1514541  85.58 0.0006057147    1.230    0.187
       272  -9.3919    188.9982     42.5040   4.7266846818e+01   3.3105204405e+01    0.2105913    0.1750807 -39.63 0.0004073445    1.176    0.150
       273  -9.8184     77.2120     42.2151   7.2787579685e+01   5.8253059074e+01    0.3454283    0.1809377 -30.19  0.001184656    1.824    0.452
       274  99.0000     86.1693     31.1555   6.5331761080e+01   5.8180217068e+01    0.4909542    0.2799565  45.97   0.00204007    1.719    0.418
       275 -10.3319     82.2419     40.3820   7.0358336104e+01   5.7623683987e+01    0.3568983     0.235425  54.54  0.001446257    1.929    0.482
       276 -11.0471     77.9065     34.8838   6.9557656432e+01   5.9226514567e+01    0.7242824    0.4988833   4.01  0.003845526    1.532    0.347
       277  -9.8381    231.5354     38.7129   4.1136735681e+01   2.3895255493e+01    0.2825723     0.161092 -38.20  0.001474254    1.557    0.358
       278 -10.6536    176.8436     29.9393   4.5445435795e+01   3.7572393205e+01    0.4617407    0.2373776  44.71  0.002041606    2.147    0.534
       279 -10.6820    238.3853    204.8260   7.7602445058e+01  -3.5738697891e+00    0.2622492    0.1796466 -23.94  0.001560145    1.290    0.225
       280 -11.0848    176.6967     36.1728   4.7271044446e+01   3.6860535238e+01    0.3604619    0.3318568  -6.41  0.001126988    1.188    0.158
       281 -10.0256    171.9989     32.9978   4.7049134656e+01   3.8381278264e+01    0.4128174    0.2065377  64.35  0.001827751    1.936    0.483
       282  -9.5100    133.2293     37.1332   5.5396927474e+01   4.7186951577e+01    0.3906405    0.2545791 -76.67  0.001657204    2.598    0.615
       283  -9.7589    193.7993     39.0291   4.5646861404e+01   3.2413996198e+01    0.2139708    0.1860257  73.98 0.0003576426    1.138    0.121
       284  -9.7864    207.2592     36.8345   4.3360526449e+01   2.9548691079e+01    0.3007606      0.19545  53.38  0.001573316    1.632    0.387
       285  -9.5881     94.6824     36.0741   6.4746305912e+01   5.5827419136e+01    0.2498268    0.1898246  63.99  0.001320743    1.714    0.416
       286  -9.7353      4.5158    204.4914   1.2557034438e+02   2.9978651670e+01    0.2258914   0.08762761 -77.36  0.001191423    2.113    0.527
       287 -12.0130    105.8551     32.7923   6.0335279002e+01   5.3921053381e+01    0.5726271    0.3152442  20.63  0.002341692    2.471    0.595
       288 -10.3565     16.7336    203.2927   1.2315698173e+02   2.9147513165e+01     0.269329    0.1374032 -85.00  0.001543677    1.685    0.407
       289  -9.2725    249.0000     33.9790   3.8412348084e+01   2.0833069369e+01    0.2031327   0.06209089 -32.13  0.000802475    2.943    0.660
       290 -10.6432    245.6531    200.9257   7.5588875486e+01  -4.0664605271e+00    0.2166132     0.151041  13.59 0.0007140751    1.326    0.246
       291 -10.3609    240.0776     31.6467   3.8689432277e+01   2.2957931904e+01    0.4371057    0.2795799 -28.40  0.002060279    1.610    0.379
       292  -9.3932    240.4766     26.4665   3.7495699698e+01   2.3493891915e+01    0.1762158   0.09670891 -44.00 1.786286e-05    1.553    0.356
       293  -9.0864    216.5557     32.4495   4.1202696946e+01   2.7972947997e+01    0.1289622    0.1157923 -65.14 8.361119e-05    1.009    0.009
       294 -10.6727    189.5064     27.7054   4.3122985120e+01   3.4800064960e+01     0.431437    0.2926941  12.27  0.002123842    2.150    0.535
       295  -8.7229    207.2750    201.3353   8.2689745148e+01   1.7651484031e+00    0.1370505    0.0927749  -3.84 0.0004700568    1.604    0.377
       296  -9.4007    221.7946     29.8010   4.0011786970e+01   2.7122134186e+01    0.1808701    0.1698864 -31.19 0.0006370709    1.198    0.165
       297  -9.1513     99.5310     30.4457   6.1124685238e+01   5.5562521667e+01    0.2207154    0.1553818  39.60 0.0005911738    1.319    0.242
       298  -9.9124     97.9119     26.7906   6.0108076020e+01   5.6348155534e+01    0.2848673    0.2093981 -35.17 0.0009355458    1.487    0.328
       299 -10.0166    230.5883     27.2429   3.8556212662e+01   2.5502331248e+01    0.3367306    0.1670776 -41.49   0.00135508    1.750    0.429
       300  -9.6684    211.4803     27.5019   4.0520558202e+01   2.9709261675e+01    0.2264379    0.1664577  -9.67  0.001026668    1.737    0.424
       301 -10.7399    234.2482    196.9779   7.6830357414e+01  -1.7965846430e+00    0.4170805    0.2880431   1.10  0.001656203    1.400    0.285
       302  -9.4479    250.5276     25.9201   3.6541465400e+01   2.1494555031e+01    0.1855441    0.1054929 -34.79   0.00103404    1.600    0.375
       303 -11.1130      6.1207    198.5754   1.2490735060e+02   3.1086957197e+01     0.273409    0.1440283 -68.95  0.001654405    1.678    0.404
       304  -8.7558    195.5880    199.7912   8.4687161834e+01   3.9420511543e+00    0.1804334     0.125956 -48.05 0.0009424979    1.703    0.413
       305  -8.9934     83.5431    195.9728   1.0834716215e+02   2.2988579978e+01    0.1889292    0.1227889 -64.55 0.0005071819    1.515    0.340
       306  -9.9342    169.8714    191.4838   8.8409018637e+01   9.8414670017e+00    0.3512669    0.2148528  22.91  0.001229423    1.854    0.461
       307  -9.2285     45.1009     24.6936   7.7568523842e+01   6.5974254132e+01     0.171826    0.1383023   0.08 0.0006068516    1.069    0.065
       308  -9.3789    168.8662     23.8401   4.4800310498e+01   4.0182077579e+01    0.2100898    0.1710856  42.19  0.000697386    1.276    0.216
       309 -10.2115     59.7499     23.8761   7.1266526802e+01   6.3879122903e+01    0.3011412    0.1961812  15.34  0.001661773    1.517    0.341
       310 -10.1666     60.0866     19.7675   6.9243153384e+01   6.4355704031e+01    0.2405958    0.1995503 -31.50  0.001130204    1.426    0.299
       311 -12.2468      4.9528    184.2836   1.2420528374e+02   3.4275937881e+01    0.5914708    0.4467261  81.58  0.003156873    1.058    0.054
       312  -9.2839    223.5321     22.0122   3.7990797423e+01   2.7642374377e+01    0.1945703    0.1511653  83.48 0.0006258801    1.247    0.198
       313 -10.0559    211.7860    182.2132   7.8047588425e+01   4.2023528028e+00    0.2403281    0.1482202  -0.63  0.001071963    2.155    0.536
       314  -9.3349     74.5138     19.5421   6.4060014241e+01   6.1839424251e+01    0.2238526    0.1633578  19.21 0.0006740143    1.234    0.189
       315 -10.3711    250.2581    178.5742   7.0380245959e+01  -1.4402167479e+00     0.471244    0.1412249 -31.33   0.00170323    3.247    0.692
       316 -10.2697     52.2611    173.7496   1.1271934325e+02   3.2095804753e+01    0.4267792    0.2198786 -86.00  0.001828064    2.262    0.558
       317  -9.8481    211.2668     18.9307   3.8420351804e+01   3.0722141644e+01    0.1963239    0.1663794  84.77 0.0003497346    1.121    0.108
       318  -8.6103    194.6437     19.2975   4.0256540376e+01   3.4517027899e+01    0.1396267   0.08843184 -66.41 0.0003117216    1.700    0.412
       319  -9.9585     27.8507    175.9032   1.1859730754e+02   3.4169113113e+01    0.2259037    0.1612764  62.46  0.001401399    1.342    0.255
       320  -9.8541    231.0733    175.4141   7.3055296011e+01   2.0978786332e+00    0.3962545    0.1262072  40.08  0.001468851    3.325    0.699
       321 -10.1817    186.3773     15.2042   4.0097727961e+01   3.6888809363e+01    0.2409102    0.2069486  86.93 0.0003612217    1.083    0.077
       322 -10.0204     14.0611     23.3899   9.1657809260e+01   6.9647997853e+01    0.3964493    0.3518744  25.48  0.001860887    1.604    0.377
       323  -9.9202    240.0546    184.5920   7.3346875618e+01  -7.9563691304e-01    0.2383726    0.1638933 -20.30 0.0005168995    1.263    0.208
       324  -9.8294    247.7077    173.9405   6.9858107523e+01  -3.3600894202e-01    0.4235709    0.1644404  27.34  0.001483906    4.165    0.760
       325  -9.9232     39.5087    173.4996   1.1568355090e+02   3.3562110727e+01    0.2316824    0.1426875 -62.81 0.0008628585    1.462    0.316
       326 -10.6799     35.7080    170.3060   1.1622085876e+02   3.4701687448e+01    0.4086366    0.2233383  89.70  0.001888762    1.887    0.470
       327 -10.0898      9.0321    156.4194   1.2110355399e+02   4.0308231406e+01    0.3126309    0.1654359 -61.97  0.001744971    1.608    0.378
       328 -11.6830      9.7388    167.1409   1.2187805603e+02   3.7762593400e+01    0.4610881    0.3451789  86.54  0.002102523    1.094    0.086
       329 -11.3755     13.6402    159.6712   1.2032024753e+02   3.9191450612e+01    0.4921784    0.2511009 -65.39  0.001607363    1.603    0.376
       330  -9.0650    197.9714    168.0045   7.7780927586e+01   9.1782838231e+00    0.1796314    0.1552789 -20.05 0.0007401503    1.060    0.056
       331  -9.6191    188.8043    164.0326   7.8794128619e+01   1.1635173480e+01    0.2921807    0.1818801 -17.66 0.0009997264    2.006    0.501
       332  -8.4782    156.3147    166.3121   8.6378115821e+01   1.7340809898e+01    0.1521451     0.114538  -5.37 0.0007032622    1.637    0.389
       333  -8.8683    152.4238    166.5242   8.7313843772e+01   1.8027313582e+01    0.1469426    0.1399578 -13.10 0.0001218254    1.013    0.012
       334 -10.2993     19.1809    164.8855   1.1952108203e+02   3.7513390022e+01    0.2756052    0.2623651  12.00  0.001429466    1.401    0.286
       335  -9.8493    205.0063    162.9901   7.5291557925e+01   8.8030177103e+00    0.2648056     0.201603  23.46 0.0005960735    1.346    0.257
       336  -9.6312    208.4806    160.5047   7.4067490130e+01   8.6140875207e+00    0.2448549    0.1751721 -25.72  0.000875067    1.306    0.234
       337 -10.6460     28.2779    161.9392   1.1707351563e+02   3.7397760352e+01    0.4731181       0.2186 -66.68  0.002346033    1.772    0.436
       338  -9.7666     78.6111    159.6431   1.0417454469e+02   3.2085206832e+01     0.271118    0.2230373  80.85 0.0008556765    1.270    0.213
       339  -9.5402    215.6398    157.8943   7.2124640835e+01   7.7683434627e+00    0.2398698    0.1650402 -18.07  0.001184157    1.471    0.320
       340  -8.7897    223.7629    156.9632   7.0418328013e+01   6.4630065443e+00    0.1911113    0.1067203 -34.47 0.0008561409    1.604    0.376
       341 -10.9620     22.0666    155.3254   1.1786480012e+02   3.9525054479e+01    0.4184518     0.345573  56.03   0.00112952    1.299    0.230
       342 -12.0457     15.7377    147.7060   1.1861423068e+02   4.1861462386e+01    0.6063338    0.4398752  36.71   0.00383211    1.608    0.378
       343 -11.5399     12.7163    138.1968   1.1834384712e+02   4.4368077813e+01    0.9908521     0.431395 -82.89  0.004533709    2.211    0.548
       344 -11.0822     21.2883    150.6945   1.1755219829e+02   4.0697991573e+01    0.2113959    0.1726631 -76.10 0.0003495669    1.043    0.041
       345 -11.7118     23.7295    148.5975   1.1670030858e+02   4.0995482958e+01    0.3905403    0.1997466 -51.86  0.001113917    1.880    0.468
       346 -10.4639    104.3324    154.0343   9.6526235802e+01   2.9476453325e+01    0.3685211    0.2846479 -54.54  0.001881529    1.236    0.191
       347  -9.9087     32.6585    154.4922   1.1514686648e+02   3.8767624088e+01    0.3117103    0.2086906  24.53  0.001516544    1.845    0.458
       348 -10.5913     30.6712    151.6817   1.1530739145e+02   3.9632646957e+01    0.2656636    0.2009035 -44.69  0.001338881    1.472    0.320
       349 -10.3083      3.6739    152.7067   1.2203670104e+02   4.1561392774e+01    0.4290958    0.1842687  80.77  0.001934314    2.644    0.622
       350 -11.0348      3.8492    147.5443   1.2153021751e+02   4.2760924539e+01    0.4464824    0.2582007  48.96  0.002010159    1.869    0.465
       351 -11.4871      3.0580    141.0221   1.2110917088e+02   4.4353046371e+01    0.6009282    0.3596223  76.67  0.002434911    1.665    0.399
       352  -9.6413     71.1731    151.3138   1.0471450295e+02   3.5132183211e+01    0.2815001    0.1924919  25.64   0.00141848    1.730    0.422
       353 -11.3060     45.7948    148.2457   1.1094356783e+02   3.8955210897e+01    0.6993588    0.4251124 -58.08  0.003658824    1.440    0.306
       354  -9.6824    215.1831    151.3840   7.0753295322e+01   9.0157059244e+00    0.1861828    0.1391292  52.39 0.0006430421    1.646    0.393
       355  -9.5549    234.3134    150.3878   6.7098343610e+01   5.7143524829e+00    0.2251671    0.1554096  -0.80  0.001123073    1.688    0.408
       356  -9.7476    239.7931    146.6121   6.5334473067e+01   5.3865768848e+00    0.2515537    0.1712811 -30.87 0.0006474883    1.255    0.203
       357 -10.7493    249.5317    142.6779   6.2887907439e+01   4.3540857630e+00    0.6482062    0.2072975 -33.45  0.002373654    2.785    0.641
       358 -10.7038     33.4460    144.4788   1.1367594944e+02   4.1122030553e+01    0.3932628    0.2428533  51.27  0.001923695    1.791    0.442
       359  -9.8252    132.8249    140.3712   8.6273082902e+01   2.7534649775e+01    0.3204771    0.2828473 -64.42  0.001083962    1.215    0.177
