#   1 NUMBER                 Running object number                                     
#   2 MAG_AUTO               Kron-like elliptical aperture magnitude                    [mag]
#   3 X_IMAGE                Object position along x                                    [pixel]
#   4 Y_IMAGE                Object position along y                                    [pixel]
#   5 X_WORLD                Barycenter position along world x axis                     [deg]
#   6 Y_WORLD                Barycenter position along world y axis                     [deg]
#   7 A_WORLD                Profile RMS along major axis (world units)                 [deg]
#   8 B_WORLD                Profile RMS along minor axis (world units)                 [deg]
#   9 THETA_WORLD            Position angle (CCW/world-x)                               [deg]
#  10 FWHM_WORLD             FWHM assuming a gaussian core                              [deg]
#  11 ELONGATION             A_IMAGE/B_IMAGE                                           
#  12 ELLIPTICITY            1 - B_IMAGE/A_IMAGE                                       
         1 -16.2071     69.3171    143.9633   9.9284270331e+01   3.7405224558e+01      4.58869     2.294447  70.96  0.003252112    5.514    0.819
         2 -13.8762    204.8955     35.4249   3.8410917002e+01   2.9904878136e+01    0.6447511    0.5978703  64.40  0.001365993    1.235    0.191
         3 -14.0520    229.5462      8.8606   3.0243113498e+01   2.7582247450e+01    0.8212955    0.6480812 -69.53  0.004270724    1.031    0.030
         4 -11.0544     64.0072      9.2325   5.8067213051e+01   6.5197595459e+01    0.1671583   0.08998906  46.63 0.0005823239    1.635    0.388
         5 -11.3520     16.4994      2.5026   7.6588573451e+01   7.3176288043e+01    0.1161955   0.08460971  -2.22 -0.0001479521    1.000    0.000
         6  -9.9075     66.2130    241.6812   1.1267310930e+02   1.4884769544e+01    0.1186761   0.07797262  69.84 0.0001954166    1.484    0.326
         7 -13.4700     28.4167    215.6489   1.1842328440e+02   2.4861421779e+01    0.5817007    0.2658382  76.83  0.002725631    2.399    0.583
         8 -18.3858     18.7600    230.1105   1.2133351100e+02   2.2779764618e+01     7.845933     4.666894  38.44   0.04889353    1.610    0.379
         9 -11.5533     17.0608    199.0514   1.1965367734e+02   2.9717644271e+01     0.432552    0.1538986  51.21  0.001938085    2.587    0.614
        10 -14.0719    112.7188    196.2039   9.6532437908e+01   1.7745519856e+01    0.6948902    0.5006714   3.20  0.003248951    1.943    0.485
        11 -11.2211     60.4676    198.0387   1.0956073156e+02   2.5115634115e+01    0.2258354    0.1804605  45.41 0.0003271932    1.211    0.174
        12 -13.0132     48.2315    195.1927   1.1217333751e+02   2.7306306625e+01    0.4174781    0.2955529 -42.24  0.001197817    1.795    0.443
        13 -11.5971     34.1029    190.0630   1.1501993855e+02   3.0113806668e+01    0.7284212    0.2785722  64.64  0.002578244    3.807    0.737
        14 -11.6317    148.9396    191.4889   8.6957925994e+01   1.2471274865e+01    0.3592926     0.212345 -71.58   0.00131309    3.191    0.687
        15 -10.0932     21.3484    192.0907   1.1816402003e+02   3.0920694973e+01    0.1716683     0.130599  86.19 0.0004657654    1.097    0.089
        16 -13.4974     58.4756    183.6374   1.0833361315e+02   2.8824101664e+01    0.8823967    0.6742311  31.56  0.004898744    1.412    0.292
        17  -9.9356     47.2825    186.3889   1.1145589361e+02   2.9524622558e+01    0.1779131    0.1113975  47.05 0.0003292132    1.537    0.349
        18 -11.0629     37.7034    185.3227   1.1369045838e+02   3.0863573359e+01    0.2652023    0.1812304  81.42  0.001123982    1.389    0.280
        19 -10.8474     39.8989    182.7969   1.1288947255e+02   3.1235555004e+01    0.2609988    0.2033659  69.96  0.001060403    1.189    0.159
        20 -11.7408     99.3246    180.8403   9.7397836655e+01   2.3544524004e+01     0.284573    0.2516785 -43.36  0.000623932    1.208    0.172
        21 -10.0476     69.5936    183.7672   1.0551991893e+02   2.7317802989e+01    0.1871552    0.1278287 -82.66 0.0003153218    1.528    0.346
        22 -10.9207     61.6925    250.5053   1.1432903737e+02   1.3749134853e+01     0.376234    0.1329225  33.66  0.001683598    2.618    0.618
        23 -13.6790     84.1816    158.2730   9.7580149319e+01   3.1549347385e+01    0.9044508    0.7203594 -66.98   0.00461598    1.230    0.187
        24 -13.7478     72.9345    152.3664   9.9736283923e+01   3.4735819910e+01    0.5590116     0.456485 -72.53  0.001065096    1.188    0.159
        25 -11.8642     72.0028    246.0328   1.1187892302e+02   1.3268543752e+01    0.3991896    0.2233456 -71.05  0.002213959    1.964    0.491
        26 -11.0244    185.9936    173.6435   7.4969809442e+01   9.3398807062e+00    0.3217395    0.2794061  44.85  0.001247309    1.281    0.219
        27 -11.8637     56.9888    211.2094   1.1178332817e+02   2.2532219421e+01     0.414737    0.2783137  47.38 0.0006751066    1.347    0.258
        28 -12.5974     72.4645    170.1714   1.0279995386e+02   3.0283673184e+01    0.4486868    0.3086888 -34.92  0.001736084    1.821    0.451
        29 -12.3605     76.3241    165.9534   1.0108249618e+02   3.0790139948e+01    0.3605552    0.2863296 -32.86 0.0008462039    1.482    0.325
        30 -11.8664     65.8877    179.2150   1.0585404702e+02   2.8939531649e+01    0.3439946    0.2408158  65.90 0.0008604472    1.504    0.335
        31 -11.1953     54.7916    206.5833   1.1181557509e+02   2.3857079037e+01     0.306856    0.2047466  81.36 0.0009669253    1.501    0.334
        32 -10.9550     50.1888    217.3372   1.1388340909e+02   2.2013188254e+01    0.3555972    0.1921703  23.25  0.001721601    2.363    0.577
        33 -10.9108     32.3338    165.3491   1.1291077595e+02   3.6335075499e+01    0.2572245    0.1463149 -76.19 0.0008339153    1.574    0.364
        34 -11.6320     89.7650    152.4416   9.4905620284e+01   3.2139172247e+01    0.3655855    0.3092293 -15.79 0.0008316319    1.397    0.284
        35 -11.7925     92.5953    148.7988   9.3374373784e+01   3.2594789665e+01    0.3979166    0.3406402  69.58  0.001772047    1.274    0.215
        36 -14.0933     53.8756    147.1163   1.0441389364e+02   3.8611046482e+01    0.7265747    0.6955053  89.69    0.0043422    1.071    0.066
        37 -11.9394    134.0000    144.9943   8.1046739762e+01   2.5844521454e+01     1.080594    0.3167143 -56.75  0.002205804    7.226    0.862
        38  -9.9464    110.3314    148.6722   8.8307717801e+01   2.9521659346e+01    0.1624079     0.123261  76.43 0.0007051461    1.713    0.416
        39 -12.5075     40.9449    146.9041   1.0816728218e+02   4.0129948682e+01    0.3249682    0.2627796 -60.88  0.001810565    1.130    0.115
        40 -11.3857    104.4367    137.2169   8.7457533846e+01   3.3430772448e+01    0.5763193    0.3114374 -29.96  0.001979526    2.804    0.643
        41 -11.3774    106.0311    130.8132   8.5503157236e+01   3.4714005110e+01    0.4011773    0.3304474 -60.21  0.001401949    1.243    0.196
        42 -12.2083     44.4323    138.7752   1.0589795038e+02   4.1842482293e+01    0.2449529     0.198782 -79.77 0.0007664384    1.167    0.143
        43 -12.3148     91.8493    136.8951   9.1100119597e+01   3.5723063621e+01     0.300236    0.2662858 -42.21 0.0003890324    1.112    0.101
        44 -13.9665     42.9985    126.4944   1.0428661714e+02   4.5143823408e+01    0.6114725    0.5271317  34.01  0.003052909    1.297    0.229
        45 -11.3307    112.7921    128.6352   8.3008483825e+01   3.3957523671e+01    0.3102103    0.2445584 -17.68 0.0007875446    1.502    0.334
        46 -11.1155    100.0615    124.5637   8.5778413589e+01   3.7345551630e+01    0.2925421    0.2438485 -16.01  0.000697586    1.352    0.260
        47 -10.1240    108.6697    118.0122   8.1546667070e+01   3.7302435742e+01    0.2174226    0.1955576 -43.02 0.0004312576    1.082    0.076
        48 -13.2453     45.9921    109.7665   1.0006218702e+02   4.9044998814e+01     0.416998    0.3713118  19.89  0.001551245    1.250    0.200
        49 -14.0256     43.4784    114.1642   1.0182497931e+02   4.8217751929e+01    0.7850106    0.4088404  45.06  0.003435296    2.304    0.566
        50 -12.1117     41.5151    108.9976   1.0146106133e+02   4.9715099244e+01    0.3097476    0.1899262 -65.59  0.001498623    1.530    0.346
        51 -12.9449     53.5959    109.4412   9.7351745251e+01   4.8242961545e+01    0.5012493    0.2756408 -61.26  0.002224767    1.717    0.418
        52 -10.4925     88.6669    209.9720   1.0431311569e+02   1.8442025590e+01     0.190635    0.1671177 -78.55 0.0005091254    1.171    0.146
        53 -10.5933    231.2178    113.9304   5.3162177327e+01   1.1995146710e+01    0.2133062    0.2070917  70.64 0.0007781654    1.178    0.151
        54 -10.1037    205.5992    110.2343   5.6534049137e+01   1.7855618183e+01    0.2027159    0.1334585 -30.66 0.0005683687    1.541    0.351
        55 -11.5139     55.5061     95.0396   9.3221795387e+01   5.1499689751e+01    0.2640374    0.1964331  47.39 0.0008738714    1.614    0.381
        56 -10.6735    156.4686     88.5161   6.0672475852e+01   3.3132373200e+01    0.3384328     0.226512 -75.33 0.0009795175    2.322    0.569
        57 -12.0047     13.4035     59.7968   1.0111216529e+02   6.3490483420e+01    0.2192099     0.207913 -28.53 0.0004443007    1.240    0.194
        58 -12.9226    184.6540     52.9223   4.5505761365e+01   3.2287172337e+01    0.4164016    0.3721035  45.06 0.0007669935    1.252    0.201
        59 -13.9192    196.9643     43.0409   4.1233915108e+01   3.0747198048e+01    0.8362721    0.8005918 -66.64  0.003141072    1.140    0.122
        60 -16.4837      2.8124    103.2419   1.1390193060e+02   5.4064999245e+01     12.99393     1.634757 -72.43   0.02910938    8.544    0.883
        61 -13.2800    122.6159    199.5865   9.4674845191e+01   1.5329379632e+01    0.4293327    0.3301248 -80.72  0.002175088    1.616    0.381
        62 -11.8409    192.2997    193.4180   7.7633674590e+01   4.4120726000e+00    0.5794628    0.3021807 -61.47  0.001818654    4.959    0.798
