#   1 NUMBER                 Running object number                                     
#   2 MAG_AUTO               Kron-like elliptical aperture magnitude                    [mag]
#   3 X_IMAGE                Object position along x                                    [pixel]
#   4 Y_IMAGE                Object position along y                                    [pixel]
#   5 X_WORLD                Barycenter position along world x axis                     [deg]
#   6 Y_WORLD                Barycenter position along world y axis                     [deg]
#   7 A_WORLD                Profile RMS along major axis (world units)                 [deg]
#   8 B_WORLD                Profile RMS along minor axis (world units)                 [deg]
#   9 THETA_WORLD            Position angle (CCW/world-x)                               [deg]
#  10 FWHM_WORLD             FWHM assuming a gaussian core                              [deg]
#  11 ELONGATION             A_IMAGE/B_IMAGE                                           
#  12 ELLIPTICITY            1 - B_IMAGE/A_IMAGE                                       
         1 -12.2813    178.9606     40.2502   6.4262829686e+01   3.5475361568e+01     1.398766     1.051325  10.52  0.004763087    1.553    0.356
         2 -11.4188    201.4862      9.4082   5.1049846367e+01   3.3139473674e+01    0.7355337    0.5407607   6.49  0.003026706    1.570    0.363
         3 -11.7555    196.9221      6.4015   5.0579849511e+01   3.4641288257e+01     1.065896    0.7281181   2.82  0.004947258    1.707    0.414
         4  -9.0482    120.2327      9.2463   6.3428740038e+01   5.4439675738e+01    0.3740254    0.3041317   0.04  0.001264238    1.191    0.161
         5  -8.2951      2.7516      6.2387   1.0779680348e+02   7.3933038490e+01    0.1528913   0.08274174  -5.22  0.000887639    2.431    0.589
         6  -7.4272    145.8096      4.0644   5.6444236471e+01   4.8488461041e+01    0.1871418    0.1096584 -19.91 0.0002933526    1.694    0.410
         7  -8.2643     15.7916    179.2773   1.3115953667e+02   3.5964995033e+01    0.1699546    0.1404281  37.58   0.00137199    1.645    0.392
         8  -8.9980    245.8517    249.5930   9.9721737437e+01  -6.0430549794e+00    0.1404795    0.1092662  -7.84 0.0007169425    1.443    0.307
         9 -11.9952    234.4243    248.9956   1.0129576016e+02  -4.4407253207e+00    0.2059762    0.1479261  33.85 0.0003321998    1.171    0.146
        10 -13.4238     11.8878    206.7204   1.3317849585e+02   3.1349715955e+01     1.818781     1.585812  51.10   0.01647333    1.580    0.367
        11 -15.1259     30.6796    223.5416   1.3097079447e+02   2.6676787628e+01     1.270934     0.949948  17.65  0.009338896    2.701    0.630
        12 -17.9689     38.9641    244.2207   1.3070579566e+02   2.2587875049e+01     3.346394      2.81441  58.84   0.01325107    1.466    0.318
        13  -8.7954      1.7097    178.0384   1.3363473879e+02   3.7430402057e+01    0.1427989   0.09759128  81.04 0.0003516997    1.049    0.047
        14  -8.3237    204.6880    177.1258   9.4891349518e+01   8.0318649926e+00    0.2178688    0.1649508  49.76  0.001051597    1.368    0.269
        15  -8.0414    250.5044    175.4787   8.7042286367e+01   2.6402611490e-01    0.1217033   0.09951388  11.54 0.0001408771    1.049    0.046
        16  -9.8024    119.3810    200.4897   1.1392478284e+02   1.9074850015e+01    0.2879596    0.2196406 -78.57 0.0009897944    1.449    0.310
        17  -8.7004    134.0209    173.2997   1.0744574625e+02   2.1349743608e+01    0.1868443    0.1484016  54.63   0.00109287    1.127    0.113
        18  -8.3434    123.7134    172.8057   1.0941771134e+02   2.3185024673e+01     0.236122     0.141229  31.45  0.001183503    2.063    0.515
        19  -9.9635    184.0592    212.9290   1.0422147936e+02   6.8691757539e+00    0.2725266    0.2061048  43.19  0.001130995    1.116    0.104
        20  -9.1699    240.2745    171.8009   8.7944875497e+01   2.4117901441e+00    0.2658726    0.1889197  49.00 0.0009517107    1.597    0.374
        21  -7.7674     11.2516    170.9675   1.3153004066e+02   3.7972779596e+01     0.152768    0.1006257  86.08 0.0006538676    1.126    0.112
        22  -9.5539    193.4266    196.4259   1.0014004136e+02   7.4297230900e+00      0.71422    0.3786174 -62.08  0.002494416    6.418    0.844
        23  -9.1366    241.2389    167.0347   8.6862611988e+01   2.8117234332e+00    0.2193302    0.1613997  32.68 0.0002014019    1.230    0.187
        24  -8.3424    192.7433    165.8677   9.4924473316e+01   1.1840297160e+01     0.232074    0.1648086  32.22 0.0009581792    1.328    0.247
        25  -8.4429    162.6713    163.9439   1.0023809394e+02   1.7819824711e+01    0.2217552    0.1701658  43.90 0.0005412112    1.192    0.161
        26  -8.8957    108.7966    161.0024   1.1070727725e+02   2.7880980044e+01     0.647239    0.2912383  66.77  0.002073468    4.992    0.800
        27 -14.1750     33.8483    233.5805   1.3096672246e+02   2.4749479776e+01    0.3134993    0.1786805  44.84  0.001442346    1.567    0.362
        28  -8.4789     24.7885    163.0368   1.2840143763e+02   3.8304504318e+01    0.1526291    0.1112173  82.06 0.0004632958    1.014    0.014
        29  -9.4097     14.1376    161.0914   1.3037998200e+02   3.9673933120e+01    0.3175649    0.2579037  30.34  0.001869925    1.733    0.423
        30  -9.0574     11.4586    157.6845   1.3069388437e+02   4.0592797550e+01    0.1804922    0.1545941  55.95  0.001462836    1.394    0.283
        31  -8.7560    241.3527    161.9913   8.5840683328e+01   3.4016012715e+00    0.1853105    0.1602261  27.53 0.0002109847    1.182    0.154
        32  -7.1899    250.7184    161.7077   8.4311658621e+01   1.7982756210e+00     0.127025   0.08229467  11.91 0.0001990104    1.532    0.347
        33 -10.1537    209.3729    159.9234   9.0785648244e+01   9.5580201823e+00    0.2284844     0.206947  26.06   0.00031014    1.082    0.076
        34  -8.9545     98.0046    158.8429   1.1267224918e+02   3.0019022450e+01    0.2032927    0.1707437 -70.31 0.0003377045    1.195    0.163
        35 -10.1911    101.9461    153.1126   1.1096586287e+02   3.0561020114e+01     0.525775    0.3545163 -42.86  0.001340318    1.867    0.464
        36  -9.6389    107.5181    148.9686   1.0908426910e+02   3.0503730172e+01    0.3284663    0.2691629 -70.94  0.001543918    1.189    0.159
        37  -9.6878     10.9205    153.8450   1.3055465331e+02   4.1419398764e+01    0.3087578    0.1954828  33.47 0.0007172839    1.933    0.483
        38 -10.6000     27.7609    151.3215   1.2687200356e+02   4.0426045852e+01    0.4733107     0.234615  31.62  0.002715397    2.448    0.592
        39  -9.1424     19.3167    151.3034   1.2864627325e+02   4.1215022788e+01    0.2181971    0.1359017  39.08 0.0009698775    1.780    0.438
        40  -8.3774     15.7079    151.7885   1.2943228933e+02   4.1433252830e+01    0.2317722   0.07742631  39.10 0.0009531027    2.776    0.640
        41 -10.7605     28.6612    157.5892   1.2720002761e+02   3.9038752609e+01     0.391678    0.2825221  46.67  0.002252368    1.468    0.319
        42 -10.0054     22.6836    157.2771   1.2840017831e+02   3.9674713779e+01    0.3744432    0.2075747  83.72  0.001128507    1.486    0.327
        43  -7.7615     49.4482    158.2240   1.2293018527e+02   3.6697195450e+01    0.1638587   0.09305026 -88.68  0.000680789    1.618    0.382
        44 -10.2475     44.3097    155.3333   1.2372909008e+02   3.7876784702e+01     0.392479     0.173583  37.20  0.002039987    2.378    0.579
        45  -9.4290     36.4736    154.4482   1.2530378882e+02   3.8900838948e+01    0.3304241    0.1208104  44.36  0.001688262    2.470    0.595
        46  -9.0428    114.1619    150.5966   1.0790225068e+02   2.9062164943e+01    0.2988684    0.2271298  28.29  0.001185898    1.642    0.391
        47  -9.0772     95.1987    150.9229   1.1210613144e+02   3.2069199971e+01    0.2082938    0.1738417  51.70            0    1.206    0.171
        48  -9.3509    133.5278    145.8640   1.0286465313e+02   2.6568431440e+01    0.7687324    0.2048248 -54.04   0.00230376    4.703    0.787
        49  -9.0634      1.9160    148.0481   1.3203085073e+02   4.3326421347e+01    0.2040258    0.1170542 -80.85 0.0006398028    1.344    0.256
        50 -11.2675      6.6417    145.0179   1.3085792824e+02   4.3587930323e+01    0.5221497    0.4249959 -84.71  0.004136717    1.236    0.191
        51 -11.5828      8.5124    133.1911   1.2960681052e+02   4.5939955095e+01    0.7929649    0.2393734 -75.00  0.003806186    2.480    0.597
        52 -11.1635      2.8098    130.2044   1.3066869516e+02   4.7001947671e+01     1.071362    0.2225726 -70.43  0.004614243    3.217    0.689
        53  -8.8124      1.5149    118.0312   1.3004603324e+02   4.9721315662e+01    0.2944929    0.1431736 -88.29   0.00111739    1.608    0.378
        54 -11.0382      3.7471    113.2639   1.2909999649e+02   5.0617139087e+01    0.6657152    0.3548329  84.62  0.004023657    1.576    0.365
        55  -9.5511    173.3426    215.2635   1.0634703406e+02   8.3022553928e+00    0.4266455    0.1090666  39.46  0.001611791    3.664    0.727
        56  -9.7900    134.0832    193.5554   1.1034998844e+02   1.7881497282e+01    0.3495557    0.2289283 -88.64  0.001912722    2.209    0.547
        57  -8.7757    142.3103    145.6680   1.0095155865e+02   2.4960940496e+01    0.2901028    0.1735014  78.62  0.001087364    3.349    0.701
        58  -8.5974    139.3238    145.6833   1.0158915099e+02   2.5522534893e+01    0.2352874    0.1240298  49.67 0.0006315637    1.845    0.458
        59  -8.7788    228.7725    142.4448   8.3789362422e+01   8.2742445192e+00    0.2316803    0.2026304   4.81 0.0002820948    1.012    0.012
        60  -8.9795    112.3180    137.0239   1.0591489900e+02   3.2164172094e+01    0.3129829    0.2019874 -43.42  0.001479182    1.752    0.429
        61  -9.7850    110.7870    141.7833   1.0712669406e+02   3.1435946517e+01    0.3478099    0.2793279 -32.35 0.0003926359    1.622    0.383
        62  -8.4790    107.4781    140.5035   1.0764819198e+02   3.2261631140e+01    0.2431452    0.2051319  64.99 0.0006821748    1.127    0.112
        63  -7.7165    214.4165    141.2542   8.5977154228e+01   1.1277538435e+01    0.1760414    0.1254962 -40.21 0.0002621051    1.521    0.342
        64  -7.6639    157.0263    140.9947   9.6923571173e+01   2.2974223016e+01    0.1632116    0.1550371  49.21 0.0003296695    1.011    0.011
        65  -9.4771     20.2937    141.1975   1.2763116309e+02   4.3254786232e+01    0.1724196    0.1139658 -67.45 0.0008207877    1.426    0.299
        66  -9.1306    156.1014    191.4681   1.0600048557e+02   1.4537655207e+01    0.4051125    0.2392635 -71.64  0.001913285    3.079    0.675
        67  -9.8248    100.7873    137.9651   1.0873394912e+02   3.3903382676e+01    0.2535565    0.2278248  55.82 0.0005253281    1.155    0.134
        68  -9.2400     81.6302    130.4213   1.1196673870e+02   3.8503617883e+01    0.3889236    0.1838246  56.59  0.001689625    2.473    0.596
        69  -9.0694    117.5223    129.5471   1.0326695355e+02   3.2811556956e+01    0.2598789    0.2291613 -13.39  0.001174686    1.470    0.320
        70  -7.8577     95.4831    127.0810   1.0802344816e+02   3.7111107720e+01    0.1983886    0.1248236 -61.00 0.0004404084    1.500    0.333
        71  -8.8155    105.7365    125.6710   1.0527799467e+02   3.5713714452e+01    0.2449227    0.2097799 -23.82 0.0005425772    1.521    0.343
        72  -9.3033     21.1632    125.8228   1.2602580677e+02   4.6514225076e+01    0.1952399    0.1498995  61.15 0.0007395124    1.305    0.233
        73 -10.8179     39.7321    121.1995   1.2094180842e+02   4.5796721125e+01    0.4557329    0.2099065 -60.41  0.002348915    1.872    0.466
        74 -11.0110     34.5511    118.6358   1.2192041392e+02   4.6893630581e+01    0.4201016    0.3032738  82.47  0.002000316    1.227    0.185
        75  -9.4343     98.7373    192.7010   1.1683216903e+02   2.3504821682e+01    0.2455793    0.1782404  53.99 0.0009193116    1.165    0.142
        76  -7.6217    112.1680    119.1477   1.0237521687e+02   3.5991612945e+01    0.1886033    0.1554005  84.74 0.0003156024    1.290    0.225
        77  -9.5973     54.2648    118.3157   1.1684072121e+02   4.4845226512e+01    0.2370313    0.1849144  85.93 0.0005449315    1.162    0.139
        78  -7.7351    183.2737    208.5923   1.0373097344e+02   7.5492193671e+00    0.1089943   0.08795171  78.54 0.0006975118    1.770    0.435
        79  -8.3118     13.6481    115.6969   1.2685671427e+02   4.9367486981e+01    0.1123835   0.07340149 -52.57 0.0007039952    1.703    0.413
        80  -7.8083    167.1820    113.1635   8.8417030712e+01   2.6022541756e+01    0.2094231    0.1771309 -70.57 0.0007253775    1.385    0.278
        81  -9.2419     20.1397    108.1509   1.2436597377e+02   5.0548986309e+01    0.1747752    0.1324653 -68.80 0.0006017218    1.183    0.155
        82  -9.0762     64.7522    106.3933   1.1203027594e+02   4.6270295222e+01    0.1621669    0.1312423  21.67  0.000949528    1.646    0.392
        83  -7.7154     43.4486    102.5055   1.1722396851e+02   4.9677617576e+01    0.1278556    0.1026172 -73.61 0.0001479421    1.028    0.028
        84  -7.8429     66.7903     99.3682   1.1008242819e+02   4.7615627282e+01    0.1634621    0.1312893  21.28 0.0004099759    1.645    0.392
        85  -8.4503    170.4846     95.0338   8.2935986171e+01   2.8615016989e+01    0.2125681     0.202886  42.37 6.275078e-05    1.073    0.068
        86  -7.3568    133.0556     94.0256   9.1090025090e+01   3.7212463231e+01    0.1757331    0.1618826 -47.00 0.0009390287    1.041    0.039
        87  -9.3797    226.5511     87.2983   7.0703267692e+01   1.6707587727e+01    0.2515671    0.2317289   8.04 0.0004531197    1.074    0.069
        88  -8.0109    231.2648     83.4577   6.8964710355e+01   1.6186713990e+01    0.2575308    0.1364538  50.42  0.001051461    1.976    0.494
        89  -7.5678    160.6884     80.3113   8.0748040388e+01   3.3617697846e+01    0.1576061    0.1214044 -69.84 0.0003808108    1.628    0.386
        90  -8.4339    113.4367     76.4851   9.1026473391e+01   4.4892959796e+01     0.242818    0.2274141 -43.51  0.001345175    1.015    0.015
        91  -8.9800    170.1661     68.2014   7.5040480200e+01   3.3429762264e+01    0.2335349    0.2113524   4.93 0.0005775638    1.153    0.133
        92 -11.3657    164.9584     54.7377   7.1697377774e+01   3.6956306759e+01       0.7171    0.6141091 -86.82  0.002008515    1.360    0.265
        93  -8.0861    155.6610     61.2830   7.5800139538e+01   3.8210778028e+01    0.1576446    0.1215092 -70.43 0.0004487236    1.628    0.386
        94 -10.3319    126.6680     54.4203   8.0178914166e+01   4.6329303927e+01    0.2709549     0.249975 -24.23  0.000259889    1.025    0.025
        95  -7.1565    137.5611     51.4450   7.6455928861e+01   4.4298940830e+01    0.1534001    0.1445757 -15.63 8.727657e-05    1.022    0.022
        96 -10.4322    123.9979    206.0010   1.1374463450e+02   1.7475893884e+01    0.1659055    0.1341501  56.80            0    1.005    0.005
        97 -11.1121    183.4055     33.4751   6.1273356450e+01   3.5204231983e+01    0.6463209    0.5097803   6.18  0.001581833    1.412    0.292
        98  -8.8839    222.1842     38.7893   5.7622995345e+01   2.4454317285e+01    0.3485463    0.2366395 -17.55  0.001150426    1.474    0.321
        99  -8.7498    195.8388     31.7682   5.8893224007e+01   3.2129047204e+01    0.2278638    0.1970112  28.49 0.0004483809    1.239    0.193
       100  -7.6384    168.4185     21.8171   5.9566370875e+01   4.0632855825e+01    0.1992168    0.1428931  -2.69 0.0002416992    1.539    0.350
       101  -7.7866    125.5484    186.5015   1.1100089467e+02   2.0452288914e+01    0.1224912    0.1038666  61.16 9.936815e-05    1.018    0.017
       102 -13.7465     12.1645    246.0002   1.3460899436e+02   2.5038176028e+01    0.4753691    0.4536927 -35.68  0.004661606    2.224    0.550
       103  -8.2813    222.6862    179.9573   9.2346702920e+01   4.4730321597e+00    0.1698843    0.1457268  13.56 0.0005368983    1.056    0.053
       104  -8.5906    161.9761    177.9273   1.0278911022e+02   1.5643304077e+01    0.3847214    0.2475847 -72.87  0.001863355    2.615    0.618
