#   1 NUMBER                 Running object number                                     
#   2 MAG_AUTO               Kron-like elliptical aperture magnitude                    [mag]
#   3 X_IMAGE                Object position along x                                    [pixel]
#   4 Y_IMAGE                Object position along y                                    [pixel]
#   5 X_WORLD                Barycenter position along world x axis                     [deg]
#   6 Y_WORLD                Barycenter position along world y axis                     [deg]
#   7 A_WORLD                Profile RMS along major axis (world units)                 [deg]
#   8 B_WORLD                Profile RMS along minor axis (world units)                 [deg]
#   9 THETA_WORLD            Position angle (CCW/world-x)                               [deg]
#  10 FWHM_WORLD             FWHM assuming a gaussian core                              [deg]
#  11 ELONGATION             A_IMAGE/B_IMAGE                                           
#  12 ELLIPTICITY            1 - B_IMAGE/A_IMAGE                                       
         1 -13.7990    244.8311    157.9793   9.4178931977e+01   5.8839985612e+00     2.031393    0.8135807 -36.04  0.009595076    2.519    0.603
         2 -14.3649    199.3965     17.1178   6.5568904421e+01   3.2910537276e+01     2.248909     1.304104  36.05  0.008843448    2.143    0.533
         3 -13.9489    204.5443      9.9797   6.3043759339e+01   3.2367809454e+01     2.736943     1.342871  22.15  0.001419088    3.655    0.726
         4 -13.6366      5.9506     10.2961   1.2658100885e+02   7.4745375759e+01     1.860295    0.6929377 -48.45  0.008922011    1.968    0.492
         5 -10.9672    104.0212    238.3251   1.3295394760e+02   1.4875711588e+01    0.4072468    0.1974556  24.31   0.00223779    2.136    0.532
         6  -9.2423    205.3256    250.3230   1.1593184348e+02   7.4837101025e-01    0.1105845   0.06172252   9.89 0.0007048101    1.687    0.407
         7 -11.3868    150.1586    248.2720   1.2533219589e+02   7.7912282962e+00    0.3831871    0.2274688  35.27  0.002330968    1.280    0.219
         8 -10.8479    143.2867    249.3690   1.2669681222e+02   8.5131582577e+00    0.2794387    0.1864226  45.65  0.001789143    1.496    0.331
         9 -11.9734    143.4299    244.8388   1.2619038957e+02   9.0697637282e+00    0.5154797     0.138777  37.07  0.002360126    2.712    0.631
        10 -11.2461    146.2054    240.6924   1.2522309876e+02   9.2517573861e+00    0.2468471    0.1658472  36.61 0.0004088034    1.209    0.173
        11 -11.4731    136.1901    227.7875   1.2566167923e+02   1.2314013889e+01    0.3035106    0.1819071 -37.89  0.001876805    2.109    0.526
        12 -11.1138    135.7948    240.9696   1.2719443422e+02   1.0543830440e+01    0.2146658    0.1695564   4.21  0.000688513    1.381    0.276
        13 -12.2568    135.3060    236.7218   1.2683084418e+02   1.1181075933e+01    0.3507386    0.2842444 -23.05  0.001288178    1.513    0.339
        14 -12.3031    110.8396    247.7515   1.3250536279e+02   1.2709441013e+01     0.817463    0.3529534  39.93  0.004361455    1.721    0.419
        15 -11.8841     99.2651    246.9552   1.3458517610e+02   1.4196459558e+01     0.494507    0.3802155  33.50  0.003858066    1.090    0.082
        16 -11.8736     95.8833    238.0608   1.3448642985e+02   1.5892882961e+01    0.6392959    0.3526375  84.85  0.003451233    3.328    0.699
        17 -11.2416    133.5635    249.3480   1.2846822041e+02   9.7222087597e+00    0.4717711    0.1672726  42.55  0.002431327    2.375    0.579
        18 -11.1882    124.5057    249.4592   1.3013970408e+02   1.0821268840e+01     0.511548    0.1958583  27.98  0.002598756    2.409    0.585
        19 -12.6476    125.5533    241.7540   1.2919605890e+02   1.1729467551e+01    0.5890724    0.4075313   8.03  0.003974485    1.716    0.417
        20  -9.7701     93.7650    217.6048   1.3307507740e+02   1.9373665495e+01    0.2409039    0.1661825 -87.42  0.001542088    1.893    0.472
        21 -10.7572     92.7445    226.0654   1.3406057790e+02   1.8122958557e+01    0.2388039    0.1601248  43.43 0.0004136022    1.197    0.164
        22 -12.1654     98.8352    223.3954   1.3259662600e+02   1.7801270687e+01     0.468104    0.2490648  30.02  0.001516417    1.628    0.386
        23 -10.6588     88.0716    250.5645   1.3692719999e+02   1.4973471922e+01    0.4182762    0.1614293  29.72  0.001804281    2.240    0.554
        24 -10.6154     87.5452    247.4949   1.3679885011e+02   1.5474192610e+01    0.2710857    0.1138362  26.72   0.00145053    2.353    0.575
        25 -11.1676     80.9971    245.9895   1.3790170457e+02   1.6433218347e+01    0.3862264     0.225625  79.18  0.002491095    2.341    0.573
        26 -11.0529     89.9334    236.2724   1.3547887083e+02   1.6866282010e+01     0.356566    0.1996783  47.45  0.002302157    1.489    0.328
        27 -10.1023     83.7472    242.0200   1.3710124859e+02   1.6712796231e+01    0.2587527    0.1677969  20.27   0.00174341    1.681    0.405
        28  -9.9727     83.5186    238.4427   1.3687605048e+02   1.7279471514e+01    0.2981998    0.1213222  40.08  0.001698543    1.799    0.444
        29 -10.0870     86.2999    237.2902   1.3625658583e+02   1.7134849277e+01    0.1806263    0.1566002  78.97  0.001361215    1.327    0.246
        30  -9.3950     74.7862    250.6004   1.3935265547e+02   1.6443102295e+01    0.2056937   0.08137413  30.26  0.001146836    2.139    0.533
        31 -13.0674     28.3441    225.8661   1.4663715751e+02   2.5035434568e+01     1.418658     0.409001  47.69  0.007561542    2.393    0.582
        32 -13.3044     45.8983    228.9556   1.4344894813e+02   2.2843750205e+01     0.790584     0.377917  67.95  0.004716834    2.206    0.547
        33 -14.7037     53.8358    216.7370   1.4115947300e+02   2.4111298506e+01     1.771832     1.410172  59.75   0.01346511    1.088    0.081
        34 -10.1628    173.1985    240.0952   1.2021141552e+02   5.8564881032e+00    0.1868537     0.170966 -30.87 0.0009118442    1.544    0.352
        35  -8.9051    158.2926    241.7022   1.2311057259e+02   7.5738679963e+00    0.1017851   0.07340451  46.36 0.0002397053    1.563    0.360
        36 -10.6060    115.8224    239.9816   1.3086004772e+02   1.3188868797e+01    0.1979674    0.1315813  40.44  0.000749548    1.193    0.162
        37 -12.7457     20.1044    232.5817   1.4842487597e+02   2.4650805962e+01    0.5392489    0.3358458  74.64   0.00267384    1.448    0.309
        38  -9.5122     70.9440    234.7089   1.3900639425e+02   1.9274728827e+01    0.3952365    0.1106197  29.51  0.001712019    3.358    0.702
        39 -12.5395    109.8115    230.4120   1.3109514822e+02   1.5338959619e+01    0.8470172    0.2539886  37.18  0.002774348    2.456    0.593
        40 -11.1500     98.4058    231.2172   1.3340388036e+02   1.6627545677e+01    0.3406529    0.2568252  65.04  0.001767125    1.465    0.318
        41 -10.0453    165.6750    235.5807   1.2101881357e+02   7.3805999058e+00    0.1838384    0.1380863 -37.79  0.001332296    1.691    0.409
        42 -11.1989    122.0075    232.9033   1.2897199622e+02   1.3424750143e+01    0.2727586    0.2219567  15.05  0.000764236    1.251    0.201
        43  -9.8481    162.0509    232.8191   1.2134529057e+02   8.2055847065e+00    0.1705461    0.1270141  37.16 0.0006411277    1.275    0.216
        44 -10.7541    156.7818    231.5587   1.2217440641e+02   9.0657122838e+00    0.1970569    0.1574454  21.30 0.0003078053    1.064    0.060
        45 -11.6314    141.8715    230.2101   1.2484544899e+02   1.1221930595e+01    0.3643905    0.2349659 -28.60   0.00167528    2.002    0.500
        46 -14.8895     27.4726    247.1624   1.4763352773e+02   2.1684111621e+01     2.677151     0.659422  28.89   0.01273453    3.610    0.723
        47  -9.7661    180.8360    229.6252   1.1747324497e+02   6.1199900417e+00    0.1557723    0.1158972  10.11 0.0007089209    1.154    0.133
        48 -10.9931    165.3996    227.4233   1.2003239982e+02   8.4557021435e+00    0.3768386    0.2717987 -68.16  0.002294489    2.758    0.637
        49  -9.7338    156.0117    223.5130   1.2130742617e+02   1.0246751320e+01    0.2578874    0.0917737  35.16 0.0008978057    2.217    0.549
        50 -10.3285    160.8426    223.8330   1.2042515388e+02   9.5459502361e+00    0.2467654    0.1738977   8.04 0.0008574735    1.423    0.297
        51  -9.1904    164.7569    220.2486   1.1920173303e+02   9.4921118478e+00     0.214094    0.1365426  -7.88 0.0007354209    1.967    0.491
        52  -9.5002    150.7301    229.7178   1.2309365010e+02   1.0114417171e+01     0.235257    0.1021722  46.33  0.001157414    2.539    0.606
        53 -10.5638     84.6565    229.7227   1.3597115428e+02   1.8504796246e+01    0.2149032    0.1645034  25.34 0.0007821493    1.296    0.229
        54 -10.1427     79.4797    228.9985   1.3692985982e+02   1.9221853022e+01    0.1989487    0.1664871 -76.19  0.001540256    1.436    0.303
        55 -10.4614     78.6741    224.6828   1.3674825331e+02   2.0015638147e+01    0.2639605    0.1959717   0.54  0.001748041    1.916    0.478
        56 -10.4051     77.7947    221.3228   1.3665391205e+02   2.0673938490e+01    0.2457251    0.1425721  50.75  0.000733698    1.498    0.332
        57 -10.2209    190.9179    228.0672   1.1544128604e+02   4.9764610126e+00    0.1694631    0.1240248  18.04  0.000303895    1.008    0.008
        58  -8.6594    175.6619    228.6823   1.1829272441e+02   6.9225416077e+00    0.1184153   0.07294156   8.94 0.0007048904    1.704    0.413
        59  -8.5319     71.2809    228.3018   1.3848644406e+02   2.0265130697e+01   0.09419516   0.08094774  -1.30 0.0002615415    1.549    0.354
        60 -11.6202    131.9678    223.8875   1.2603788348e+02   1.3440083526e+01    0.3577314     0.280954  78.94   0.00239817    1.898    0.473
        61 -10.8709    117.3157    224.3408   1.2899336981e+02   1.5301860445e+01    0.2150229    0.1689224  29.05 0.0003462886    1.085    0.078
        62 -15.3262     10.7471    208.4163   1.4934831507e+02   2.9602308223e+01     3.248396     1.021718 -76.61   0.01699261    3.080    0.675
        63  -9.0095    219.9742    223.5211   1.0973044402e+02   1.7261718871e+00    0.1547207    0.0860486  29.32 0.0009814928    1.447    0.309
        64 -10.5242    149.8957    222.4942   1.2235810119e+02   1.1220812825e+01    0.1952748    0.1622282   5.43 -0.0001672238    1.206    0.171
        65 -11.9407    142.1238    221.3870   1.2373823362e+02   1.2436598871e+01    0.3195788    0.2790502  17.21   0.00236598    1.130    0.115
        66 -10.9036    110.3352    222.5229   1.3019884914e+02   1.6484918689e+01    0.2526073     0.211197 -29.44 0.0007084263    1.505    0.336
        67 -10.3785    105.1494    219.1565   1.3090175044e+02   1.7684476678e+01    0.2399257    0.1656422  64.99 0.0004178836    1.735    0.424
        68  -9.9390     88.9138    220.1344   1.3429986572e+02   1.9550479246e+01    0.3501416    0.1559319 -41.14  0.001618023    3.879    0.742
        69 -12.3646     42.2531    237.1324   1.4455433010e+02   2.1871218314e+01    0.4879477    0.2175109  51.93  0.001382613    1.753    0.430
        70 -14.9280      5.3958    244.4589   1.5135342950e+02   2.3986142342e+01     1.023423     0.614677  72.68  0.008280711    1.427    0.299
        71 -11.2610    138.4440    214.0990   1.2355840833e+02   1.4019425141e+01    0.5239113    0.2643447  24.29   0.00182231    1.999    0.500
        72  -9.9783    101.2745    216.0302   1.3137648425e+02   1.8688617121e+01    0.2203495    0.1466984  51.03  0.001148501    1.411    0.291
        73 -10.1524    102.0380    211.8820   1.3078893116e+02   1.9279717514e+01    0.3250477    0.1640541  51.14  0.001201238    2.021    0.505
        74  -9.5071    183.2227    214.0023   1.1482908840e+02   7.7555051505e+00    0.1341985   0.09236716 -30.24 0.0003999294    1.622    0.384
        75 -10.6573     88.3708    213.0029   1.3375414814e+02   2.0815335685e+01     0.216242    0.1950326  70.23 0.0004109644    1.190    0.159
        76 -13.5743      7.4726    226.8559   1.5053880637e+02   2.6656471083e+01    0.5745321    0.4907514   7.05  0.003157063    1.673    0.402
        77 -11.7854    132.0144    211.4653   1.2453148618e+02   1.5316275796e+01    0.3819911    0.2610434  -2.81 0.0005140525    1.964    0.491
        78  -9.4130    152.1625    211.9298   1.2052544078e+02   1.2418744149e+01    0.1731586    0.1426191  39.21 0.0005423944    1.240    0.193
        79  -9.1128    197.8270    208.1317   1.1124298381e+02   6.4629814691e+00    0.1592905     0.108939  11.28  0.000307782    1.249    0.200
        80 -10.6062    174.7566    205.9619   1.1523406281e+02   1.0032976864e+01    0.2998078    0.1903754 -16.18  0.001151974    1.825    0.452
        81 -11.6334     92.8923    205.0268   1.3200895516e+02   2.1632622220e+01     0.593575    0.2849763  38.93  0.001577206    1.693    0.409
        82 -11.8202    247.2244    205.3372   1.0239872323e+02   2.0755939353e-01    0.3965673    0.2271599  15.57  0.002561602    1.439    0.305
        83  -9.6436    125.9131    205.7406   1.2507359705e+02   1.7078989365e+01    0.1749667    0.1319335  34.70 0.0004531544    1.099    0.090
        84  -9.4438    113.8421    205.1193   1.2754400105e+02   1.8849285212e+01    0.2992347    0.1592612 -72.58  0.001434023    3.159    0.683
        85 -10.2979    115.1495    200.3207   1.2668173994e+02   1.9485463953e+01    0.1903267    0.1766324  45.47 0.0002539107    1.127    0.113
        86 -10.3287    120.4762    199.4659   1.2542771989e+02   1.8886586132e+01    0.4352165     0.203304  49.90  0.002025277    2.406    0.584
        87  -9.7832    149.5978    204.3913   1.1999535948e+02   1.3911521818e+01    0.2609663    0.1807561  -0.36  0.001128052    1.723    0.420
        88 -11.0539    102.9072    202.8014   1.2961432772e+02   2.0718797338e+01    0.7057362    0.3095829  52.04     0.003215    2.649    0.622
        89  -9.5397    100.4979    198.4156   1.2963842770e+02   2.1813769889e+01      0.20016    0.1772653   9.90 5.236732e-05    1.249    0.199
        90 -10.5928     99.0043    195.2861   1.2960612006e+02   2.2577095367e+01    0.4839994    0.2147161  26.79  0.001740475    2.375    0.579
        91  -9.9539    167.0936    203.1806   1.1630982855e+02   1.1539900343e+01    0.1733138    0.1294961  26.30            0    1.093    0.085
        92 -10.4899    169.7789    200.2056   1.1532623729e+02   1.1574348164e+01    0.2164687    0.1701849  21.13 0.0003463368    1.029    0.028
        93  -9.8237    133.0786    202.8418   1.2319511557e+02   1.6536229039e+01    0.1906353    0.1698856  -0.94 0.0002841779    1.197    0.164
        94  -9.1954    224.9500    202.5294   1.0556906923e+02   3.4049382010e+00     0.162032   0.09386601  29.47 0.0003590714    1.469    0.319
        95 -10.0811     64.0192    202.1042   1.3795857639e+02   2.5636010929e+01    0.2613295    0.1554268  20.82   0.00103422    1.919    0.479
        96 -10.2725    197.2047    200.5269   1.1014189962e+02   7.5199156706e+00    0.2591154    0.1753863  41.65  0.001579756    1.651    0.394
        97  -8.8348    158.5381    199.5030   1.1746718875e+02   1.3342618989e+01    0.1249754    0.1022083  21.58 4.356213e-05    1.004    0.004
        98  -9.6888     82.7835    193.7724   1.3305586935e+02   2.4959943286e+01    0.3436235    0.2056574  16.32 0.0009577886    2.138    0.532
        99  -9.4249     86.2652    199.2898   1.3285462419e+02   2.3500799929e+01    0.1649674    0.1551224  27.85 0.0001913206    1.164    0.141
       100  -9.9238     85.9902    195.9812   1.3257171546e+02   2.4143867314e+01    0.1790889    0.1514491  47.79            0    1.027    0.026
       101  -9.2018    192.1362    198.1005   1.1068718984e+02   8.5740726651e+00    0.1482226    0.1320527  19.78  0.001031251    1.299    0.230
       102  -9.8902    134.1469    197.9297   1.2230181693e+02   1.7183742569e+01    0.1806928    0.1510886  48.15 0.0002964428    1.258    0.205
       103 -11.9529     70.1155    194.6502   1.3597322910e+02   2.6332791904e+01    0.4182273    0.2962979 -24.00  0.002244266    2.165    0.538
       104 -12.0604     74.9027    187.9209   1.3423873106e+02   2.7053592489e+01    0.3412189     0.268867  42.67  0.001055204    1.105    0.095
       105  -9.7173    113.0140    195.6805   1.2656461051e+02   2.0589310440e+01    0.2972799    0.1597369  54.17  0.001461492    2.208    0.547
       106  -9.5335    112.8548    192.1543   1.2614803081e+02   2.1237125255e+01    0.1890236    0.1813263 -45.94  0.001315407    1.207    0.171
       107  -9.3541    107.2125    195.9568   1.2787298158e+02   2.1344201074e+01    0.1873824    0.1486539  55.27 0.0006906312    1.273    0.215
       108 -10.2561    159.5941    194.0830   1.1642367627e+02   1.4010756893e+01    0.2897168    0.2111066  48.66 0.0009812363    1.579    0.367
       109 -11.1489    120.4855    192.9586   1.2457110166e+02   2.0006900014e+01    0.3343233    0.2875436 -16.77 0.0007893379    1.333    0.250
       110  -9.6507     38.4341    193.2478   1.4286964257e+02   3.0003050000e+01    0.2564819    0.1601482 -61.48  0.001621313    1.801    0.445
       111  -9.4242     31.0669    195.1269   1.4457799600e+02   3.0335470898e+01    0.2139032    0.1084894  46.85 0.0006993923    1.590    0.371
       112  -9.7681    173.1291    192.3419   1.1341575998e+02   1.2219676782e+01    0.2620858    0.1709474  -2.58  0.001031225    1.798    0.444
       113  -9.6392     47.3898    192.8321   1.4087278858e+02   2.9189365564e+01    0.1470048    0.1279447  85.48 0.0006898296    1.167    0.143
       114 -10.1054     26.1544    192.7327   1.4550217662e+02   3.1241631953e+01    0.2133676    0.1559131  76.93  0.001416681    1.215    0.177
       115 -10.5702     31.1027    190.0866   1.4427956034e+02   3.1311739996e+01     0.384964    0.1912462  33.46  0.001641276    1.780    0.438
       116 -10.6523     27.5287    185.2700   1.4478820180e+02   3.2588795552e+01    0.5531951    0.1318139  47.42  0.002354542    3.181    0.686
       117  -9.9763     29.6471    182.4064   1.4414223792e+02   3.2974307700e+01    0.3230524    0.1827317  51.27  0.001965609    1.494    0.331
       118 -10.3281    191.5320    191.4808   1.0969994830e+02   9.5601485526e+00    0.2434093     0.185149   9.55 0.0006092532    1.108    0.098
       119  -9.3129     75.7439    203.3547   1.3553717916e+02   2.4048325851e+01    0.3375627    0.1718521  23.65  0.001746797    2.162    0.537
       120  -9.3489    135.2992    190.1399   1.2094418151e+02   1.8315604448e+01    0.1649167    0.1508481  29.64 0.0004504603    1.098    0.089
       121 -12.7108    249.4188    183.5922   9.8294786273e+01   2.2578941950e+00     1.118112    0.2405774 -31.75  0.004294083    4.246    0.764
       122 -12.5566    248.2037    101.7025   8.1643507119e+01   1.2416916218e+01    0.7960367    0.4229454 -25.68  0.004103057    1.584    0.369
       123 -12.1307    248.1833    172.0750   9.6370281022e+01   3.7308348426e+00    0.5184001    0.3192541  17.98  0.003197796    1.451    0.311
       124  -9.6006    168.9955    249.0578   1.2204170722e+02   5.3387168560e+00    0.1622992    0.1024034  10.25  0.000424691    1.588    0.370
       125 -13.0882    248.3878    114.0554   8.4402040596e+01   1.0819247608e+01     1.318443    0.5230698 -24.94  0.005795063    2.266    0.559
       126 -12.2836    248.8597    240.3926   1.0756926186e+02  -3.3522877999e+00    0.3896858    0.2508715  12.79  0.003032424    1.052    0.049
       127  -9.9882    175.8733    186.9752   1.1198000691e+02   1.2593216178e+01    0.1909993    0.1588062  14.49  0.000413742    1.023    0.022
       128  -9.5222     67.5136    186.8046   1.3582422114e+02   2.8155581657e+01    0.2197395    0.1470922  16.38 0.0007483917    1.802    0.445
       129  -9.3826    154.7214    184.9817   1.1598947986e+02   1.6197937821e+01    0.1742444     0.155131  -1.71 0.0005992305    1.127    0.112
       130 -10.3901    140.7218    183.6531   1.1878238109e+02   1.8595543974e+01    0.3605401    0.2164982  52.86  0.001114671    2.048    0.512
       131  -9.8377     82.2243    184.0117   1.3213039592e+02   2.6903305408e+01    0.3867981    0.1334586  34.99  0.001406415    2.445    0.591
       132  -9.3516     87.9753    183.4638   1.3072907063e+02   2.6265493444e+01    0.3036729   0.07718284  40.48  0.001127869    3.165    0.684
       133 -10.0165     37.0730    184.1611   1.4257324677e+02   3.1929455949e+01    0.2491412    0.1341414  35.53  0.001265842    1.640    0.390
       134  -8.9295    217.4427    183.4382   1.0356079872e+02   6.7663223025e+00    0.1228908   0.09667043   7.00  7.08939e-05    1.037    0.035
       135  -9.9809     65.9904    181.9839   1.3571025637e+02   2.9292523712e+01    0.1773985    0.1544586  50.83   0.00120611    1.030    0.029
       136 -10.4960    165.7901    241.7307   1.2174921038e+02   6.6099299286e+00    0.2910245    0.1371805  25.42 0.0009805154    1.830    0.454
       137 -10.7807    131.9721    180.9980   1.2030223816e+02   2.0407433722e+01    0.4726916    0.2648817  15.86  0.001708297    2.477    0.596
       138 -10.0524    128.7428    179.3755   1.2077802932e+02   2.1193808932e+01    0.1951875       0.1573  43.78 0.0002777909    1.195    0.163
       139 -10.2692    115.0415    177.3321   1.2360997770e+02   2.3644056896e+01    0.4291725     0.185404 -56.54  0.001890582    2.687    0.628
       140  -9.4804    104.0459    180.6902   1.2663732545e+02   2.4604375286e+01    0.1741166    0.1438561  35.10 0.0003382538    1.081    0.075
       141 -11.9260    248.1507    142.6301   9.0570190775e+01   7.2664691350e+00    0.6330545    0.3894557 -18.63  0.002760396    1.370    0.270
       142  -9.5651    175.7643    180.0064   1.1080256268e+02   1.3660766675e+01    0.1769498    0.1503513   0.15 0.0003837059    1.094    0.086
       143  -8.6777    170.2788    180.2690   1.1196228485e+02   1.4493216271e+01    0.1263554   0.08885401   6.46 0.0006886965    1.487    0.328
       144  -9.5137    144.3124    180.6492   1.1752136198e+02   1.8550037279e+01    0.1262203   0.09982911  65.13 0.0007045727    1.723    0.420
       145  -9.2491     48.1717    179.7455   1.3968497268e+02   3.1716812549e+01    0.1839372    0.1128997  45.65 0.0005269166    1.408    0.290
       146 -11.6458     83.8008    175.8070   1.3080312422e+02   2.8330709424e+01    0.3422081    0.3138129  19.20 0.0008657338    1.182    0.154
       147 -10.8996     69.0294    167.0976   1.3339504508e+02   3.2003089761e+01    0.2363214    0.2129373 -81.07            0    1.141    0.123
       148 -10.0156     77.2069    175.7312   1.3237996913e+02   2.9194056913e+01     0.191379    0.1656802 -83.50 0.0006417818    1.210    0.173
       149 -12.0454     70.0648    174.2495   1.3393930070e+02   3.0381959049e+01    0.4247415    0.3376855  -1.94  0.002580158    1.652    0.395
       150 -10.0202     29.9505    177.3431   1.4375466919e+02   3.3980077039e+01    0.2732702    0.1534391  35.39 0.0008457368    1.613    0.380
       151  -9.5429    109.2148    176.3849   1.2483366564e+02   2.4684504395e+01    0.2067117    0.1565196  85.02 0.0006971204    1.742    0.426
       152  -9.7148    179.2419    175.0021   1.0920986337e+02   1.3868326829e+01    0.1775627    0.1523425   4.31  0.000194042    1.063    0.059
       153 -10.5711     80.7375    163.6288   1.3002681973e+02   3.1251664119e+01    0.2620657    0.2018214  45.65 0.0005086157    1.195    0.163
       154 -11.1774     95.7371    173.0636   1.2757894082e+02   2.7265966566e+01    0.2675727    0.2237023 -68.15 0.0003340585    1.314    0.239
       155 -10.4475     89.7806    160.5742   1.2731625347e+02   3.0666609892e+01    0.3509863    0.1838744  48.72   0.00063396    1.932    0.483
       156 -12.6823     89.2805    167.2302   1.2836841719e+02   2.9346767768e+01    0.8452957     0.650745 -58.73  0.005022836    1.393    0.282
       157  -9.8670     84.7071    165.2921   1.2924753646e+02   3.0372034270e+01    0.1985929    0.1527467  76.21 0.0001700946    1.443    0.307
       158  -9.4289    154.7208    172.6593   1.1391088648e+02   1.8243982124e+01    0.2468019    0.1474402  21.58  0.001190099    1.788    0.441
       159  -9.5588    139.2169    173.4333   1.1746592223e+02   2.0618785797e+01    0.1843412    0.1130897  43.81 0.0003543028    1.573    0.364
       160  -8.6812     28.4763    173.4558   1.4384727713e+02   3.4918057083e+01    0.1833248    0.1307343  81.11 2.243724e-05    1.267    0.211
       161  -9.4636     31.4976    171.5679   1.4300515018e+02   3.5042405251e+01    0.1619955    0.1351767  51.61 0.0005839108    1.103    0.093
       162  -9.8727     28.6123    170.2722   1.4360496863e+02   3.5574391913e+01    0.1795348    0.1647006  15.71 0.0006232964    1.338    0.253
       163 -11.6522      2.5051    169.5039   1.4966603143e+02   3.7779603230e+01    0.5205432    0.1212505 -79.53  0.002151359    3.710    0.730
       164 -12.5549    248.3659    134.1981   8.8776461466e+01   8.2816681676e+00    0.9548944    0.5116171 -26.69  0.005156673    1.583    0.368
       165  -9.1142    183.5339    171.4597   1.0770122126e+02   1.3711578027e+01    0.1325885    0.1101204  11.14 6.167344e-05    1.006    0.006
       166  -9.1739    100.6160    170.7302   1.2607833350e+02   2.7040456868e+01    0.1644995    0.1253096 -75.54 0.0009346964    1.541    0.351
       167  -9.0024    167.3144    170.1944   1.1078272109e+02   1.6581408203e+01    0.1718409    0.1203162 -45.86 0.0009320161    1.687    0.407
       168 -10.8457     43.7806    169.0982   1.3984809861e+02   3.4388234937e+01    0.3204062    0.2758125 -34.60  0.001640927    1.478    0.324
       169  -9.9869     47.6922    168.3244   1.3882047178e+02   3.4152400368e+01    0.2245826    0.1573407  72.64 0.0006300902    1.380    0.275
       170  -9.1206     36.2331    170.4380   1.4178830109e+02   3.4841454208e+01    0.1708901   0.09140597  42.32   0.00095066    1.632    0.387
       171  -9.8739    107.3133    168.2022   1.2408857751e+02   2.6563734881e+01    0.2163413    0.1637632  27.23 0.0004401783    1.279    0.218
       172  -9.5262     58.7477    167.7453   1.3602824003e+02   3.3074404341e+01    0.1731138    0.1250702  61.85 0.0004907728    1.319    0.242
       173  -9.0541    175.6825    166.3230   1.0832396694e+02   1.5811830014e+01    0.1212372    0.1079843  71.09 0.0002674239    1.668    0.400
       174  -9.3713    136.1640    165.4968   1.1681010193e+02   2.2555979752e+01    0.1974298    0.1788228  61.29 0.0002935805    1.287    0.223
       175 -10.0329     47.0827    163.4061   1.3852217775e+02   3.5273600606e+01    0.1993422    0.1427856  68.03 0.0003916784    1.324    0.245
       176  -9.2544     42.4852    189.4186   1.4171830880e+02   3.0353759907e+01    0.1777446    0.1459459  53.41 0.0005355595    1.043    0.041
       177  -9.8193     37.0435    162.8425   1.4099291987e+02   3.6392975486e+01    0.1889956    0.1351412  59.68  0.000538537    1.257    0.204
       178  -9.7455    123.2583    160.7733   1.1903747054e+02   2.5554244891e+01      0.22335    0.1947825   9.00 0.0002343956    1.176    0.149
       179 -11.3504     34.8879    159.3879   1.4125340206e+02   3.7349764216e+01    0.5239831    0.3128204   5.22  0.002719322    2.484    0.597
       180 -13.1309     23.9735    149.2256   1.4327211555e+02   4.0565074877e+01     0.614076    0.3673267  65.12  0.003516119    1.575    0.365
       181 -13.3460     24.6222    156.1097   1.4360887334e+02   3.8976776872e+01    0.8032031    0.4709039  24.47  0.004630978    1.837    0.456
       182 -10.1712     33.0877    154.0834   1.4127694582e+02   3.8688995749e+01    0.1993041    0.1761757  20.71  0.001354739    1.317    0.241
       183 -11.3192     96.1402    158.8402   1.2544476816e+02   3.0123003864e+01    0.3515396    0.2548492 -55.20  0.001950078    1.462    0.316
       184 -10.0674     79.0464    158.9638   1.2984083048e+02   3.2471175006e+01    0.1927206    0.1767996  57.01 0.0004019707    1.010    0.010
       185  -9.2848     52.5124    158.4920   1.3665192333e+02   3.5771442983e+01    0.1237066    0.1117865  69.17 -3.970936e-05    1.019    0.018
       186  -9.5260     47.8608    157.9411   1.3779884675e+02   3.6388781900e+01    0.1762843    0.1627002 -53.39 0.0003128302    1.242    0.195
       187 -11.6203    133.6543    142.9476   1.1317799737e+02   2.7310223156e+01    0.9745659    0.3195579 -49.55  0.003341569    3.351    0.702
       188  -9.0586    228.3474    155.2724   9.6299155140e+01   8.7476408189e+00    0.1651288    0.1042006 -31.78 0.0004849574    1.557    0.358
       189  -9.9057     61.8567    152.7515   1.3355210151e+02   3.5986581345e+01    0.3280312    0.2038684 -89.63  0.001197545    1.836    0.455
       190 -11.4400     55.7545    148.6568   1.3470094592e+02   3.7611082742e+01    0.5528439    0.4362769  57.93  0.003359666    1.202    0.168
       191 -10.6361    113.5746    151.6061   1.1983224660e+02   2.8955317400e+01     0.346103    0.3183944   2.23  0.002073702    1.131    0.116
       192 -11.1436     73.4852    157.3514   1.3106866017e+02   3.3542597575e+01    0.4278489    0.3634729  57.02  0.002404862    1.107    0.097
       193  -8.8541    148.6971    152.6557   1.1154376725e+02   2.2803212887e+01      0.14396     0.103598  -2.32 0.0007039706    1.684    0.406
       194 -11.0518    101.9262    151.0768   1.2272323718e+02   3.0896657463e+01    0.3316569    0.2794572  53.18  0.001727908    1.190    0.159
       195 -10.2361    104.7371    146.1388   1.2114209839e+02   3.1510292177e+01    0.4573801    0.2622051 -52.15   0.00216048    1.810    0.447
       196 -10.9290     90.5007    150.0290   1.2554484991e+02   3.2823671948e+01    0.2325512    0.2178304  30.83 0.0003881317    1.072    0.067
       197 -10.9698     68.0832    136.5157   1.2963536885e+02   3.8923040872e+01    0.3346714    0.2687353 -51.79  0.001034912    1.286    0.223
       198 -13.0785     67.5187    144.3256   1.3092097689e+02   3.7199661714e+01    0.7631198    0.5281115  67.55  0.004074981    1.588    0.370
       199 -12.0204     73.9657    138.8603   1.2831976989e+02   3.7618227555e+01    0.5817499    0.4471167 -85.51  0.003227982    1.397    0.284
       200 -11.5157     35.6000    149.1038   1.4018051511e+02   3.9577847104e+01    0.3711989    0.1556554  46.24  0.001474359    2.211    0.548
       201 -11.3018     33.6961    135.9279   1.3944208147e+02   4.2789987657e+01    0.2727659    0.2269209 -27.63 0.0009310186    1.491    0.329
       202 -11.8911     32.2522    141.2068   1.4036178336e+02   4.1689835116e+01    0.3547085    0.1974349 -76.48   0.00122463    1.660    0.398
       203 -10.4128    132.1615    152.3090   1.1536740948e+02   2.5730316582e+01    0.2227945    0.2004855 -51.36 0.0003267813    1.234    0.190
       204  -9.1743     85.7167    147.7077   1.2645652953e+02   3.4015813991e+01    0.1288653    0.1036353 -21.50 0.0006953217    1.535    0.349
       205 -10.8078     41.1321    146.8569   1.3847498320e+02   3.9560995872e+01    0.2461673    0.1599731 -25.15  0.001267912    2.296    0.564
       206 -12.1557      9.2938    127.0645   1.4569422715e+02   4.6733769315e+01    0.3323547     0.216137 -21.67  0.001896945    2.133    0.531
       207 -10.9736     37.3441    143.8976   1.3921512235e+02   4.0603321848e+01    0.2092665    0.1527069  45.32 0.0004851265    1.311    0.237
       208 -11.1448     26.1860    139.6844   1.4190622989e+02   4.2561584872e+01    0.2157915    0.1677615 -79.83   0.00137202    1.168    0.144
       209 -11.8793      3.1296    139.0613   1.4813428855e+02   4.4347205447e+01    0.3596476    0.1997923  44.46  0.002061425    1.678    0.404
       210 -10.7106     60.5278    137.6575   1.3196281942e+02   3.9586666572e+01    0.2643652    0.2302643 -14.00  0.001421475    1.388    0.280
       211 -11.0123     58.8118    133.4770   1.3187358751e+02   4.0767100339e+01    0.2924463    0.1733006 -69.46 0.0009232776    1.652    0.394
       212 -11.6937     47.7438    138.4733   1.3571661065e+02   4.0826211764e+01    0.4689513     0.223786  18.85  0.002074831    2.623    0.619
       213  -9.4467    118.9912    138.6190   1.1600730200e+02   3.0751225333e+01    0.2008526    0.1667697  34.29 0.0004159505    1.152    0.132
       214 -10.7149    112.3943    136.2754   1.1727299319e+02   3.2369641822e+01    0.4093018    0.3106693  26.72  0.001585229    1.338    0.253
       215 -11.9390     47.6685    132.2901   1.3497860402e+02   4.2287553582e+01    0.4714465    0.2564783  44.67  0.002344538    1.807    0.447
       216 -12.0098     44.5079    129.9217   1.3561415888e+02   4.3176289806e+01    0.5809298    0.2798082 -74.98  0.001959987    2.047    0.511
       217 -11.8580     67.1701    127.9748   1.2857141233e+02   4.1038127467e+01    0.5270312    0.4049782  50.31  0.001716761    1.309    0.236
       218 -11.9810     13.7462    154.1227   1.4623052202e+02   4.0269036281e+01    0.3209898    0.2490608 -79.38  0.002196781    1.214    0.176
       219  -9.8317    117.5508    128.9278   1.1438664529e+02   3.3047600198e+01    0.2076115     0.118557 -27.69 0.0008076132    2.506    0.601
       220 -12.7359     30.0837    126.6761   1.3954290566e+02   4.5295713642e+01    0.6864295    0.2254382  27.06  0.002855909    3.002    0.667
       221 -10.4643    209.7947    125.8916   9.3170389528e+01   1.6042138889e+01    0.2864962    0.2044063 -17.45 0.0004873154    1.290    0.225
       222  -8.6704     93.3854    127.5191   1.2079908130e+02   3.7401948607e+01    0.1373767    0.1342003 -82.24 0.0001207612    1.034    0.033
       223  -9.7567     85.8855    126.6102   1.2279645140e+02   3.8758208837e+01    0.2917449    0.2154455  -9.12  0.001427044    1.838    0.456
       224 -11.5475     37.7280    123.2253   1.3683245723e+02   4.5442280767e+01    0.4246622    0.2032412 -54.55  0.001553617    2.007    0.502
       225  -8.5552    114.6698    123.2647   1.1393421507e+02   3.4773844274e+01    0.1434153    0.1135329  68.05 0.0002117622    1.575    0.365
       226  -9.3807     50.2229    123.0032   1.3295509034e+02   4.4233037506e+01    0.2259615     0.136997  73.40  0.001065687    1.998    0.500
       227 -12.2733      2.1900    123.1818   1.4749408459e+02   4.8059912257e+01    0.7455584    0.1402857 -81.95  0.002384921    4.796    0.791
       228  -9.9458    238.9064    121.8316   8.7502243973e+01   1.1422713445e+01    0.2666229    0.1403963  -6.13  0.001163151    2.492    0.599
       229 -11.4538     20.9373    121.0276   1.4173858394e+02   4.7374655855e+01    0.3075545     0.142373 -60.53  0.001503062    1.939    0.484
       230 -10.9239      8.9023    155.7452   1.4752814420e+02   4.0261575595e+01    0.2278733    0.1225518  49.89     0.000974    1.631    0.387
       231 -10.9534      7.2977    120.3935   1.4580592023e+02   4.8427992681e+01     0.204477    0.1211278   9.71  0.001136857    2.130    0.530
       232  -8.8464     59.0041    117.2230   1.2930974776e+02   4.4623161989e+01    0.1660075    0.1119576  29.84            0    1.559    0.359
       233  -9.4100     45.4761    187.5194   1.4091022614e+02   3.0428056918e+01    0.2414337    0.1478572  13.84  0.001356756    2.148    0.534
       234 -11.2995    168.2683    113.4698   9.8331351685e+01   2.6228703482e+01    0.3572647    0.3179645 -74.62 0.0008545076    1.491    0.329
       235  -8.9805     81.9979    114.0628   1.2149057907e+02   4.2263948356e+01    0.1645636    0.1605784 -65.62 0.0003074258    1.003    0.003
       236 -12.4811      8.2976    142.0655   1.4693004306e+02   4.3340818974e+01    0.3435764    0.3163491  -0.52  0.002517854    1.382    0.276
       237 -10.0874     69.9799    111.4496   1.2475766353e+02   4.4607772705e+01    0.2027685    0.1368182  33.45 0.0003683645    1.528    0.346
       238 -10.6016     55.0432    111.2665   1.2957388144e+02   4.6538655318e+01    0.2626717    0.1611739  -6.86  0.000468591    2.619    0.618
       239 -10.5760     31.5759    110.6789   1.3720763914e+02   4.9045796494e+01    0.2442252     0.162311  29.86 0.0009833049    1.618    0.382
       240 -10.4275     62.3255    107.0253   1.2639805350e+02   4.6685197705e+01    0.2023381    0.1744765 -65.15  0.000627509    1.097    0.088
       241 -10.1659    134.5680    105.7512   1.0436145161e+02   3.4642658402e+01    0.2973864    0.1437266 -37.67  0.001138668    2.136    0.532
       242 -12.0471     31.4176    117.3967   1.3809235996e+02   4.7418588256e+01    0.4135807    0.3143148 -48.86   0.00233891    1.375    0.273
       243 -10.4286    106.1331    102.9831   1.1155898796e+02   4.0768733988e+01    0.2253264    0.2080337  29.26 0.0002635705    1.088    0.081
       244 -13.0952     13.9359    238.9830   1.4973418698e+02   2.4144188346e+01    0.3640082    0.2123635  44.07  0.002678882    1.251    0.201
       245 -10.1753     27.2814    106.7386   1.3813001928e+02   5.0367617110e+01    0.2639624    0.1479261  86.11  0.001274086    1.918    0.479
       246 -10.7658     47.1332     90.0323   1.2837012896e+02   5.2652640046e+01     0.368519    0.2239131  10.91  0.001734335    2.108    0.526
       247  -9.1523     16.6141     90.5099   1.3981174151e+02   5.5139736463e+01    0.1288614    0.1074228 -79.12 9.876079e-05    1.044    0.042
       248  -9.2236    155.6747     76.6713   9.0936542156e+01   3.5501639384e+01    0.1609586    0.1163766  12.36 0.0007050153    1.700    0.412
       249  -9.2733    199.7824    245.7948   1.1628099430e+02   1.8822108040e+00    0.1333846     0.104132  25.65 0.0004364934    1.313    0.238
       250 -10.5944    222.5177    244.8360   1.1236511811e+02  -7.5041943267e-01    0.2226906   0.09993738  20.76 0.0009699631    1.900    0.474
