#   1 NUMBER                 Running object number                                     
#   2 MAG_AUTO               Kron-like elliptical aperture magnitude                    [mag]
#   3 X_IMAGE                Object position along x                                    [pixel]
#   4 Y_IMAGE                Object position along y                                    [pixel]
#   5 X_WORLD                Barycenter position along world x axis                     [deg]
#   6 Y_WORLD                Barycenter position along world y axis                     [deg]
#   7 A_WORLD                Profile RMS along major axis (world units)                 [deg]
#   8 B_WORLD                Profile RMS along minor axis (world units)                 [deg]
#   9 THETA_WORLD            Position angle (CCW/world-x)                               [deg]
#  10 FWHM_WORLD             FWHM assuming a gaussian core                              [deg]
#  11 ELONGATION             A_IMAGE/B_IMAGE                                           
#  12 ELLIPTICITY            1 - B_IMAGE/A_IMAGE                                       
         1 -14.9396    160.4560     41.2949   2.9025685261e+02   6.3287151332e+00   0.06419328   0.04407674 -51.84  0.003997986    1.461    0.315
         2 -14.5365    173.2617      8.4104   2.8990448483e+02   6.6265760663e+00   0.05105177   0.04666221 -38.23  0.003824458    1.116    0.104
         3 -12.4206    133.8459    246.5894   2.9182118501e+02   4.1374841066e+00   0.01196467   0.01021086 -57.13 0.0004126504    1.188    0.158
         4 -19.9444     78.2022    191.7289   2.9214441259e+02   5.1066985525e+00    0.8018999    0.3583448 -64.13    0.0674316    2.364    0.577
         5 -11.4965    135.5385    196.4601   2.9149681790e+02   4.7022883794e+00    0.0178773   0.01175215  59.84  0.001035927    1.854    0.461
         6  -9.9993    159.6439    241.7182   2.9148768320e+02   4.0357149420e+00  0.006990749  0.005051555 -19.66 0.0007016117    1.663    0.399
         7 -14.0843    167.0883    191.1357   2.9109249841e+02   4.5703878927e+00   0.03405061   0.02477362  68.84  0.003550383    1.681    0.405
         8 -13.9054    174.8851    193.6729   2.9101604621e+02   4.4935644016e+00   0.02939542   0.02239151  86.39  0.002098783    1.582    0.368
         9 -13.0725    180.2518    192.5966   2.9094625506e+02   4.4730545086e+00   0.02169805    0.0164555  77.83  0.001321642    1.605    0.377
        10 -13.9772    176.7090    188.2267   2.9096140866e+02   4.5448622799e+00   0.04229753   0.02177315 -82.85  0.003233041    3.230    0.690
        11 -14.4679    206.9681    179.5017   2.9055175656e+02   4.4595597032e+00   0.03932774   0.03868838 -23.95  0.004247456    1.026    0.025
        12 -13.7298    196.7655    172.4563   2.9062903089e+02   4.6028627147e+00   0.03764278   0.02164217 -73.41  0.002666799    2.076    0.518
        13 -11.6025    148.8691    188.8476   2.9129335400e+02   4.7081072704e+00   0.01024081  0.009084971 -16.70 0.0003802482    1.190    0.160
        14  99.0000     13.8146    240.2897   2.9319810204e+02   4.9412897107e+00   0.01845583  0.005288612 -63.13  0.001224783    3.683    0.728
        15 -11.5301     27.3180    180.0529   2.9267420385e+02   5.5507071485e+00   0.02052614    0.0131504 -18.96  0.001918833    2.102    0.524
        16 -12.3276    139.1980    248.2738   2.9176834577e+02   4.0854659005e+00   0.02771017   0.01647084 -69.40  0.002471962    1.864    0.463
        17 -11.9985     30.4234    182.8008   2.9265419649e+02   5.5002666820e+00   0.01302106   0.01013775  14.28 0.0007451836    1.339    0.253
        18 -11.1737      8.0000    240.1450   2.9326580051e+02   4.9782872573e+00   0.01036623  0.003818281 -62.28 0.0007771957    2.770    0.639
        19 -10.7339     24.9374    185.6080   2.9273597487e+02   5.5014208407e+00   0.01100335  0.008744347 -43.95 0.0004909197    1.289    0.224
        20 -10.7970    139.4842    240.8400   2.9171986196e+02   4.1690007811e+00   0.02602932   0.00966719  35.25  0.002061608    2.468    0.595
        21 -10.2795     25.6289    229.9487   2.9299624198e+02   4.9881772237e+00  0.009266713  0.006295594 -58.47 0.0005150526    1.479    0.324
        22 -10.3434     25.4532    224.8055   2.9296720320e+02   5.0482911819e+00   0.01115417  0.006169482 -54.84 0.0006441562    1.783    0.439
        23 -13.4527    177.3951    169.7910   2.9084107832e+02   4.7520917172e+00   0.02500658   0.01724016 -23.49  0.002516212    1.774    0.436
        24 -13.0373    123.4638    166.3908   2.9145640036e+02   5.1210914362e+00    0.0366575   0.01845708 -83.52  0.001082519    3.524    0.716
        25 -13.4454    138.4604    172.1998   2.9131482954e+02   4.9627533895e+00   0.03030444   0.02104958  63.17  0.003077031    1.750    0.429
        26 -13.3715    130.8665    170.8920   2.9139644946e+02   5.0241936065e+00   0.03507728   0.01438658  36.74  0.002900659    2.283    0.562
        27 -13.1715    148.0097    172.9943   2.9120704135e+02   4.8952264093e+00   0.02086462   0.01326211  40.00  0.001502222    1.547    0.354
        28 -13.4437    144.5912    168.9339   2.9122264793e+02   4.9627175861e+00   0.02489777   0.01801082  23.83  0.002068739    1.376    0.273
        29 -11.7290     26.2088    173.3116   2.9264643778e+02   5.6348400119e+00   0.01478943   0.01420397  56.03 0.0008974104    1.063    0.060
        30 -11.5767    168.1514    175.8770   2.9098710130e+02   4.7388946498e+00   0.01008731  0.009007831  60.65  0.001192365    1.182    0.154
        31 -10.5082    219.3817    224.2162   2.9067783888e+02   3.8708597765e+00   0.00900668  0.006487896 -78.78 0.0003431164    1.601    0.375
        32 -11.9212    202.0617    165.6999   2.9052545951e+02   4.6478707003e+00    0.0167331   0.01099203  72.28  0.001362814    2.089    0.521
        33 -10.5632     22.5357    221.0564   2.9297894057e+02   5.1090757646e+00  0.009382594  0.006340367 -54.00 0.0004783421    1.478    0.323
        34 -11.6465    223.6937    163.7322   2.9025864570e+02   4.5377928870e+00   0.01244209   0.01097784  69.28 0.0004656897    1.228    0.186
        35 -10.6133    237.6725    159.3044   2.9006703699e+02   4.5027860715e+00  0.007032215  0.004971738  59.59 0.0003467494    1.649    0.393
        36 -10.8099     23.5057    215.5074   2.9293392137e+02   5.1668813883e+00   0.01026858  0.007480099 -31.64  0.001076275    1.535    0.349
        37 -11.8446     17.6998    156.1415   2.9264282085e+02   5.8836889100e+00   0.02820163   0.01271724 -56.19   0.00239048    2.150    0.535
        38 -10.5312     14.5060    159.4757   2.9270076504e+02   5.8648404964e+00   0.00984069  0.006036359 -49.92 0.0006901585    1.638    0.390
        39 -10.6791     22.9735    156.0544   2.9257999693e+02   5.8526102945e+00   0.01005223   0.00979057   9.86  0.000481963    1.014    0.014
        40 -14.1169    134.1004    145.8214   2.9120571698e+02   5.2920164603e+00   0.05827047   0.01887571 -69.59  0.003505962    4.809    0.792
        41 -11.0026    118.4936    214.0049   2.9180437909e+02   4.6051293282e+00   0.01301117  0.009392126  30.27 0.0008507231    1.344    0.256
        42 -12.2332    174.4066    148.5522   2.9074691867e+02   5.0139549372e+00   0.01663039   0.01318079  78.66  0.001235822    1.486    0.327
        43 -14.3763    143.6961    143.4044   2.9107777785e+02   5.2610291926e+00    0.0443368   0.02566638 -84.67  0.003834986    2.517    0.603
        44 -13.3620    153.0440    145.6708   2.9098130466e+02   5.1778205005e+00   0.02147889   0.01595186  40.34  0.001815906    1.330    0.248
        45 -10.3411     20.1452    212.3849   2.9295467684e+02   5.2231652754e+00  0.006621046  0.004212291 -47.42  0.000270253    1.603    0.376
        46 -11.7989     27.4005    145.6026   2.9246428349e+02   5.9456320828e+00   0.01418937   0.01161275 -28.24   0.00106364    1.318    0.241
        47 -12.4024    168.8952    202.6833   2.9114145061e+02   4.4268777105e+00   0.01405836   0.01095139  36.20 0.0003262213    1.251    0.201
        48 -12.2522    163.1684    208.9579   2.9124709462e+02   4.3899450067e+00   0.02368466   0.01320457  66.58  0.001907024    2.907    0.656
        49 -14.0434    135.6831    122.8005   2.9104681084e+02   5.5463678801e+00   0.07888003    0.0209439 -68.10  0.004026046    6.617    0.849
        50 -10.7312    151.6259    135.3067   2.9093488806e+02   5.3053617711e+00  0.007286283  0.004864936  57.93 0.0007031046    1.769    0.435
        51 -14.0916    156.9237    200.7077   2.9127052811e+02   4.5227846843e+00   0.04227335   0.02255186 -56.80  0.003360948    1.849    0.459
        52 -11.7326    153.3522    194.4099   2.9127433035e+02   4.6168763443e+00   0.01151642    0.0101257  52.79 0.0002627347    1.175    0.149
        53 -12.0490    148.3884    132.7733   2.9095764740e+02   5.3542350023e+00   0.01512866  0.009149325 -38.43  0.001440913    1.861    0.463
        54 -13.6792    153.6711    188.8274   2.9123661608e+02   4.6789642032e+00   0.02927845   0.01807991 -37.79  0.002334616    1.825    0.452
        55 -12.6589    160.6621    128.0414   2.9078400241e+02   5.3333387338e+00   0.01804165   0.01573796 -89.27  0.002105242    1.257    0.204
        56 -12.9773    157.4573    191.5237   2.9120838272e+02   4.6248714073e+00   0.02314287   0.01389009  66.58  0.002036244    2.413    0.586
        57 -12.2040    114.6929    118.1210   2.9126609591e+02   5.7284300404e+00   0.01445203   0.00991923  14.78  0.000482839    1.576    0.365
        58 -12.4414    163.3364    203.6149   2.9121262551e+02   4.4502059780e+00   0.01472683   0.01374045 -62.40 0.0002477106    1.097    0.089
        59 -12.8922    161.6880    198.9536   2.9120370529e+02   4.5137592973e+00   0.02215492   0.01478657  70.40  0.001640217    1.996    0.499
        60 -10.3266    150.9110    245.2357   2.9161191465e+02   4.0487470704e+00  0.008785576  0.008426435  -2.95 0.0003432086    1.048    0.046
        61 -13.0283     11.4194    206.0993   2.9301961067e+02   5.3483759166e+00   0.02965075   0.01697826  18.39  0.002190823    1.911    0.477
        62 -10.8298    205.4484    110.1668   2.9014679878e+02   5.2636529810e+00   0.01493012  0.009965677  13.63  0.001126549    1.660    0.398
        63 -11.9670     22.0072    243.9542   2.9312363526e+02   4.8494157078e+00   0.01319019  0.009563425 -66.95  0.001410322    1.447    0.309
        64 -12.0255    168.1386    244.1527   2.9140240960e+02   3.9558531747e+00   0.01019128  0.008939963 -21.08 0.0003506877    1.207    0.172
        65 -10.6144    157.1230    106.0209   2.9069147111e+02   5.6074888344e+00  0.009677056  0.009366969  45.00 0.0002667021    1.038    0.037
        66  -9.8809     16.6066    201.6815   2.9293165495e+02   5.3675617885e+00  0.007341684   0.00494899 -22.18   0.00070037    1.861    0.463
        67 -12.0893    140.5663    199.5318   2.9145620826e+02   4.6363099487e+00   0.01979367   0.01129421  27.73  0.001893508    1.711    0.415
        68 -10.8508    103.2872     81.9332   2.9118026612e+02   6.2131276433e+00   0.01081744   0.00911477  28.95 0.0004774697    1.158    0.136
        69 -10.5897    143.1889     79.8553   2.9069628735e+02   5.9927720044e+00  0.009334072  0.007720063 -27.62 0.0005362652    1.302    0.232
        70 -14.3771    149.6585     56.2394   2.9047568420e+02   6.2237401042e+00   0.05087728    0.0403029   9.32  0.001009463    1.347    0.257
        71 -10.2484    160.0231    247.4556   2.9151805377e+02   3.9675870561e+00   0.01047877  0.008504961 -58.14 0.0005429146    1.248    0.199
        72 -12.9090    164.3209     32.9687   2.9016030645e+02   6.4003487890e+00    0.0194328   0.01656599 -46.47 0.0008928332    1.191    0.161
        73 -11.1954     13.3873     59.8666   2.9210886876e+02   7.0144031317e+00   0.01133113  0.008793944  40.07 0.0004629906    1.273    0.214
        74 -11.6572    148.7527     35.4562   2.9035937233e+02   6.4673408554e+00   0.02219824  0.009764537  41.93  0.001486071    2.293    0.564
