#   1 NUMBER                 Running object number                                     
#   2 MAG_AUTO               Kron-like elliptical aperture magnitude                    [mag]
#   3 X_IMAGE                Object position along x                                    [pixel]
#   4 Y_IMAGE                Object position along y                                    [pixel]
#   5 X_WORLD                Barycenter position along world x axis                     [deg]
#   6 Y_WORLD                Barycenter position along world y axis                     [deg]
#   7 A_WORLD                Profile RMS along major axis (world units)                 [deg]
#   8 B_WORLD                Profile RMS along minor axis (world units)                 [deg]
#   9 THETA_WORLD            Position angle (CCW/world-x)                               [deg]
#  10 FWHM_WORLD             FWHM assuming a gaussian core                              [deg]
#  11 ELONGATION             A_IMAGE/B_IMAGE                                           
#  12 ELLIPTICITY            1 - B_IMAGE/A_IMAGE                                       
         1 -14.4242    152.4595     56.2374   2.9036049372e+02   6.2607915324e+00   0.05817964   0.05055305  -7.47 0.0009519841    1.197    0.165
         2 -14.8188    164.1118     41.4797   2.9013464118e+02   6.3654086079e+00   0.06304585   0.04515404 -47.60  0.003895232    1.464    0.317
         3 -14.5696    178.2148      8.7484   2.8978012774e+02   6.6644130720e+00   0.05113733   0.04769295  -2.42  0.003656369    1.079    0.073
         4 -10.3208    150.6962    245.4554   2.9140924615e+02   4.0709409548e+00  0.008041341  0.006422801  10.79 0.0002735824    1.252    0.201
         5 -19.8805     73.4151    169.4465   2.9196170878e+02   5.3959824670e+00    0.9020678    0.4066081 -68.62   0.07474459    2.512    0.602
         6 -10.6811    139.1807    200.9138   2.9131168715e+02   4.6547747465e+00   0.01169146  0.008757826  70.73 0.0007366114    1.588    0.370
         7 -11.9131    119.0134    240.4842   2.9177707840e+02   4.3095691185e+00   0.01579611  0.009333768 -70.11  0.001498396    1.892    0.471
         8 -10.7594      8.0000    240.0645   2.9315863080e+02   4.9459778220e+00  0.009077729  0.003941817 -65.24 0.0007286295    2.454    0.593
         9  99.0000     13.4645    233.4756   2.9305505420e+02   4.9916607589e+00  0.006843789  0.006363646  32.29 0.0008088988    1.032    0.031
        10 -10.3351    139.4946    249.9793   2.9157323098e+02   4.0822693425e+00  0.009563621  0.006754891 -61.60 0.0004769969    1.490    0.329
        11 -13.6614    207.2928    178.0791   2.9033914723e+02   4.5307069259e+00   0.05505884   0.03063057 -76.15  0.004950786    2.212    0.548
        12 -12.5500    154.2757    186.6847   2.9104643520e+02   4.7340247573e+00   0.02406812   0.01269386 -86.57  0.001920784    2.929    0.659
        13 -10.8498    120.6504    183.3350   2.9144754478e+02   4.9650637255e+00   0.01343991  0.009265276  53.47 0.0007053182    1.581    0.367
        14 -11.5856    117.0305    180.4952   2.9147731575e+02   5.0187603851e+00   0.02110267   0.01037393  50.57  0.001747418    2.389    0.581
        15 -10.5856    108.6302    182.3428   2.9159209713e+02   5.0452001577e+00   0.01094408  0.009022142  44.74 0.0005466466    1.202    0.168
        16 -11.3009      3.8298    179.8193   2.9288629700e+02   5.6707869808e+00     0.014983   0.01161574  23.67  0.001216027    1.213    0.175
        17 -12.2933    203.4913    172.5469   2.9035645523e+02   4.6167889065e+00   0.02637538   0.01900702 -50.11  0.002815601    1.447    0.309
        18 -11.6694    170.8724    177.1127   2.9078766401e+02   4.7504305645e+00   0.01086236  0.008921455  51.52 0.0005622279    1.258    0.205
        19 -13.3796    195.7121    170.4896   2.9044219148e+02   4.6852585145e+00   0.03116599   0.02249476 -85.29  0.001859059    1.658    0.397
        20 -11.7645    193.9747    165.1956   2.9043508957e+02   4.7567510825e+00   0.01699202    0.0122946  28.11  0.001021251    1.283    0.220
        21 -13.6860    143.7478    168.2610   2.9107781723e+02   5.0084713890e+00    0.0427385   0.01967319  48.05  0.003471819    2.452    0.592
        22 -11.6751    140.7001    174.3003   2.9114856238e+02   4.9556472649e+00   0.01535529  0.009767397  28.82 0.0005986305    1.448    0.309
        23 -13.0512    138.1506    171.1833   2.9116346057e+02   5.0064679190e+00   0.02797342   0.01925639  38.33  0.002507404    1.377    0.274
        24 -10.5708     11.1361    174.2494   2.9276506043e+02   5.6941596103e+00  0.009453324  0.008619755 -13.19  0.000467968    1.129    0.114
        25 -12.6534    177.3963    170.4238   2.9067006300e+02   4.7908776913e+00   0.02013118    0.0125234 -79.03  0.001920308    1.960    0.490
        26 -11.2752    126.0899    171.9249   2.9131789823e+02   5.0667336457e+00   0.01440598   0.01027745 -68.34 0.0009852406    1.521    0.342
        27 -11.6562     25.2525    225.2899   2.9286399198e+02   5.0200183736e+00    0.0181126  0.009167519 -51.03  0.001519919    2.029    0.507
        28 -11.0505    219.2741    224.3901   2.9044131644e+02   3.9237914582e+00   0.01148264   0.00820691  77.37   0.00061722    1.751    0.429
        29 -11.7245    230.2471    166.6219   2.8999107474e+02   4.5323202688e+00   0.01248581  0.008827295 -86.07   0.00118037    1.718    0.418
        30 -11.4252    201.3104    164.3424   2.9033906240e+02   4.7246523401e+00   0.02361052   0.01474487 -75.04  0.002288971    1.869    0.465
        31 -11.6939    122.2559    165.4457   2.9133061652e+02   5.1639912794e+00   0.03004936  0.009037506  45.52  0.001867236    4.078    0.755
        32 -10.5551     25.6005    164.9411   2.9253424910e+02   5.7203650672e+00   0.01522323    0.0085127  -2.58  0.001252648    2.527    0.604
        33 -10.7417    222.4700    161.6947   2.9006112764e+02   4.6341655928e+00   0.01425163  0.009597214  66.11 0.0008690833    1.846    0.458
        34 -11.7515    129.8356    161.6781   2.9121564556e+02   5.1645255763e+00   0.01935912   0.01115985  28.01  0.001517001    1.593    0.372
        35 -13.0697    162.4606    154.5603   2.9077015280e+02   5.0607919219e+00   0.02948738   0.01739779  61.69  0.002638398    2.219    0.549
        36 -14.8470    133.3720    144.6768   2.9107933586e+02   5.3420494056e+00   0.07570725   0.03227083 -77.36  0.005424531    3.546    0.718
        37 -11.7182     22.8074    154.9152   2.9251499353e+02   5.8528919659e+00   0.02105072   0.01401628 -71.26  0.002137091    1.669    0.401
        38  -9.8420     19.6127    222.8788   2.9292134479e+02   5.0800976824e+00  0.008653348   0.00507529 -36.53  0.000780247    1.992    0.498
        39 -13.9457    143.9259    145.5535   2.9095242965e+02   5.2715282104e+00   0.04209717   0.02230253  89.59  0.003289469    3.113    0.679
        40 -11.4812    174.5556    149.0022   2.9058917777e+02   5.0561967670e+00   0.01298063   0.01106834  42.21 0.0007873633    1.147    0.128
        41 -11.3101    125.0516    243.5378   2.9171834393e+02   4.2396056564e+00  0.009113248  0.008066663 -61.28  0.001040698    1.199    0.166
        42 -10.8603     23.6809    214.5635   2.9282581701e+02   5.1537791545e+00   0.01952371  0.008261697 -44.74  0.001539817    2.659    0.624
        43 -12.6433    134.6754    109.9895   2.9087479253e+02   5.7379277317e+00   0.06548232   0.00663427 -64.53  0.002797699    9.195    0.891
        44 -14.0712    135.7751    128.6499   2.9096238478e+02   5.5146840492e+00   0.06293229   0.01905329 -70.43  0.003873723    4.609    0.783
        45 -11.9425     24.1522    137.5840   2.9240457516e+02   6.0469039401e+00   0.02009575   0.01233131  -9.76  0.001706669    2.169    0.539
        46 -12.6098    116.1200    212.0707   2.9165954225e+02   4.6566226286e+00   0.01571657    0.0113646  68.07  0.001545675    1.660    0.398
        47 -11.5853      4.9742    137.6247   2.9264437647e+02   6.1552863571e+00   0.01369913   0.01025609 -66.77 0.0007361896    1.434    0.303
        48 -12.3384    110.7857    212.2094   2.9172679524e+02   4.6854369404e+00   0.01990883   0.01153139  61.10  0.001365191    2.271    0.560
        49 -12.4151    160.6469    127.9996   2.9064855013e+02   5.3799794673e+00   0.01823061   0.01593054  70.86  0.002125387    1.257    0.205
        50 -12.2287    108.7458    208.0128   2.9172953608e+02   4.7458964514e+00   0.01492845   0.01198874  -5.36 0.0007616018    1.337    0.252
        51 -12.2209    140.1497    120.8873   2.9086565153e+02   5.5799285949e+00   0.01488387   0.01052398  34.16 0.0008551089    1.317    0.241
        52 -10.8328     21.8838    243.3812   2.9300338210e+02   4.8285967598e+00   0.01162369  0.008821159 -63.23  0.001262378    1.396    0.284
        53 -13.2088     11.7247    206.0566   2.9292914398e+02   5.3206471820e+00   0.03077623   0.01677559  16.57  0.002211892    1.909    0.476
        54 -10.7875    167.6387    112.6561   2.9047796057e+02   5.5183086023e+00   0.01467316  0.008612296  56.63  0.001326401    2.069    0.517
        55 -12.2509    163.9788    203.0462   2.9101417952e+02   4.4882757637e+00   0.01775907   0.01428709  65.63 0.0003734844    1.394    0.283
        56 -12.6548    156.6457    199.9973   2.9108903973e+02   4.5656499699e+00   0.04481948   0.02335621  75.14  0.003250843    3.632    0.725
        57 -10.8587    205.3388    110.2214   2.8999462528e+02   5.3305339682e+00    0.0144563  0.009451879  17.21 0.0009843591    1.523    0.343
        58 -11.0489      9.7532    101.7848   2.9239097997e+02   6.5450777808e+00   0.01365965   0.01090176  37.22  0.001108639    1.192    0.161
        59 -12.7635    161.3277    197.6846   2.9101816052e+02   4.5657842577e+00    0.0210667   0.01444079  66.51  0.001909185    1.796    0.443
        60 -10.4408    144.5189     80.4878   2.9059158008e+02   6.0245181563e+00  0.006830522  0.006406853  22.98 -4.265043e-08    1.001    0.001
        61 -11.9382    168.9788    202.5092   2.9094896960e+02   4.4659338654e+00   0.01257261  0.009617314  80.51 0.0006703486    1.566    0.361
        62 -11.3478    133.7459    247.0755   2.9162914587e+02   4.1488508215e+00  0.008891171  0.008415926 -78.89 0.0003816612    1.138    0.122
        63 -12.8909    167.9784     33.3032   2.9004181404e+02   6.4381688610e+00   0.01790543   0.01676231 -37.11 0.0008565477    1.117    0.105
        64 -11.0637     13.6275     60.0237   2.9211647662e+02   7.0086289773e+00   0.01143595  0.008749591  38.19 0.0004736206    1.246    0.197
        65 -10.4118    142.5899     33.1329   2.9035795454e+02   6.5856312479e+00   0.01197317   0.00832541  36.71 0.0006799347    1.351    0.260
