#   1 NUMBER                 Running object number                                     
#   2 MAG_AUTO               Kron-like elliptical aperture magnitude                    [mag]
#   3 X_IMAGE                Object position along x                                    [pixel]
#   4 Y_IMAGE                Object position along y                                    [pixel]
#   5 X_WORLD                Barycenter position along world x axis                     [deg]
#   6 Y_WORLD                Barycenter position along world y axis                     [deg]
#   7 A_WORLD                Profile RMS along major axis (world units)                 [deg]
#   8 B_WORLD                Profile RMS along minor axis (world units)                 [deg]
#   9 THETA_WORLD            Position angle (CCW/world-x)                               [deg]
#  10 FWHM_WORLD             FWHM assuming a gaussian core                              [deg]
#  11 ELONGATION             A_IMAGE/B_IMAGE                                           
#  12 ELLIPTICITY            1 - B_IMAGE/A_IMAGE                                       
         1 -12.0802    223.0783     41.3462   6.1482437378e+01   2.5443305341e+01     1.411323    0.7055895 -49.60  0.005634692    1.825    0.452
         2 -10.2346    119.5675      9.9486   6.8520858547e+01   5.2737855532e+01    0.5891717    0.3083908  42.03  0.003091777    1.799    0.444
         3  -9.2738    179.7494      9.6758   5.9369790820e+01   3.9035469054e+01    0.2525922     0.201673  -0.31  0.001409562    1.860    0.462
         4  -9.8680    179.3112      5.2191   5.8376763041e+01   3.9566344990e+01     0.357986    0.2083053  87.64  0.001978967    1.602    0.376
         5 -10.2737    192.0278      7.7648   5.7578139270e+01   3.6421438975e+01    0.9671811    0.4635979  88.16   0.00467999    2.156    0.536
         6  -9.8265    184.1180      7.8689   5.8453024952e+01   3.8211916148e+01    0.3100581    0.2230462 -78.10  0.001938759    1.286    0.222
         7  -7.9130    243.0759      4.7120   5.2561076102e+01   2.5724698089e+01    0.1645981    0.1168904 -86.04   0.00114256    1.099    0.090
         8  -9.9597    209.6482      2.4200   5.4758874367e+01   3.3030684509e+01    0.6508855    0.1837152  67.88  0.002252088    2.793    0.642
         9  -8.6015    249.5130      2.4961   5.1725685005e+01   2.4679503505e+01    0.2396851    0.1386389 -64.16  0.001549871    1.378    0.274
        10  -9.6617    225.2527      2.2098   5.3427755353e+01   2.9689773394e+01     0.207014    0.1580544 -78.57 0.0004403497    1.044    0.042
        11  -7.5493    146.0379      2.0192   6.1794765771e+01   4.7464753925e+01    0.1545368    0.1152673  68.33 0.0007679174    1.087    0.080
        12  -9.0278    243.2199    164.9626   8.4782198224e+01   3.9831819715e-02    0.2211955     0.201453  31.10 0.0003976077    1.234    0.190
        13  -9.0822     98.0473    164.8616   1.1701558106e+02   2.8327802681e+01    0.2314534    0.2032506 -64.54 0.0002874044    1.090    0.082
        14  -8.4350    164.1521    161.9443   9.9921753314e+01   1.6058627856e+01    0.2220423    0.2173238 -57.69 0.0003261981    1.008    0.008
        15  -8.4252    243.1611    160.0303   8.3788075164e+01   9.5453619367e-01    0.1976656    0.1917381   3.13  0.001248925    1.145    0.127
        16 -10.1871    211.2256    157.8913   8.9075505752e+01   7.2776129665e+00     0.258293    0.2466121 -62.39 0.0003222863    1.099    0.090
        17  -8.6833     97.0426    149.4044   1.1421187613e+02   3.2340257178e+01    0.2523795    0.2045584 -63.70 0.0006041741    1.193    0.162
        18  -8.5702     69.8200    145.3773   1.2098187466e+02   3.7688281084e+01    0.2912752    0.2118959  87.62  0.000882616    1.626    0.385
        19  -8.3414     66.3150    144.4602   1.2179781416e+02   3.8412801780e+01    0.2953065    0.1988787 -68.42 0.0007495895    1.434    0.302
        20  -6.9999    141.2089    144.0028   1.0137867377e+02   2.5028015927e+01    0.2010573    0.1256844 -48.78 0.0008283499    1.576    0.365
        21  -8.7192    230.4019    140.1926   8.1796126791e+01   7.0179503829e+00    0.2114724    0.1971425  50.62 0.0002731731    1.200    0.167
        22  -8.0213    216.1568    139.3743   8.4118162134e+01   9.9929479054e+00    0.1934296    0.1388472  64.39 0.0005253317    1.662    0.398
        23  -8.0022    158.7589    139.2327   9.6009068824e+01   2.2339312676e+01    0.2217632    0.2084727 -87.23 0.0003680548    1.086    0.079
        24  -7.3124    163.3130    134.7206   9.3879822910e+01   2.2342400402e+01    0.1570549    0.1239782  89.49 0.0002738864    1.567    0.362
        25  -9.4684    248.7210    132.0190   7.7146941774e+01   5.1094627535e+00    0.3379156      0.22231  76.44  0.001638155    2.257    0.557
        26  -7.4541     23.5457    124.9604   1.3076164665e+02   4.7957009656e+01    0.1763967   0.07833429 -45.93 6.681863e-05    2.104    0.525
        27  -9.2351    250.1573    118.6305   7.4183111061e+01   7.2633814493e+00    0.2473403    0.1552005 -50.20 0.0008397229    1.385    0.278
        28 -11.7672    243.5704    109.6432   7.3260820735e+01   1.0129277600e+01     1.014216    0.6413705 -35.33  0.005138739    1.606    0.377
        29  -8.0598      2.2567    117.2160   1.3585414059e+02   5.1286107825e+01    0.1595304    0.1261244  87.50  0.001049879    1.332    0.249
        30  -8.2751    186.1265    116.0802   8.4474013924e+01   2.1163604165e+01     0.221816    0.2053048  -8.97            0    1.261    0.207
        31  -8.2794    167.9444    113.6584   8.7679368871e+01   2.5815268478e+01    0.2774449    0.2121333 -73.63  0.000787503    1.533    0.347
        32 -10.5124    244.8315     98.0077   7.0664893508e+01   1.1930827571e+01    0.3761436    0.2395833 -38.76  0.001958875    1.516    0.340
        33  -7.9554    150.4616     96.7733   8.7247013868e+01   3.3267010124e+01    0.2129483    0.1487855 -28.31 0.0009425125    1.686    0.407
        34  -8.3703    135.2597     93.5327   9.0025994074e+01   3.7362718142e+01    0.3332695    0.2459718 -80.69  0.001313315    1.872    0.466
        35  -8.7703    171.9811     93.0289   8.1596376892e+01   2.8957859438e+01    0.2175682    0.2055698 -83.56  0.001186619    1.005    0.005
        36  -7.3660    159.8551     89.3566   8.3172252989e+01   3.2499940400e+01    0.2165477    0.1333195  43.68  0.000931165    1.711    0.416
        37  -7.9678    163.9619     87.2241   8.1738692735e+01   3.1927697673e+01    0.3149261    0.1717645  36.20  0.001193882    2.488    0.598
        38  -9.9978    242.3528     87.8753   6.8890990657e+01   1.4162605619e+01      0.25792    0.1791195 -89.90  0.001293497    1.600    0.375
        39  -9.7660    227.9841     85.3041   7.0278280150e+01   1.7591457310e+01    0.3209447    0.2319021 -49.88 0.0003489998    1.245    0.197
        40  -8.2908    144.8976     85.4662   8.5468285988e+01   3.6711187470e+01    0.2751888     0.203632 -58.94 0.0008798476    1.503    0.335
        41  -8.6591    249.8960     85.1566   6.7384449958e+01   1.3109039405e+01    0.2074012    0.1525404 -65.98 0.0004579188    1.218    0.179
        42 -10.0690    233.6829     80.7058   6.8519166518e+01   1.7156752101e+01    0.3516047    0.2443666  69.35  0.001696345    1.489    0.328
        43 -10.8761    238.3360     75.9018   6.6913792888e+01   1.6972598161e+01    0.5058855    0.2682309 -52.42  0.002477786    1.681    0.405
        44  -9.9370    160.5219     77.1767   7.9783019740e+01   3.4533959527e+01    0.3489937    0.2705385 -27.81  0.001755952    1.485    0.327
        45 -10.1727    179.0194     75.3680   7.5736533353e+01   3.0446877275e+01    0.5739382    0.5091942  16.89  0.001950683    1.444    0.308
        46  -8.4218    114.8900     74.9937   8.9998136305e+01   4.5268938945e+01    0.2044381    0.1943443  30.01 0.0002624982    1.010    0.010
        47  -8.9175    230.9308     74.1073   6.7475196879e+01   1.8825087660e+01    0.3458218    0.1769004  56.47  0.001605539    2.080    0.519
        48  -8.6521    187.0742     69.4279   7.2848230938e+01   2.9522209981e+01    0.2428361     0.201091 -47.40 0.0003879738    1.227    0.185
        49 -11.8173    233.3445     59.5707   6.4120763393e+01   2.0590083437e+01     1.339967    0.4415953 -47.15  0.005411926    2.653    0.623
        50 -11.9840    236.4322    247.0527   1.0148076487e+02  -1.2564210063e+01    0.2412601    0.2130625   7.24 0.0003237264    1.212    0.175
        51  -8.0044    213.9774     67.4449   6.8285336651e+01   2.3617698910e+01    0.2739303     0.167093 -58.33  0.001352056    1.596    0.374
        52  -8.6888    171.8955     66.3635   7.4719927618e+01   3.3623456820e+01    0.2533584    0.2113621  36.26  0.001044143    1.404    0.288
        53  -7.9411    209.9829     63.2526   6.7893319433e+01   2.5180068433e+01    0.2991343    0.1348576 -59.65  0.001155137    2.746    0.636
        54  -9.3094    197.8493     61.2599   6.9174394301e+01   2.8282679051e+01    0.2966754     0.236991  49.80 0.0008085888    1.416    0.294
        55  -9.5263    203.9410     57.2382   6.7358759983e+01   2.7481689957e+01    0.3710481    0.2549711  40.38  0.001027658    1.974    0.493
        56 -10.7445    179.9030     58.3704   7.1283169011e+01   3.2954075663e+01    0.4595157    0.3485888   7.97  0.002274318    2.107    0.525
        57  -8.3186    145.4487     56.3889   7.7163826391e+01   4.1433450280e+01    0.2735448    0.1887397  15.30  0.001223503    2.205    0.547
        58 -10.1198    163.3448     52.9108   7.2726442315e+01   3.7705887850e+01    0.4875706    0.2862517 -67.26  0.002098497    2.354    0.575
        59  -8.3541    138.8761     49.8002   7.6646902112e+01   4.3909175933e+01    0.2066909     0.173472  41.34 0.0003514686    1.180    0.153
        60 -10.3335    127.7271     52.8661   8.0042570352e+01   4.6018697726e+01     0.246091     0.223199  44.72 0.0002621904    1.026    0.025
        61 -10.2096    234.4297     34.8358   5.8978428901e+01   2.3867199723e+01     0.414501    0.2683159  47.35  0.001381852    2.215    0.549
        62  -8.1759    236.3541     39.9681   5.9808164950e+01   2.2770676767e+01    0.1770791    0.1378668 -65.97  0.000538916    1.086    0.079
        63  -9.0730    121.9469     36.2974   7.6270303258e+01   4.9502791115e+01    0.1967523    0.1595538  52.10  0.001163474    1.094    0.086
        64  -9.1736    213.1165     27.1770   5.9570409717e+01   2.9491734578e+01    0.3587455    0.1875602 -61.98  0.001662125    1.919    0.479
        65  -8.9644    247.5486     24.2594   5.5777696083e+01   2.2507865033e+01    0.2461636    0.1537285 -64.39 0.0003829071    1.312    0.238
        66  -8.3586    242.2225     21.2564   5.5658922576e+01   2.3968202956e+01    0.2886996    0.2508707 -35.52   0.00132947    1.590    0.371
        67  -7.9470    230.8787     24.5780   5.7286968388e+01   2.5935185045e+01    0.2385018    0.1138091 -67.78  0.001159382    2.181    0.541
        68  -8.0668    169.1424     19.6900   6.3153310916e+01   4.0470595254e+01    0.1806176    0.1531433 -26.27 0.0005186825    1.461    0.315
        69  -7.6153    250.6570     19.2845   5.4621085592e+01   2.2498125624e+01    0.1423327    0.1010537 -40.56 0.0005175943    1.604    0.377
        70  -9.4788    131.6693     18.8546   6.8937505818e+01   4.9226379181e+01    0.2460271    0.1858795 -66.55  0.001448743    1.616    0.381
        71  -7.8204    223.2220     16.2252   5.6330356822e+01   2.8578578276e+01    0.1717059    0.1109619 -73.26 0.0006366544    1.339    0.253
        72  -9.9817    148.6661    223.8951   1.1529894949e+02   5.5836046189e+00    0.2442896     0.243015  29.57 0.0004078724    1.082    0.076
        73  -7.9302     21.5648    217.2937   1.4189662666e+02   2.6246058989e+01    0.1594215      0.14763 -25.12 0.0005460259    1.661    0.398
        74 -10.1852      1.9705    211.2706   1.4527322611e+02   2.9538232214e+01    0.6097465    0.1765683 -77.17   0.00262753    2.852    0.649
        75  -7.2303    150.4789    209.4543   1.1245215442e+02   8.2451097851e+00    0.1443526    0.1361939  43.05 0.0002051418    1.004    0.004
        76 -11.5939     43.5293    177.1189   1.3294109496e+02   3.3210208904e+01    0.9668563    0.8447078 -49.16  0.004758977    1.319    0.242
        77 -11.7908     27.4753    188.9333   1.3806695825e+02   3.2148654093e+01    0.7282261    0.5638952 -88.34  0.002728505    1.054    0.051
        78 -10.1201     33.6227    184.6639   1.3620370625e+02   3.2506430760e+01    0.3700863    0.2846719 -44.40  0.001309206    1.595    0.373
        79  -8.5596     25.7656    175.2789   1.3699560713e+02   3.5595583836e+01    0.1714014    0.1300944 -56.49 0.0004432755    1.349    0.258
        80  -9.0168    242.3931    169.5790   8.5857732023e+01  -6.6247492341e-01     0.261988     0.234918  16.08 8.702091e-05    1.210    0.174
