#   1 NUMBER                 Running object number                                     
#   2 MAG_AUTO               Kron-like elliptical aperture magnitude                    [mag]
#   3 X_IMAGE                Object position along x                                    [pixel]
#   4 Y_IMAGE                Object position along y                                    [pixel]
#   5 X_WORLD                Barycenter position along world x axis                     [deg]
#   6 Y_WORLD                Barycenter position along world y axis                     [deg]
#   7 A_WORLD                Profile RMS along major axis (world units)                 [deg]
#   8 B_WORLD                Profile RMS along minor axis (world units)                 [deg]
#   9 THETA_WORLD            Position angle (CCW/world-x)                               [deg]
#  10 FWHM_WORLD             FWHM assuming a gaussian core                              [deg]
#  11 ELONGATION             A_IMAGE/B_IMAGE                                           
#  12 ELLIPTICITY            1 - B_IMAGE/A_IMAGE                                       
         1 -11.3390    228.8720     47.2186   2.8944085659e+02   5.8994343942e+00    0.0901417   0.03452855 -75.11    0.0035713    4.655    0.785
         2 -12.7142     58.2612     45.6684   2.9137723748e+02   6.9047238288e+00    0.0489725   0.03316642  51.44  0.002756768    1.623    0.384
         3 -10.3126     16.3205     19.1327   2.9169832222e+02   7.4525572430e+00    0.0285833   0.01565224  62.59  0.001241097    2.723    0.633
         4 -12.6520     21.4850     31.2969   2.9171177719e+02   7.2824126362e+00   0.09433632   0.05008255 -50.32  0.002420865    1.828    0.453
         5 -11.4215     40.1971      2.8791   2.9132842739e+02   7.5027833217e+00   0.07449278   0.02484163 -40.51  0.004589329    4.673    0.786
         6 -11.4852      2.9182      8.0605   2.9178557319e+02   7.6573827403e+00   0.03757966   0.02280804  46.52  0.001552805    1.765    0.433
         7 -11.5230      7.1583      2.2832   2.9170264277e+02   7.6997003976e+00   0.03302882   0.01823281  30.23   0.00168875    1.804    0.446
         8 -12.5245     20.7051      3.2332   2.9155339417e+02   7.6108653960e+00   0.05279771   0.03738248 -37.02  0.004471582    1.520    0.342
         9 -12.1409     28.1240      7.0790   2.9149150720e+02   7.5238064789e+00   0.03953958   0.02144799 -49.23  0.001052527    1.808    0.447
        10 -11.8832     32.9476      3.8471   2.9141708088e+02   7.5333477039e+00   0.02244949   0.01872349 -61.42  0.001025442    1.173    0.147
        11 -11.6311     49.6840      3.7447   2.9122515219e+02   7.4381507956e+00    0.1573837   0.07580051  -3.38  0.009110611    6.087    0.836
        12  -9.8112     85.9622     20.5504   2.9091099063e+02   7.0349589191e+00   0.02490843   0.02029099  30.87  0.002444304    1.242    0.195
        13  -8.4157    110.9366     13.5492   2.9058399307e+02   6.9714720330e+00    0.0178517  0.006363155 -44.87  0.001298965    3.155    0.683
        14  -9.4943     76.5817     12.2009   2.9096828126e+02   7.1854690296e+00   0.02022544   0.01578874 -66.79  0.001885127    1.278    0.218
        15  -9.8786     80.4954      8.0602   2.9089884335e+02   7.2106654432e+00   0.02403409   0.01458837  36.12  0.001159103    1.640    0.390
        16  -9.0289     82.5424      4.4702   2.9085401517e+02   7.2402737837e+00   0.01793434    0.0101552 -71.73 0.0008938912    1.951    0.487
        17  -8.1393     68.5403      9.9841   2.9104691542e+02   7.2574447962e+00  0.009662887  0.006335863 -62.61 2.359686e-05    1.494    0.331
        18  -8.9497    200.9543      7.3917   2.8952044383e+02   6.5208977890e+00    0.0155868  0.008191743 -52.12  0.001464376    1.823    0.452
        19  -7.5560    240.3498      7.6835   2.8907357733e+02   6.2886161842e+00  0.007037981  0.004861227  62.06 0.0007047502    1.731    0.422
        20  -8.2144    139.0871      3.1277   2.9020038006e+02   6.9288219671e+00   0.01017134  0.008378081 -30.67 0.0005507216    1.296    0.228
        21  -8.2098    155.4975      2.4735   2.9000923859e+02   6.8413033729e+00  0.006484775  0.006353542 -53.73 6.356173e-07    1.006    0.006
        22  -7.8166     78.3443      2.2652   2.9088880384e+02   7.2899474684e+00  0.006711326  0.004930002 -22.66 0.0002851729    1.604    0.377
        23  -8.4108    168.7892    222.2030   2.9116804381e+02   4.2260194008e+00  0.009142295  0.007463837 -32.29 0.0004549864    1.302    0.232
        24 -12.7262    238.3107    250.2402   2.9054442800e+02   3.5000891524e+00   0.02195233   0.01025264  26.89  0.001318905    2.188    0.543
        25 -11.0175    215.8044    247.9572   2.9078654788e+02   3.6566083914e+00   0.03526012   0.02517034  75.71  0.003020986    1.742    0.426
        26 -12.4430    212.1811    228.2535   2.9071058181e+02   3.9052477005e+00   0.04395463   0.03996446 -89.32  0.001651979    1.144    0.126
        27 -13.2185    178.8084    248.7113   2.9121155656e+02   3.8616952958e+00   0.02429179   0.01707814  -6.86  0.001005003    1.798    0.444
        28  -9.5147    144.9801    249.0002   2.9159799369e+02   4.0536764529e+00   0.01890726   0.01161768 -14.24  0.001518932    2.385    0.581
        29  -8.3486    150.3835    221.4317   2.9137287155e+02   4.3412528767e+00   0.01391744  0.003903239 -49.78  0.000948271    3.404    0.706
        30  -8.8014    126.3166    220.7570   2.9164276896e+02   4.4879798131e+00   0.01053252  0.009510278  18.84 0.0004996971    1.143    0.125
        31  -8.8258     77.1167    220.2629   2.9220001115e+02   4.7773296793e+00   0.01137355  0.009453451 -70.48 0.0003727999    1.211    0.174
        32 -10.4752     55.9937    217.1130   2.9242192891e+02   4.9353740415e+00   0.02201781  0.009094432 -63.22  0.001041267    2.383    0.580
        33 -10.8455    223.9608    187.7547   2.9033563308e+02   4.3050638965e+00   0.02761148   0.01873819  11.39            0    1.707    0.414
        34 -13.2261    229.8214    175.9339   2.9019857898e+02   4.4077002638e+00   0.03925837    0.0345255  60.78  0.002047741    1.202    0.168
        35 -12.3143    214.2019    189.6668   2.9045798290e+02   4.3394652396e+00   0.06895041   0.04811195 -44.46  0.001349663    1.453    0.312
        36 -12.1912    231.5476    211.4384   2.9039041881e+02   3.9874983264e+00    0.1552567   0.07701062  25.09   0.01407041    2.109    0.526
        37 -13.1287    194.8581    202.6923   2.9075550209e+02   4.3008559333e+00    0.1138315   0.06662457 -45.52   0.01120096    1.741    0.426
        38  -7.9983     80.4595    217.4945   2.9214553301e+02   4.7901016734e+00  0.006513978  0.006322357 -50.74 1.447638e-05    1.015    0.015
        39  -7.8710    151.3271    216.2808   2.9133153827e+02   4.3953629128e+00  0.006750736  0.004922077 -25.58 0.0002197831    1.598    0.374
        40  -8.7480    166.9211    214.8964   2.9114587565e+02   4.3212865331e+00   0.01036232  0.008752137 -24.75 0.0008213808    1.279    0.218
        41 -10.8621    221.8295    201.3012   2.9044053060e+02   4.1608761620e+00   0.03213017    0.0211608   7.11 0.0009264413    1.862    0.463
        42  -8.3158    171.0134    212.7287   2.9108643304e+02   4.3226995554e+00  0.008800211  0.008624246 -39.13   0.00042678    1.022    0.021
        43 -10.0923      6.4733    208.5416   2.9293538484e+02   5.3191853199e+00   0.02158952    0.0147635 -45.38  0.001922867    1.475    0.322
        44 -10.5753     10.5349    207.3355   2.9288196823e+02   5.3098219002e+00   0.02922536   0.02140015   2.38  0.002099219    1.616    0.381
        45 -11.4991    244.1339    208.8232   2.9023182703e+02   3.9448519861e+00   0.01575438   0.01404233  11.65 0.0006005205    1.177    0.150
        46  -7.6413    113.3064    209.3009   2.9172288440e+02   4.6955352179e+00  0.006792033  0.004883275 -28.92 0.0002488946    1.596    0.373
        47  -7.6392    103.7119    209.6949   2.9183447531e+02   4.7463116275e+00  0.006742229  0.004856728 -30.80 0.0003794517    1.568    0.362
        48 -10.3233    123.9996    206.0007   2.9158153942e+02   4.6720071739e+00  0.009171602  0.008994134 -60.85            0    1.002    0.002
        49  -8.0997    250.5023    200.7002   2.9011109311e+02   4.0018099773e+00   0.01211603  0.006565651 -68.34 0.0005774507    1.947    0.486
        50  -9.0496    138.9899    199.3554   2.9137140089e+02   4.6623224850e+00   0.01152205  0.009079833 -63.50  0.001311297    1.247    0.198
        51  -9.3536    132.9661    198.9935   2.9143783079e+02   4.7012888366e+00  0.009232049  0.009077199 -57.17   0.00117078    1.004    0.004
        52  -9.6617    247.0436    196.1715   2.9012341318e+02   4.0741551083e+00     0.022709   0.01586989 -73.05  0.002419723    1.515    0.340
        53 -11.4801    202.4808    198.8334   2.9064584400e+02   4.3013616884e+00   0.03572489   0.02466546 -88.21 0.0005015183    1.765    0.434
        54  -8.2746    113.9537    197.6671   2.9164644429e+02   4.8263555446e+00  0.008879593  0.008234242  24.97 0.0003507374    1.102    0.092
        55  -9.0255    240.9813    194.4730   2.9018218394e+02   4.1288852431e+00   0.01012147  0.008845386 -62.50 0.0005263768    1.122    0.108
        56  -8.6574    162.2777    194.0897   2.9107501776e+02   4.5886746625e+00  0.009221977  0.008327602 -66.01 0.0003965473    1.092    0.085
        57  -7.8395     48.3958    192.7200   2.9236396445e+02   5.2613117222e+00  0.009327708  0.005780505 -52.24 0.0009361928    1.557    0.358
        58  -9.4936     20.6848    190.6102   2.9266729703e+02   5.4450500706e+00   0.01440395   0.01118381 -61.61 0.0005951227    1.257    0.204
        59  -8.3501    155.0734    187.8867   2.9112013053e+02   4.7020265937e+00  0.009717262  0.009192499 -52.35 0.0004734662    1.037    0.036
        60  -7.9999     47.6159    188.3120   2.9234672305e+02   5.3167971669e+00  0.009216744  0.005798786 -52.89 0.0006865552    1.531    0.347
        61 -10.0791    250.0333    184.0156   2.9001700982e+02   4.1972523363e+00   0.02918488   0.01537327  79.34   0.00205097    4.040    0.752
        62 -10.7265    249.5235    174.0473   2.8996338466e+02   4.3153477796e+00    0.0359041   0.01259912 -53.98  0.002834747    2.588    0.614
        63  -9.9226    101.1874    217.0425   2.9190681341e+02   4.6758797126e+00   0.02036208   0.01740013 -30.50  0.002421173    1.233    0.189
        64  -8.7404     22.8661    180.6757   2.9258358631e+02   5.5474624305e+00   0.01142442  0.008569515 -49.95 0.0006136668    1.306    0.234
        65  -8.8395    111.9017    216.9752   2.9178442267e+02   4.6148757563e+00  0.009843253  0.009264103 -38.84 0.0004290144    1.066    0.062
        66  -8.4442     47.3709    179.3031   2.9229610227e+02   5.4224328464e+00   0.01139032   0.00902798 -38.71 0.0007582191    1.306    0.234
        67  -8.8352    193.4595    176.5485   2.9061579923e+02   4.6111174766e+00   0.01314334  0.009336857 -52.32  0.001216609    1.366    0.268
        68  -9.5551    100.3577    176.2529   2.9167412726e+02   5.1524603660e+00   0.01797908   0.01097407   5.36  0.001680711    2.167    0.539
        69  -9.2687    154.0722    175.0403   2.9105511503e+02   4.8563388352e+00   0.01169128   0.01018334  12.58 0.0004010049    1.210    0.173
        70 -10.1457    248.1026    169.8527   2.8995452398e+02   4.3720316695e+00    0.0177006   0.01393223 -51.97  0.001227956    1.239    0.193
        71  -9.6253      5.9271    175.9591   2.9274877593e+02   5.6993341480e+00    0.0100053  0.009598203 -43.86  0.000461781    1.035    0.034
        72  -9.8020    249.2363    160.3674   2.8988507749e+02   4.4750176569e+00   0.02271545   0.01227076 -44.65  0.001786313    1.925    0.481
        73  -7.7804    182.1378    162.1899   2.9065912709e+02   4.8425841660e+00  0.008955148   0.00751302  60.58 0.0004743098    1.283    0.220
        74  -8.3172    175.6814    159.7042   2.9071781368e+02   4.9086690418e+00  0.006809797  0.004901055 -27.52 0.0003363235    1.611    0.379
        75  -9.9158    163.2319    159.6398   2.9085916561e+02   4.9814238508e+00   0.01930727  0.006442088  25.63  0.001408366    3.188    0.686
        76  -8.3129    182.4721    156.5526   2.9062174254e+02   4.9058038566e+00  0.006466812  0.006349375 -53.70 8.802472e-05    1.006    0.006
        77  -9.5048      3.8261    155.9180   2.9265400686e+02   5.9432650468e+00   0.01698445  0.009640891  43.28  0.001020403    1.832    0.454
        78  -7.9559    229.3074    155.3350   2.9008163190e+02   4.6486509794e+00  0.006989768  0.004825166 -30.79 0.0007041378    1.672    0.402
        79  -8.6327    159.2912    155.3492   2.9087849042e+02   5.0538094771e+00  0.007000938  0.004780204 -32.67 0.0006320792    1.668    0.401
        80  -8.6059     37.8812    152.7887   2.9224701597e+02   5.7837554046e+00   0.01322537  0.008368878 -57.69  0.001045356    1.515    0.340
        81 -10.0210    233.9603    151.6828   2.9000694339e+02   4.6638746019e+00   0.01478466   0.01148516 -69.42  0.001103043    1.302    0.232
        82 -10.6839    178.8147    146.6777   2.9060454457e+02   5.0410961041e+00   0.01956485   0.01264348   7.36  0.001798503    1.917    0.478
        83 -10.3907    192.0517    137.8221   2.9040107749e+02   5.0668035293e+00    0.0168815   0.01579229 -49.88 0.0009562445    1.051    0.049
        84 -10.3820    186.6719    148.2332   2.9052436934e+02   4.9776437341e+00   0.02399241   0.01180563 -42.20  0.002094146    2.255    0.557
        85  -9.3087    189.6793    143.7047   2.9046314913e+02   5.0125651464e+00   0.01260113  0.009044658 -34.27 0.0008629872    1.532    0.347
        86  -9.4277      2.5612    148.7341   2.9262585579e+02   6.0336347550e+00   0.01417279  0.009532769 -55.02 0.0009334724    1.430    0.301
        87  -8.5011    192.8013    147.9265   2.9045277731e+02   4.9457039000e+00   0.01042628   0.00844798 -36.79 0.0006693602    1.285    0.222
        88  -9.7159     33.1450    145.6365   2.9225859118e+02   5.8937282135e+00   0.01987974  0.009784377 -51.10  0.001133795    1.953    0.488
        89  -8.5912     17.0393    148.0503   2.9245663377e+02   5.9583894003e+00   0.01082229  0.007658565  63.30 0.0006816757    1.677    0.404
        90  -8.0674    156.6141    151.2612   2.9088463520e+02   5.1165449461e+00  0.009467082   0.00576319 -52.67 0.0006114937    1.581    0.368
        91  -8.1982    125.4613    140.5282   2.9117563559e+02   5.4206717833e+00   0.01139225  0.008162102 -26.34 0.0006640948    1.635    0.389
        92  -9.6440    249.5962    128.7743   2.8969247543e+02   4.8377824984e+00   0.01497894  0.008359959 -76.82 0.0009570205    2.191    0.544
        93 -11.1312    249.3444    135.9273   2.8973803400e+02   4.7566450211e+00   0.06645367   0.03611065  78.36  0.005011562    3.522    0.716
        94 -11.0372    241.7550    137.4891   2.8983363840e+02   4.7826239721e+00   0.03615606   0.01653399 -57.68  0.003211815    2.048    0.512
        95  -9.3075    237.2311    134.3713   2.8986647374e+02   4.8448641008e+00   0.01903247   0.01126025  41.73  0.001884893    1.729    0.422
        96  -9.6719    248.9154    143.2953   2.8978688094e+02   4.6740471718e+00   0.01870438  0.009819232 -67.03  0.001717298    1.978    0.494
        97  -9.3506    204.2379    131.4841   2.9022458356e+02   5.0694475047e+00   0.01152869   0.01094769 -66.18 0.0002682318    1.037    0.036
        98  -8.0491     23.6946    132.6793   2.9228949841e+02   6.0979353078e+00  0.006902677  0.004841841 -30.40 0.0002788054    1.635    0.388
        99 -11.0479    230.0767    124.8728   2.8989115436e+02   4.9960490218e+00   0.03867251   0.02652557  87.89   0.00308677    1.834    0.455
       100  -9.3515    222.6807    124.8097   2.8997491155e+02   5.0396606983e+00   0.01490697   0.01044036 -76.13  0.001071351    1.555    0.357
       101  -8.7606    195.4759    128.4937   2.9030647467e+02   5.1547551269e+00  0.006510611  0.006342134 -51.23 0.0008101368    1.012    0.012
       102  -8.1956     39.1859    128.3797   2.9208721165e+02   6.0585726254e+00  0.009188576  0.005837739  38.60 0.0006014692    1.583    0.368
       103  -8.7411    187.8393    123.1637   2.9036162199e+02   5.2605650696e+00  0.009350296  0.007589791 -31.85 0.0008801034    1.316    0.240
       104  -9.4212     34.3861    122.6753   2.9210809435e+02   6.1521552021e+00    0.0117026   0.01075864 -22.40 0.0004654612    1.133    0.117
       105  -9.8012     29.3552    118.4474   2.9214039054e+02   6.2299831361e+00   0.02101074   0.01323561 -21.48  0.001323757    2.144    0.534
       106  -9.6172     27.0171    115.2242   2.9214792733e+02   6.2807007426e+00    0.0138589  0.009389245  63.28   0.00114493    1.804    0.446
       107  -7.6961     58.2402    115.9775   2.9179609740e+02   6.0923002135e+00  0.008710125  0.005454529 -63.56 0.0005113453    1.573    0.364
       108 -10.5573     18.8520    112.1240   2.9222270863e+02   6.3634899146e+00   0.02644854   0.01418181 -40.97  0.002010882    2.067    0.516
       109  -9.2917    160.1145    111.2875   2.9060656468e+02   5.5582920430e+00   0.01492608   0.01127653   1.19 0.0005768855    1.546    0.353
       110 -12.4900    244.5574    101.2713   2.8958552638e+02   5.1845613875e+00   0.08315016   0.03843819 -61.62  0.004558182    2.091    0.522
       111 -11.9592    241.0109     80.5731   2.8950217979e+02   5.4440653657e+00   0.05320479   0.04669787 -17.86  0.004876562    1.226    0.184
       112  -9.5186    231.3020     85.3297   2.8964106199e+02   5.4455221949e+00   0.01256658   0.01151987 -30.73 0.0007324066    1.121    0.108
       113 -11.4970    237.6052     67.4785   2.8946264244e+02   5.6149576786e+00   0.03672376   0.02289191 -76.56  0.003615059    1.841    0.457
       114  -8.5119    207.4621    109.4328   2.9005631389e+02   5.3054871507e+00  0.006430693  0.006351525 -70.63 7.484295e-05    1.011    0.011
       115  -7.7545    129.9700    106.9715   2.9092438038e+02   5.7825085977e+00  0.007469805  0.006998759 -60.92 -0.002661949    1.045    0.043
       116  -8.1404     84.9228    103.0638   2.9141483315e+02   6.0877938290e+00   0.00982897  0.007417415 -26.31 0.0003293253    1.506    0.336
       117  -9.0838      6.4460    102.3134   2.9230606582e+02   6.5482074378e+00   0.01228353  0.007538008  48.57  0.001209932    1.781    0.439
       118  -7.4882    104.8131    101.3535   2.9117776177e+02   5.9927719487e+00   0.00854016  0.006240142   9.87 0.0003053217    1.551    0.355
       119  -8.4752     19.5044    101.4398   2.9215178511e+02   6.4832778355e+00  0.006438996  0.006363142 -66.61 8.802851e-05    1.010    0.010
       120  -9.2311     92.9368     99.2524   2.9130071358e+02   6.0856112894e+00   0.01164616    0.0105176  -6.96 0.0004862263    1.179    0.152
       121  -8.9116    216.1410     97.8364   2.8988829803e+02   5.3890868331e+00   0.01324104   0.01160596  86.50  0.001025841    1.218    0.179
       122  -9.3442    217.1664     93.3513   2.8984984063e+02   5.4349278059e+00   0.02050332  0.007389202 -45.01  0.001508521    3.096    0.677
       123  -7.5142     40.3302     97.2708   2.9188925166e+02   6.4116970035e+00   0.00669703  0.004925886 -24.36 0.0004459459    1.586    0.369
       124  -9.2699     12.7448     94.8272   2.9218966887e+02   6.5985764688e+00   0.02061732    0.0114099 -87.92  0.001704683    2.791    0.642
       125 -10.2007     15.8245     90.2418   2.9212724858e+02   6.6338888720e+00   0.01624145  0.009683582 -46.25 0.0006924883    1.692    0.409
       126  -8.0764    112.0886     95.7301   2.9106127753e+02   6.0157452520e+00   0.01102786  0.007757489  44.58  0.001178865    1.473    0.321
       127  -8.9717    228.1827     94.9939   2.8973429249e+02   5.3520566919e+00   0.01164684  0.009079357  27.10 0.0006016487    1.308    0.236
       128  -9.6296    197.4865     91.1605   2.9006079112e+02   5.5743410249e+00   0.01261577   0.00907211  28.62 0.0008544841    1.410    0.291
       129  -8.1082    127.9987     91.0082   2.9085169458e+02   5.9783724368e+00  0.007354273  0.007224992 -58.49 0.0009250467    1.003    0.003
       130 -10.8115      3.9797     87.8554   2.9224833425e+02   6.7295241806e+00   0.03193098   0.02113751 -69.40  0.003235808    1.559    0.359
       131 -11.2646      9.0614     86.0027   2.9217928598e+02   6.7217511688e+00   0.03404178   0.02044201 -50.65 0.0007855278    1.618    0.382
       132  -8.6575    212.5940     90.2386   2.8988329137e+02   5.4973890153e+00  0.009810018   0.00568193 -51.44 0.0009526977    1.668    0.401
       133  -8.2200     37.5310     89.5804   2.9187546710e+02   6.5167055153e+00   0.01467615  0.006322208 -82.78 0.0008093666    5.958    0.832
       134  -8.7458    223.8595     89.1255   2.8974842776e+02   5.4448898779e+00  0.009347228  0.007513988 -35.25 0.0006048121    1.310    0.236
       135  -8.3464    109.6111     85.8391   2.9103058200e+02   6.1443549262e+00  0.009583835    0.0087986 -34.56 0.0003806084    1.108    0.097
       136  -8.8011    106.1787     85.7980   2.9106949124e+02   6.1646541996e+00   0.01222805  0.009345177  16.22 0.0003745491    1.404    0.288
       137  -8.5692     65.2962     83.0078   2.9151938335e+02   6.4327740776e+00   0.01563235  0.009633705   9.15  0.001494841    2.026    0.506
       138  -7.6008    145.3079     82.3491   2.9060269606e+02   5.9783060198e+00  0.007066551  0.004792247 -31.37 0.0007043583    1.708    0.414
       139  -8.0593     47.9763     83.0000   2.9171705836e+02   6.5326408630e+00   0.01054916  0.003747751  26.89 0.0005430212    2.873    0.652
       140 -10.0651    184.4980     76.5812   2.9012165362e+02   5.8179808411e+00   0.02824204   0.01085315 -51.62  0.002299644    2.448    0.591
       141  -8.2710     65.3174     76.6560   2.9148131378e+02   6.5060562127e+00   0.01278981  0.007326613  44.65  0.001227377    1.842    0.457
       142  -7.8683     19.2510     76.3865   2.9200573168e+02   6.7743456123e+00  0.008748077  0.005933585  38.78 0.0003682444    1.487    0.328
       143  -9.5673     88.3518     73.4502   2.9119929558e+02   6.4102493817e+00   0.01965247   0.01496015 -30.79  0.001603096    1.446    0.309
       144  -8.4323     28.0158     74.0029   2.9189144528e+02   6.7514947753e+00    0.0078916  0.007734566  22.16   0.00040961    1.041    0.040
       145  -7.7298     42.6626    111.7117   2.9194849387e+02   6.2313127746e+00  0.006837069  0.004907137 -25.77 0.0005205051    1.636    0.389
       146  -8.5107     25.2290     70.4578   2.9190218062e+02   6.8084905712e+00    0.0162892   0.01024781 -24.90  0.001549957    2.075    0.518
       147  -7.5731    124.0276     68.9816   2.9076560113e+02   6.2557989549e+00  0.007726598  0.007600155 -59.69 0.0004391652    1.004    0.004
       148  -9.8644     68.5718     67.3991   2.9138901445e+02   6.5942591342e+00   0.01501527   0.01248333 -27.90 0.0005245796    1.293    0.227
       149 -10.6560    201.3453     65.2621   2.8986213800e+02   5.8509828999e+00   0.02736662    0.0181434  37.04  0.002892741    1.511    0.338
       150  -9.8172    206.1424     62.0974   2.8978859501e+02   5.8596840117e+00   0.01180963   0.01089902  13.11 0.0004224293    1.123    0.110
       151  -9.5107    194.7430     63.7233   2.8992813678e+02   5.9070368806e+00   0.01528658  0.009561147 -81.10   0.00147161    1.949    0.487
       152 -10.9925    227.1268     53.5186   2.8949840248e+02   5.8368846220e+00   0.02622289   0.01878191  62.99  0.002782887    1.643    0.391
       153  -8.4458     21.9935    249.2802   2.9299942154e+02   4.7586654312e+00  0.008991661  0.008666648  22.37 0.0003628453    1.060    0.057
       154  -9.3556     47.2207     45.8766   2.9150458959e+02   6.9659236427e+00   0.01536725   0.01238606  -8.68 0.0007824753    1.414    0.293
       155 -10.0106     50.2941     39.3402   2.9143051848e+02   7.0237144309e+00   0.01850328   0.01549615 -20.55 0.0004553733    1.309    0.236
       156 -11.1293     75.6304     55.4721   2.9123733633e+02   6.6913429966e+00   0.04567442   0.02629299 -46.04  0.003311563    1.761    0.432
       157 -11.1043     84.1579     50.2994   2.9110913001e+02   6.7018884281e+00   0.03448987   0.02049707 -53.00  0.002486472    1.615    0.381
       158  -7.7500     49.7606    246.9338   2.9266941677e+02   4.6262161376e+00  0.008652777  0.005363939 -60.72 0.0008647151    1.560    0.359
       159 -10.7588     67.2138     46.8309   2.9128192084e+02   6.8396906600e+00   0.02779206   0.01666465  70.70  0.001870925    2.464    0.594
       160  -9.8841     30.9560     60.7842   2.9177918617e+02   6.8873296883e+00   0.02243567   0.02027207 -27.63  0.001991335    1.149    0.130
       161 -10.4946     26.2975     60.1249   2.9182847716e+02   6.9217448588e+00   0.01538211   0.01283922 -11.72 0.0004933133    1.334    0.250
       162  -8.7776     96.7780     66.7454   2.9106316054e+02   6.4390716081e+00   0.01351718   0.01090537 -29.95 0.0008593551    1.338    0.253
       163 -10.4534    244.4678     54.7463   2.8930842136e+02   5.7219980591e+00   0.03108676   0.01746718 -21.60  0.002589523    2.826    0.646
       164  -9.9438    243.9723     49.6914   2.8928381785e+02   5.7831884471e+00   0.01941357   0.00915644 -62.45  0.001720623    2.072    0.517
       165  -7.7813     38.9595     54.9519   2.9165303029e+02   6.9086553972e+00  0.007997487   0.00725997 -60.89 0.0004443922    1.078    0.072
       166  -8.0746    141.6033     53.7785   2.9047439019e+02   6.3297117266e+00  0.009117094  0.006292803 -78.71 0.0009306342    1.627    0.385
       167  -8.2073    198.2554     53.4107   2.8982649114e+02   6.0056976202e+00  0.009600165  0.005840312  39.09 0.0009540641    1.653    0.395
       168  -8.5923     31.4468     52.9332   2.9172683007e+02   6.9752116296e+00   0.01170283  0.009613595  68.14 0.0009087983    1.351    0.260
       169  -9.4408     40.9345     50.9413   2.9160657843e+02   6.9436176043e+00   0.01455164   0.01130134  48.94 0.0005088928    1.352    0.261
       170  -8.9183     39.7500     47.0151   2.9159671751e+02   6.9957897511e+00    0.0161893   0.01014454  13.03 0.0003412568    1.877    0.467
       171 -10.3675     20.8123     48.3021   2.9182075599e+02   7.0898767466e+00   0.02011736   0.01636456 -40.54  0.001293346    1.253    0.202
       172  -9.1640     25.7059     45.8743   2.9175038191e+02   7.0897788154e+00   0.01568593   0.01223031 -30.56  0.001470294    1.398    0.285
       173  -9.1209    172.0101     49.9963   2.9010512155e+02   6.1972803561e+00  0.009106811  0.008975261 -77.59  0.001156432    1.015    0.015
       174 -10.7082      9.7058     41.1327   2.9190499122e+02   7.2365295888e+00   0.02749676   0.01955516 -80.84  0.001498715    1.585    0.369
       175  -8.4249    133.0912    246.3302   2.9171740684e+02   4.1531519961e+00  0.009016293  0.008288809  26.89 0.0004151075    1.109    0.098
       176  -8.6805    119.7800    246.1862   2.9186801014e+02   4.2315972432e+00  0.009458524  0.008748874  79.28 0.0004239697    1.127    0.112
       177  -8.7339     37.4839    245.3974   2.9280010548e+02   4.7145806005e+00   0.01407634  0.006290202 -62.16  0.001210004    2.167    0.539
       178  -8.8299    110.0331    243.2353   2.9196143451e+02   4.3219249090e+00   0.01107878  0.009166403 -59.80  0.000470341    1.178    0.151
       179  -7.9125    104.4409    243.5031   2.9202666563e+02   4.3510643648e+00  0.006498207  0.006315286 -58.07 3.455125e-05    1.008    0.008
       180  -7.8385     58.6832    243.2861   2.9254625365e+02   4.6170903404e+00  0.006741897  0.004898367  61.40 0.0001875817    1.588    0.370
       181  -8.7631     10.6472    243.0984   2.9309209462e+02   4.8953506158e+00   0.01341793  0.009559525  14.88  0.001435641    1.548    0.354
       182  -9.3775    149.0916    238.5551   2.9148924005e+02   4.1507185506e+00   0.01189286   0.00912621 -86.86 0.0005732612    1.468    0.319
       183  -9.1585    158.1974    237.2486   2.9137789817e+02   4.1132500549e+00    0.0183657   0.01209653  34.51  0.001396357    1.516    0.340
       184 -10.0498    246.6937     61.1856   2.8932161545e+02   5.6347788390e+00   0.02610027   0.01211374  20.01  0.001700436    2.535    0.605
       185  -8.7325    120.9798     38.1470   2.9061630890e+02   6.6294951944e+00  0.009671662  0.009424582 -78.45 0.0005775258    1.026    0.025
       186  -8.2209     37.9686     38.0018   2.9156336078e+02   7.1101466210e+00   0.01101657  0.007664735  63.83 0.0007150228    1.734    0.423
       187  -8.3012    189.9626     37.0319   2.8982303218e+02   6.2428113811e+00   0.01010856  0.009428338 -47.81 0.0004850749    1.058    0.055
       188  -9.4005    120.4316     31.5345   2.9058306970e+02   6.7089989260e+00   0.02174726   0.01385451 -44.20  0.001638232    1.610    0.379
       189  -9.0350    128.4190     34.7414   2.9051108223e+02   6.6257811910e+00   0.01324882    0.0111272 -38.63 0.0008720453    1.219    0.180
       190  -8.8678    125.1935     32.8210   2.9053641453e+02   6.6666076622e+00   0.01142674  0.009902341  26.99 0.0007205094    1.176    0.150
       191  -8.1678    173.9155     34.1085   2.8998843109e+02   6.3696012063e+00  0.009169353  0.008378818  65.84            0    1.145    0.127
       192  -7.9125    234.1453     30.7981   2.8928258527e+02   6.0581978185e+00  0.009112514  0.007416083 -31.47 0.0004295885    1.315    0.239
       193  -9.3577      2.8627     25.4763   2.9188997649e+02   7.4566486832e+00   0.01637435  0.008064377 -51.21  0.001490675    1.948    0.487
       194  -8.0821    106.0291     24.4636   2.9070522617e+02   6.8738803719e+00   0.01486614    0.0065331 -34.48  0.001050395    3.596    0.722
       195  -8.9018    158.3171    233.6945   2.9135543253e+02   4.1536506943e+00   0.01160857  0.009526609 -81.02 0.0008666058    1.293    0.226
       196  -8.7297     91.9894     22.9996   2.9085678416e+02   6.9718876166e+00   0.01540245     0.010721  21.87 0.0006401872    1.509    0.337
       197  -8.4733     95.4385     21.5102   2.9080850479e+02   6.9691577477e+00   0.01194473  0.009998687  69.26  0.000724717    1.315    0.239
       198  -8.9307     68.5495     24.3871   2.9113278327e+02   7.0911476155e+00   0.01540836   0.01134874   5.35  0.001410978    1.575    0.365
       199  -9.2331     11.7544     22.5319   2.9177078113e+02   7.4395587229e+00   0.01280933  0.008962608  53.95  0.001351002    1.591    0.371
       200  -8.8524     64.1919     19.8995   2.9115578363e+02   7.1680794876e+00   0.01804769   0.01086009  78.34  0.001574015    2.535    0.606
       201  -8.6884     68.3322     15.9993   2.9108520334e+02   7.1892219901e+00   0.01277638  0.008688172  27.10 0.0009795744    1.498    0.332
       202 -10.3765     70.3145    235.2492   2.9236624990e+02   4.6431270559e+00   0.01421855   0.01206395 -20.66 0.0003639613    1.284    0.221
       203  -8.5889    174.8811    230.8376   2.9115005344e+02   4.0910001886e+00   0.01608155  0.009216542 -73.24  0.001507525    1.965    0.491
       204  -9.6008    130.7577    230.6843   2.9165113867e+02   4.3475466368e+00   0.01241002   0.01102653 -33.15 0.0003301415    1.160    0.138
       205  -9.1612     41.3084    229.5984   2.9266310669e+02   4.8753908744e+00   0.01408599   0.00906221 -67.52 0.0009021962    1.580    0.367
       206  -9.6725    244.1071    228.8675   2.9035145041e+02   3.7134534583e+00   0.01118777   0.01012356 -71.56 0.0003694621    1.105    0.095
       207  -7.9055    246.4596    225.4401   2.9030432928e+02   3.7394317792e+00  0.006456488     0.006334 -52.27 0.0001436845    1.007    0.007
       208  -7.9805    186.7609    225.7554   2.9098474524e+02   4.0810954527e+00  0.009008782  0.007425684  65.30 0.0004808322    1.334    0.250
       209  -8.5517    120.7939    224.6548   2.9172876350e+02   4.4747633428e+00  0.009558262  0.005695796  37.43 0.0005772047    1.675    0.403
       210  -7.6203     63.9906    223.2424   2.9236715176e+02   4.8184371289e+00  0.008209326  0.005557362  27.18  0.000363457    1.505    0.335
