#   1 NUMBER                 Running object number                                     
#   2 MAG_AUTO               Kron-like elliptical aperture magnitude                    [mag]
#   3 X_IMAGE                Object position along x                                    [pixel]
#   4 Y_IMAGE                Object position along y                                    [pixel]
#   5 X_WORLD                Barycenter position along world x axis                     [deg]
#   6 Y_WORLD                Barycenter position along world y axis                     [deg]
#   7 A_WORLD                Profile RMS along major axis (world units)                 [deg]
#   8 B_WORLD                Profile RMS along minor axis (world units)                 [deg]
#   9 THETA_WORLD            Position angle (CCW/world-x)                               [deg]
#  10 FWHM_WORLD             FWHM assuming a gaussian core                              [deg]
#  11 ELONGATION             A_IMAGE/B_IMAGE                                           
#  12 ELLIPTICITY            1 - B_IMAGE/A_IMAGE                                       
         1 -13.9613     24.8031     49.0900   1.0494180908e+02   6.3453361620e+01     1.284952    0.6381117 -37.26  0.006841152    1.771    0.435
         2 -15.4540      9.1585     25.8258   1.0407658006e+02   6.9106494682e+01     2.683217    0.9089669 -47.76   0.01355962    2.035    0.509
         3 -13.4439     30.5253     10.8337   8.7287909106e+01   6.9738550929e+01     1.595384    0.4624221 -35.85  0.006772133    2.912    0.657
         4 -15.2894     96.5794     71.3497   8.6600384424e+01   4.9361967562e+01     2.275325     1.859378   9.00    0.0120182    1.355    0.262
         5 -15.0152     43.4966     42.8940   9.5325077990e+01   6.2862687583e+01     2.829191     1.217451 -41.66  0.007797271    1.903    0.474
         6 -14.9794     70.6394     56.7638   9.0138882126e+01   5.6611484754e+01     1.965544     1.616982 -64.08  0.006134872    1.548    0.354
         7 -15.0635     60.4601     71.3810   9.8373056060e+01   5.5043127016e+01     2.075584     1.590031  54.83  0.008774079    1.724    0.420
         8 -14.4393     37.2035     85.2006   1.0973077586e+02   5.4563594090e+01      2.04495    0.9208908 -50.16  0.009894808    1.798    0.444
         9 -11.8646     73.1719      1.5536   6.5450696487e+01   6.4392187763e+01    0.2657732    0.1506917  48.57 0.0005093404    1.731    0.422
        10 -13.0896     83.5705     22.6604   7.2049942774e+01   6.0029920493e+01    0.6150944     0.495557  42.65 0.0005987366    1.335    0.251
        11 -13.3835    121.9850     10.5443   5.6688514980e+01   5.3084358034e+01     1.346684    0.4419652  54.43  0.005023822    2.526    0.604
        12 -14.7613     86.7452      7.0218   6.3947943898e+01   6.1215146327e+01     2.669201    0.9318113  50.81   0.01106527    2.581    0.612
        13 -11.7464     64.5337     17.9094   7.6446640572e+01   6.4031256548e+01    0.4165015    0.2857817  21.41  0.001404027    1.405    0.288
        14 -12.4398     75.6327     13.3334   7.0377131692e+01   6.2676216214e+01    0.3421527    0.2828383 -19.08 0.0008638826    1.216    0.177
        15 -12.7592    186.0464     11.9525   4.6691895834e+01   3.6726804527e+01    0.6190199    0.4251124  67.66  0.002942474    1.357    0.263
        16 -11.7186    175.4519     13.9584   4.8698019725e+01   3.9269371324e+01    0.3462772    0.2784669   0.38  0.001513584    1.417    0.294
        17 -12.4790    192.9868      6.1569   4.4174255494e+01   3.5506656172e+01    0.5178669    0.4339477 -36.32  0.002147788    1.237    0.192
        18 -11.4970    188.4739      5.5257   4.4498757521e+01   3.6721784610e+01    0.2470998    0.2049188 -22.37 0.0008492827    1.311    0.237
        19 -12.1492    137.4245      5.3363   5.1693188773e+01   4.9794890292e+01    0.5286717    0.3527393  65.83  0.001618475    1.433    0.302
        20 -10.9744    142.2270      2.3954   4.9804134466e+01   4.8841879706e+01    0.3831626    0.2503929 -88.50  0.001849617    1.897    0.473
        21 -10.6617     49.0762      5.3723   7.6230194942e+01   6.8045404630e+01    0.3667188    0.1694435 -25.28  0.001870523    1.934    0.483
        22 -11.0678    150.3365      8.5998   5.0683885595e+01   4.6256656603e+01    0.3446836    0.2407362  59.27  0.001041653    1.298    0.230
        23 -10.9179    223.6694    134.0617   7.4408134799e+01   9.2234130252e+00    0.4750838    0.2213235  49.79  0.001909413    2.289    0.563
        24 -10.2754     21.3596    133.6674   1.2197621753e+02   4.4781969102e+01    0.1952522    0.1181876  74.39  0.001122406    1.692    0.409
        25 -10.0359    138.9726    152.3076   9.6296486924e+01   2.3617095033e+01    0.2103822    0.1901121  45.03 0.0008405565    1.086    0.079
        26 -10.3071     65.0054    129.7547   1.1029843654e+02   4.1071672574e+01    0.2592749    0.1642312 -79.34  0.001298002    1.659    0.397
        27 -11.1070    122.1539    127.3831   9.4903960081e+01   3.2324484812e+01    0.3782649     0.355274 -64.55  0.001578515    1.042    0.040
        28 -11.7823     34.2266    135.7278   1.1906951826e+02   4.3150368654e+01    0.3069492    0.1968826  34.43  0.001818906    1.829    0.453
        29  -9.8252    101.6696    114.3150   9.7195974200e+01   3.9078379651e+01    0.1498312    0.1146756  85.40 0.0007045518    1.679    0.405
        30 -11.0727    245.0057    249.7639   9.3193853056e+01  -9.9949253968e+00    0.1524199   0.07246494  36.27 0.0008934653    1.668    0.400
        31 -10.3436    188.3150    198.3361   9.4713013957e+01   5.6238313007e+00    0.1368851   0.09646257   9.82 0.0007047231    1.693    0.409
        32 -10.8792     34.2322    177.3862   1.2351882345e+02   3.3912612707e+01    0.2205955    0.1891045  -3.15  0.001526463    1.916    0.478
        33 -11.9109    203.5000    171.7269   8.6643156022e+01   7.0454124982e+00    0.3972242     0.291892   6.01  0.002051167    1.517    0.341
        34 -10.7985      2.9575    171.2739   1.2924883313e+02   3.8073711864e+01    0.2031043    0.1238197  50.17   0.00140101    1.599    0.374
        35 -11.2335    198.3084    168.3415   8.6954171144e+01   8.6281277258e+00    0.3071832    0.1738815  49.84  0.001377103    1.863    0.463
        36 -11.0915    135.3465     98.4921   8.4056895273e+01   3.5880295670e+01    0.5745043    0.3959202  13.60   0.00235522    2.120    0.528
        37 -12.0736    141.8506     96.9112   8.1968076899e+01   3.4763675500e+01    0.7187518    0.4405421 -27.77  0.002916275    1.870    0.465
        38 -10.3621    185.4929    167.0202   8.9248780910e+01   1.1410310992e+01     0.210036     0.140834 -38.39 0.0007082305    1.556    0.357
        39 -10.9544    114.1894     97.1333   8.9284563213e+01   4.0579976809e+01    0.3399471     0.269164 -67.52  0.001069651    1.466    0.318
        40 -11.9544     82.5378     95.4306   9.7951157577e+01   4.6569514065e+01    0.5576815     0.303169  30.57  0.002442617    2.208    0.547
        41  -9.7374    117.6332     90.6922   8.6488271968e+01   4.1267545028e+01    0.1590491    0.1197732   0.22 0.0001072337    1.753    0.429
        42 -10.2844    188.3075     94.1494   7.0802378473e+01   2.4273781031e+01    0.4273107    0.2175333 -50.30  0.001546882    2.347    0.574
        43 -13.1245      6.0882     82.5696   1.1927096683e+02   5.7463892749e+01      1.05633     0.337516 -54.15  0.005060496    2.209    0.547
        44 -12.2451      8.1455     65.1902   1.1537532641e+02   6.1179759446e+01    0.4224387    0.2462348 -55.17  0.001751513    1.257    0.205
        45 -10.2107    249.7813     86.7432   5.8591501716e+01   1.1208604509e+01    0.2337403       0.2173  59.96  0.001386335    1.218    0.179
        46 -12.5587    128.1280     81.5491   8.0885794632e+01   4.0917775589e+01    0.4177085    0.3645295 -45.88  0.002141831    1.152    0.132
        47 -12.9745    118.0728     67.4198   7.9026552179e+01   4.5828151263e+01    0.5842508    0.3633305 -29.95  0.002097891    1.623    0.384
        48 -13.0952    115.7309     78.5614   8.3317445934e+01   4.4158661402e+01    0.6310995    0.4340845  44.17  0.002949248    1.525    0.344
        49 -13.0065    119.1787     73.4482   8.0718529741e+01   4.4443622536e+01    0.5814279    0.3512276  28.89 0.0008463821    2.052    0.513
        50 -12.9371      2.6915     70.7584   1.1836181028e+02   6.0254638494e+01     1.106213    0.2847295 -68.64  0.004472832    3.065    0.674
        51 -12.2387    144.3263     74.8742   7.4678645688e+01   3.8493281881e+01    0.4617867     0.299602 -28.48  0.001076792    1.590    0.371
        52 -10.2253    148.8132     80.0642   7.5231439668e+01   3.6462036884e+01    0.4158672    0.2205324 -18.83 0.0008326106    2.944    0.660
        53 -10.7724    153.5380     72.9518   7.1902798956e+01   3.6627007381e+01    0.2491843    0.2119993  47.08   0.00123132    1.187    0.158
        54 -10.0028    182.6946     71.9987   6.5494842644e+01   2.9517921844e+01     0.210862     0.195821 -28.35 0.0007079844    1.055    0.052
        55  -9.8069    162.1268     71.8376   6.9640389190e+01   3.4708853566e+01    0.2066923    0.1783629  16.42 0.0002767778    1.245    0.197
        56 -11.1078    146.7496     65.3812   7.1034507297e+01   3.9608488028e+01    0.3802038    0.2556998 -18.72 0.0006691814    1.676    0.403
        57 -10.7203    214.2864     61.4249   5.7077347741e+01   2.3251729625e+01    0.3643805    0.2528964 -15.87  0.001694609    1.624    0.384
        58 -10.1321    169.7028     63.1270   6.5330064212e+01   3.4269463833e+01    0.2568507    0.2110449  66.94 0.0005175732    1.299    0.230
        59 -12.6003    124.8181     57.5615   7.3813569868e+01   4.6107039697e+01     0.361319    0.3298851  39.54 0.0006710511    1.120    0.107
        60 -11.7109     58.3397     57.0323   9.4611428871e+01   5.8296696215e+01    0.2532715    0.2114968 -43.96 0.0006703124    1.139    0.122
        61  -9.8572    227.1752     57.1477   5.4092745930e+01   2.0737205440e+01    0.2018109    0.1597086 -63.83  0.000432717    1.327    0.246
        62 -11.0371    174.6590     56.4778   6.2280988853e+01   3.4053153837e+01    0.2590921    0.2585354 -46.82 0.0004071499    1.019    0.018
        63 -11.8507    134.0295     53.8658   7.0179404836e+01   4.4589459605e+01    0.5892178    0.3279705  60.46  0.001570731    2.077    0.518
        64 -10.7424    153.6529     53.1391   6.5426916705e+01   3.9910377926e+01    0.5417502    0.2397413  37.90  0.001818255    2.866    0.651
        65 -11.3435    145.3084     50.3237   6.6302297521e+01   4.2420385743e+01    0.3531497     0.303996 -40.53 0.0007904967    1.204    0.170
        66 -11.9705    215.9429    161.3056   8.2052122530e+01   6.3102828182e+00    0.7000536    0.3758399  -7.89  0.002453384    3.520    0.716
        67 -11.4945    100.9960     49.3184   7.7509112781e+01   5.2606944089e+01    0.2918004    0.2489074  19.19  0.001208808    1.155    0.134
        68 -10.2204    137.6100     48.6112   6.7473998660e+01   4.4562500915e+01    0.2971441    0.2118521 -67.05   0.00130335    2.007    0.502
        69 -10.3083    119.2944     49.4091   7.2355370549e+01   4.8704123148e+01    0.1911198    0.1448902  58.58  0.000673481    1.489    0.328
        70 -11.6494     89.2850     48.4753   8.0830874844e+01   5.5007007825e+01    0.2815837    0.2314808 -82.65  0.001451952    1.934    0.483
        71 -10.3750    176.2224     46.1218   5.8742043571e+01   3.5174751676e+01    0.4038348    0.2432806  18.50   0.00153017    2.541    0.606
        72 -11.2282    157.1761     43.7781   6.1557472005e+01   4.0406338569e+01    0.3173536    0.2608871  32.06 0.0006388079    1.245    0.197
        73 -11.1345    122.2595     43.7886   6.9504060140e+01   4.8911533537e+01    0.3181744    0.2580587  13.23  0.001647086    1.267    0.211
        74 -10.2449    181.7701     43.6286   5.7010277758e+01   3.4084147197e+01     0.259387    0.2183192  35.20 0.0005091103    1.251    0.201
        75 -10.3409    139.9228     43.7043   6.5205051363e+01   4.4733271954e+01    0.4171073    0.2142873  61.74  0.001644882    2.155    0.536
        76 -10.6590    196.8788     41.5194   5.3997001554e+01   3.0465318467e+01    0.3248791    0.2240352 -13.44  0.001514497    1.677    0.404
        77 -10.2222    120.2781    103.9988   8.9524121513e+01   3.7872672547e+01    0.2257184    0.1969849 -43.70 0.0007797023    1.095    0.087
        78 -11.9256    216.6840     38.7142   5.0493244264e+01   2.5819456674e+01    0.6596122    0.2420619  58.36  0.002481691    2.597    0.615
        79 -10.8489    204.6019     36.8272   5.1545702890e+01   2.9103304692e+01     0.282429    0.2407448  61.46 0.0008425145    1.176    0.150
        80  -9.5347    130.2130     37.3546   6.5150666211e+01   4.7982229506e+01     0.194305    0.1391602  63.72 0.0003364226    1.545    0.353
        81 -10.2318    160.0365     36.2450   5.8472181625e+01   4.0698421759e+01    0.2167673    0.1840546  38.41 0.0002917823    1.165    0.142
        82 -12.1233     82.4244     33.7096   7.7189216073e+01   5.8672423133e+01    0.4758971    0.3091333  20.58  0.001243666    1.687    0.407
        83 -12.7459     79.2656     31.1235   7.7156992479e+01   5.9632378007e+01    0.5549434    0.4317454 -14.87   0.00274226    1.146    0.128
        84  -9.4696    240.5159     34.4691   4.6651972005e+01   2.0613179616e+01    0.1343903    0.1235575 -55.32 0.0001489731    1.036    0.035
        85 -11.1277    176.6474     33.3717   5.4644071092e+01   3.6762715790e+01    0.2755331    0.2519678  40.19 0.0005125745    1.103    0.093
        86 -10.1205     96.9750     33.8802   7.2663088849e+01   5.5847466547e+01    0.2155716    0.1909661   3.85 0.0006304959    1.010    0.010
        87 -10.9536    239.8717    157.2930   7.6852019721e+01   2.3407552121e+00    0.4844211    0.1600084 -35.72  0.001801001    2.853    0.649
        88 -11.7706    199.3340    155.1609   8.3910089279e+01   1.0687790760e+01    0.4375369    0.3031624 -56.73  0.002033076    1.939    0.484
        89 -12.0445    233.6283    154.0541   7.7229246329e+01   4.0158253577e+00    0.4328589    0.2820294  35.67  0.001984302    1.521    0.342
        90 -10.9793    190.3623    154.1393   8.5487803499e+01   1.2724479615e+01    0.3601424    0.2950501 -82.65  0.001795094    1.758    0.431
        91 -11.5436    241.9055     22.7716   4.3624907169e+01   2.1703827563e+01    0.3763057    0.2730619 -63.13 0.0007858389    1.307    0.235
        92 -11.4975    151.2789     21.2347   5.4938482207e+01   4.4747589591e+01     0.595892    0.2692218  56.22  0.002439215    1.976    0.494
        93  -9.3618     93.3632     24.2579   6.9711835252e+01   5.7900839093e+01    0.1439653   0.09307872  21.68 0.0006971883    1.630    0.387
        94 -10.2220    139.2415     20.9861   5.7126376718e+01   4.7809302855e+01    0.2421249    0.1965168  55.75 0.0005283225    1.175    0.149
        95 -10.5545    208.7469     18.8579   4.5989589748e+01   3.0195601677e+01    0.3181932    0.2242435 -49.11  0.001663849    1.386    0.278
        96 -11.7511     19.6158    153.8752   1.2445629653e+02   4.0405072158e+01    0.2549787    0.2026898 -45.03  0.001767207    1.644    0.392
        97 -11.2457     28.4544    154.0878   1.2252391836e+02   3.9550017414e+01    0.2569015    0.1666744  -9.40  0.001331498    3.249    0.692
        98 -12.5181    248.4271    144.8562   7.2637952808e+01   2.6009625959e+00     1.057813      0.39917 -37.23  0.004193027    2.480    0.597
        99 -13.4601     51.4711    142.6132   1.1575230016e+02   3.9734757665e+01     1.214741    0.5319299  43.08  0.005753901    2.365    0.577
       100 -12.0212    213.4822    142.1699   7.8202475747e+01   9.9915824626e+00    0.7938429    0.4220681  55.52  0.003246562    2.303    0.566
       101 -11.9058     75.9787    140.7359   1.0937178194e+02   3.7021405839e+01    0.4716335    0.2549198 -84.33  0.001918696    2.687    0.628
       102 -11.7327     76.3306    137.3375   1.0869463813e+02   3.7760077043e+01    0.3394289     0.192015 -58.07  0.001423016    1.598    0.374
       103 -13.2580    201.7505    128.1772   7.7099669560e+01   1.4969514794e+01     1.638517     1.029691   0.08   0.00632313    2.529    0.605
       104 -11.5817     82.3648    134.2520   1.0658707533e+02   3.7597803566e+01    0.2847926    0.2131515 -72.84   0.00153152    1.289    0.224
