#   1 NUMBER                 Running object number                                     
#   2 MAG_AUTO               Kron-like elliptical aperture magnitude                    [mag]
#   3 X_IMAGE                Object position along x                                    [pixel]
#   4 Y_IMAGE                Object position along y                                    [pixel]
#   5 X_WORLD                Barycenter position along world x axis                     [deg]
#   6 Y_WORLD                Barycenter position along world y axis                     [deg]
#   7 A_WORLD                Profile RMS along major axis (world units)                 [deg]
#   8 B_WORLD                Profile RMS along minor axis (world units)                 [deg]
#   9 THETA_WORLD            Position angle (CCW/world-x)                               [deg]
#  10 FWHM_WORLD             FWHM assuming a gaussian core                              [deg]
#  11 ELONGATION             A_IMAGE/B_IMAGE                                           
#  12 ELLIPTICITY            1 - B_IMAGE/A_IMAGE                                       
         1  -9.5895      9.8747     31.0540   8.1407622749e+01  -8.5515887682e+01   0.01649241   0.01390802 -89.49  0.003648491    1.156    0.135
         2 -11.2990     78.8130     35.7463   8.0574377710e+01  -8.5037384118e+01    0.0205601   0.01434808  -3.38   0.00413073    1.488    0.328
         3 -12.1117    104.4572     13.4947   8.2120960078e+01  -8.4843906664e+01   0.02686183  0.008451261  29.30  0.003774999    2.917    0.657
         4 -12.4365    105.6464     20.2349   8.1603675149e+01  -8.4840407997e+01   0.01043122  0.008991933 -30.03 0.0003823034    1.196    0.164
         5 -12.0637     48.4800     12.9732   8.2614667865e+01  -8.5233550218e+01   0.02299797  0.008086702 -86.83  0.003258907    2.825    0.646
         6 -11.7501     26.4036     28.5193   8.1502062243e+01  -8.5398878362e+01   0.01566087   0.01221676  45.91  0.002673083    1.272    0.214
         7 -11.5745     20.3007     22.2018   8.2086945371e+01  -8.5436992812e+01   0.02257021   0.01102416  31.38  0.003516499    1.987    0.497
         8 -11.5376      6.9655     11.0390   8.3170250140e+01  -8.5520903193e+01   0.01832553   0.01351319 -52.92  0.003672671    1.350    0.259
         9 -11.0338      9.5133     19.5609   8.2407503494e+01  -8.5510164314e+01   0.01551003  0.006319606  60.92  0.001454775    2.603    0.616
        10 -10.7711     12.8697      8.2818   8.3347271079e+01  -8.5477422609e+01   0.01155151  0.006742219  -4.68  0.001234251    1.827    0.453
        11 -11.8449     16.3985     13.4902   8.2865896773e+01  -8.5457342472e+01   0.02051788  0.008363099  32.15  0.003220989    2.334    0.572
        12 -11.9012     23.0140     10.7194   8.3037552345e+01  -8.5408973117e+01   0.01462619   0.01019567  68.73    0.0020474    1.438    0.305
        13 -11.9535     35.6176     19.2473   8.2207857867e+01  -8.5328033780e+01   0.01798547  0.008487137  20.97  0.002568074    2.067    0.516
        14 -11.9200    164.1565     27.7286   8.0712446730e+01  -8.4436626365e+01   0.01828061  0.009530012  88.94  0.003169178    1.886    0.470
        15 -11.2958    135.3351     22.1285   8.1273449552e+01  -8.4634475439e+01   0.02001748   0.01152316 -28.19  0.003619994    1.842    0.457
        16  -9.6014    127.2201     11.3872   8.2110734892e+01  -8.4683662312e+01  0.006381627  0.003965301 -31.07 0.0009577133    1.695    0.410
        17 -10.3357    137.4917     14.5089   8.1811961656e+01  -8.4614296093e+01  0.008965871  0.006591026 -68.90  0.001437434    1.325    0.245
        18 -10.6808    127.1539     16.6177   8.1727951849e+01  -8.4687879209e+01   0.01284633  0.005817807  60.74  0.002042319    2.280    0.561
        19 -11.1044    132.9899     15.5019   8.1770226455e+01  -8.4646392714e+01   0.01266252  0.006503373  54.29  0.002166833    1.966    0.491
        20 -10.8807     67.8670     19.1257   8.1960545016e+01  -8.5103133268e+01   0.01247509  0.008173676 -50.48  0.001988156    1.527    0.345
        21 -11.9027    165.1994     17.7895   8.1402561507e+01  -8.4423221707e+01   0.01506882  0.007434945  57.80  0.002195098    2.058    0.514
        22 -11.2250     85.9246     14.2537   8.2203853194e+01  -8.4973654426e+01   0.01696583   0.01051126  41.27  0.002807686    1.596    0.374
        23 -10.2020     89.3934      8.5459   8.2616460061e+01  -8.4945056406e+01  0.007959015   0.00588244   0.87 0.0009101987    1.403    0.287
        24 -11.5558    239.1193     16.3044   8.1091921060e+01  -8.3906332640e+01    0.0176502  0.006658245  78.64  0.002069744    2.761    0.638
        25 -11.8058    227.9638     15.1531   8.1224547895e+01  -8.3983475188e+01   0.01442129  0.007344936 -65.78  0.001404295    1.885    0.470
        26 -10.9137    218.9533     13.1849   8.1402160704e+01  -8.4045085871e+01  0.008761861  0.007732021 -68.68  0.001976232    1.115    0.103
        27 -11.4063    192.0542      9.6067   8.1799793778e+01  -8.4230304028e+01    0.0177381  0.005575692  25.86  0.002487937    2.927    0.658
        28 -10.8401    218.7603      3.7568   8.2019943214e+01  -8.4039900389e+01    0.0113026  0.006390977  71.98  0.001998285    1.793    0.442
        29 -10.7916    223.7693      2.7907   8.2051168877e+01  -8.4004276944e+01  0.007727594   0.00653546 -66.26 0.0004270128    1.162    0.139
        30 -11.5838    206.5793      2.3023   8.2194545563e+01  -8.4123729437e+01   0.02039187  0.006499626 -67.21  0.002864135    2.841    0.648
        31 -11.5936    211.9263     10.4406   8.1623026410e+01  -8.4092274525e+01      0.01157  0.009713731  12.90  0.001414724    1.215    0.177
        32 -10.5109    213.4885      5.5014   8.1938817848e+01  -8.4077917666e+01  0.006943422  0.005281487 -47.87     0.000656    1.325    0.245
        33 -10.4693    120.3493     11.6729   8.2139650435e+01  -8.4731770439e+01  0.006902399  0.004209088  88.16 0.0007747567    1.617    0.381
        34 -10.7175    168.9637      9.5212   8.1954753497e+01  -8.4391262994e+01    0.0144348  0.006392121  73.55   0.00187238    2.357    0.576
        35 -10.3867    164.1496      6.4096   8.2204166162e+01  -8.4422531292e+01   0.01633273  0.005299998  24.38  0.002323268    2.845    0.649
        36 -10.9474    152.3853      8.6543   8.2128670739e+01  -8.4506209065e+01   0.01070702  0.007249291  20.96  0.001021147    1.477    0.323
        37 -10.1417      1.1868      8.0024   8.3495077266e+01  -8.5558399951e+01  0.009659541   0.00241692  11.46  0.001182334    3.845    0.740
        38 -10.4864      2.0891      2.1047   8.3999055665e+01  -8.5546622900e+01   0.00894522  0.005419014  34.70  0.001642126    1.622    0.383
        39 -11.4502    185.2390      6.0745   8.2083237701e+01  -8.4275279580e+01   0.01117238  0.009810021 -78.23  0.002518328    1.111    0.100
        40 -10.5392     73.4701      3.6505   8.3135793092e+01  -8.5051838387e+01   0.01639669  0.007554127  82.10   0.00262464    2.246    0.555
        41 -10.7959    231.9114      6.4646   8.1763613004e+01  -8.3950138067e+01  0.008214579  0.005886424 -59.61 0.0009816331    1.373    0.272
        42 -11.2144    233.6271      2.7269   8.1993568718e+01  -8.3935512725e+01   0.01397754  0.006257112 -50.57 0.0009697753    2.219    0.549
        43 -10.1758    148.9849      6.2487   8.2323716992e+01  -8.4528094812e+01  0.007472066   0.00445093  59.94  0.001368688    1.696    0.410
        44  -9.9580     62.8618      6.2387   8.3028495574e+01  -8.5127870066e+01  0.009084554  0.007034523 -70.79  0.001920526    1.256    0.204
        45  -9.7079     64.3683      2.1229   8.3341877100e+01  -8.5113818730e+01  0.005051744  0.004456495  44.34 0.0005180204    1.128    0.114
        46 -10.6435    247.4774      5.5371   8.1731417298e+01  -8.3840938491e+01  0.007999417  0.006616003  33.48  0.001198006    1.208    0.172
        47 -11.1391    242.6389      4.0425   8.1854698343e+01  -8.3873628100e+01   0.01066879  0.006321277 -55.75  0.001571581    1.661    0.398
        48  -9.5018    245.5555      1.4070   8.2004321710e+01  -8.3851402322e+01  0.005763344   0.00335755 -83.83 5.407129e-05    1.669    0.401
        49 -10.7336    176.9937      5.8722   8.2152664959e+01  -8.4332604992e+01  0.008162896  0.005194138 -67.32 0.0004476269    1.520    0.342
        50 -10.6059    142.4918      2.5187   8.2638652322e+01  -8.4570405200e+01  0.008806295  0.007346601  -5.04   0.00138564    1.245    0.197
        51 -10.8644    137.8716      4.1742   8.2555339473e+01  -8.4603906523e+01  0.007998222  0.006499443 -84.07 0.0004651532    1.198    0.165
        52 -11.5541    133.2914      2.4290   8.2717214830e+01  -8.4634405831e+01   0.01103298  0.008422042 -84.85  0.002083424    1.276    0.216
        53 -11.1090     41.3606      3.9127   8.3423189494e+01  -8.5275411696e+01   0.01056387  0.006380882  64.97  0.001191081    1.689    0.408
        54 -10.3203    122.0200      5.3468   8.2593362990e+01  -8.4715253397e+01  0.007188594  0.004822353   9.33   0.00097202    1.523    0.343
        55 -10.4868    105.4529      2.1400   8.2968037447e+01  -8.4827979714e+01  0.008699276  0.005702794 -48.40  0.001252364    1.533    0.348
        56  -9.4663     21.7800      2.8386   8.3716415726e+01  -8.5410537389e+01  0.005092925  0.003896001 -37.61 0.0006780825    1.347    0.257
        57  -9.6185     13.0249      2.3372   8.3854979296e+01  -8.5470893831e+01  0.005229504  0.004313466 -77.98 0.0006913239    1.179    0.152
        58  -9.4766     78.0391      7.5243   8.2791775187e+01  -8.5023296042e+01  0.006655847  0.004451018 -61.67 0.0008269217    1.458    0.314
        59  -9.4565    152.4212      1.3380   8.2646263018e+01  -8.4500303589e+01  0.005844695   0.00321221 -82.42 0.0005473599    1.765    0.434
        60  -9.1419     81.9605      1.1546   8.3252219419e+01  -8.4990602153e+01  0.004899054  0.002459969 -82.74 0.0004875031    1.935    0.483
        61 -10.8399    113.0300      2.5976   8.2869748077e+01  -8.4775617744e+01   0.01124605  0.007432082 -44.25  0.001497951    1.539    0.350
        62 -10.0378     49.2068    112.1100   7.4450436718e+01  -8.5260021192e+01  0.007916496  0.004783878 -83.98  0.001070169    1.630    0.386
        63 -11.7619     79.7000    108.1748   7.4854224665e+01  -8.5047163692e+01   0.01314805  0.007401191  80.36 0.0007151497    1.719    0.418
        64  -8.5382     69.3029    110.6753   7.4627569416e+01  -8.5119606166e+01  0.003849816  0.002384932 -46.24  0.000598495    1.639    0.390
        65 -10.8478     15.7725    109.5055   7.4564753268e+01  -8.5494403369e+01   0.01146448  0.006819846 -87.10  0.001733521    1.648    0.393
        66  -9.1187    101.5203    109.4796   7.4806584628e+01  -8.4894266496e+01  0.003566496  0.003339395  55.73 -4.755271e-05    1.049    0.046
        67  -8.7932     45.4993    105.5295   7.4984934583e+01  -8.5286858563e+01  0.003517505   0.00338961  68.13 -9.844833e-06    1.012    0.012
        68  -9.8274     85.8764    103.6329   7.5225274645e+01  -8.5004364421e+01  0.005851689  0.004658313  29.88  0.000541786    1.262    0.208
        69 -11.2433     17.5857    100.8661   7.5318826639e+01  -8.5482649555e+01  0.008233891  0.006748002 -57.33 0.0005139071    1.226    0.184
        70 -10.7831     50.8251    100.2246   7.5434781501e+01  -8.5249980971e+01   0.01744394  0.007557597  42.68  0.002772359    2.276    0.561
        71 -10.4101     50.2278     91.9096   7.6119593177e+01  -8.5254240081e+01   0.01168765  0.007184785 -34.93  0.002198455    1.663    0.399
        72 -11.4246     67.7779     95.9415   7.5807744190e+01  -8.5131397517e+01    0.0164555   0.01028399  57.16  0.002945899    1.561    0.360
        73 -11.5709      9.1887     97.0172   7.5639698332e+01  -8.5541607206e+01   0.01326582   0.01127764 -83.35 0.0008125978    1.153    0.133
        74  -9.9963     71.9641     84.1460   7.6755249564e+01  -8.5101483821e+01  0.005441449  0.004949428   9.98 0.0004178712    1.124    0.110
        75 -11.3620     76.6745     80.3452   7.7055947608e+01  -8.5068023367e+01   0.02741733   0.01303888 -48.88  0.004544657    2.127    0.530
        76 -10.1471     80.8661     98.1783   7.5645989246e+01  -8.5039716722e+01  0.007493713  0.005367881 -46.03 0.0006760379    1.415    0.293
        77 -11.3985     79.4739     92.9371   7.6058577144e+01  -8.5049467371e+01   0.02046983   0.01574214 -78.82  0.004324227    1.278    0.217
        78  -9.4637    210.1736     98.2473   7.5789881061e+01  -8.4134267056e+01  0.005309512  0.004421044  52.48 0.0004922661    1.179    0.152
        79 -12.2682    125.4726     94.7446   7.5957960068e+01  -8.4727375723e+01  0.009716165  0.006757816 -73.34 0.0003733513    1.420    0.296
        80 -10.3689     35.3950     92.3348   7.6072784406e+01  -8.5358117595e+01   0.01389882  0.005341913 -25.55  0.002063052    2.680    0.627
        81 -11.3775     45.0520     84.5481   7.6727623024e+01  -8.5289989318e+01   0.01443178   0.01210516  86.25  0.002005426    1.160    0.138
        82 -10.2392     37.2397     85.9704   7.6609420171e+01  -8.5344832879e+01   0.01074993   0.00530959  75.22  0.001607006    1.969    0.492
        83 -10.4541     43.4876     94.4573   7.5902428098e+01  -8.5301484538e+01  0.008844557   0.00656289  75.01  0.001624217    1.308    0.236
        84 -11.0278     41.8448     90.5637   7.6225862516e+01  -8.5312891805e+01   0.01242383  0.006434342 -69.54  0.001332796    1.915    0.478
        85 -11.5063     22.2785     94.1529   7.5905578986e+01  -8.5449988429e+01   0.01633573   0.00858684 -53.73  0.001471765    1.920    0.479
        86 -10.5386     18.9245     86.6950   7.6546745996e+01  -8.5473145821e+01   0.01354038  0.007692549  69.89  0.002456723    1.713    0.416
        87 -10.1068     25.6178     87.8501   7.6448558467e+01  -8.5426365469e+01   0.01402641  0.006459993 -36.66   0.00184939    2.226    0.551
        88  -9.3529     28.5249     84.5423   7.6731060897e+01  -8.5405720339e+01   0.01038477  0.008067163 -48.34  0.001781187    1.301    0.231
        89 -11.3795     98.9255     91.1687   7.6209419865e+01  -8.4913189115e+01  0.008514153  0.005434622 -76.61  0.001372238    1.542    0.351
        90 -11.3767      7.2339     88.3494   7.6399923347e+01  -8.5555125851e+01   0.01529102   0.01044508  84.12   0.00206157    1.424    0.298
        91  -9.4487      1.4955     88.4929   7.6385267201e+01  -8.5595314569e+01  0.005104478   0.00320656 -20.63 0.0006068947    1.639    0.390
        92  -9.9688     66.6898     88.5980   7.6397871918e+01  -8.5138801229e+01  0.008264668   0.00457959  46.45 0.0008366703    1.777    0.437
        93 -10.0303     90.8112     85.9273   7.6612836956e+01  -8.4969669499e+01    0.0093262  0.007109995 -55.99  0.001953049    1.316    0.240
        94 -10.1744     52.0748     87.0103   7.6523903989e+01  -8.5241034657e+01  0.005076554  0.004983862  80.36 0.0003163811    1.011    0.010
        95 -10.3711    143.2589     84.4571   7.6719316483e+01  -8.4602219956e+01   0.00603074  0.005492115 -32.34 0.0003310629    1.125    0.111
        96 -10.2484    112.9784     83.2575   7.6814324538e+01  -8.4814154413e+01   0.01126004  0.005298849 -67.89  0.001851751    2.100    0.524
        97 -10.0632     67.1712     81.9273   7.6934752414e+01  -8.5134787789e+01  0.009801688  0.006447982  34.80  0.001910966    1.514    0.340
        98  -9.2394     59.5281     83.5081   7.6809760435e+01  -8.5188502721e+01   0.00350768  0.003399785  71.11 1.083455e-05    1.007    0.007
        99  -9.6443     92.5134     71.9649   7.7696477546e+01  -8.4955595742e+01  0.006246374  0.004765091 -66.92  0.001110221    1.296    0.228
       100 -10.8769     88.9520     77.7921   7.7247474467e+01  -8.4981652006e+01   0.01276178  0.008410772 -74.16    0.0024682    1.490    0.329
       101 -10.4426     94.7116     76.3806   7.7351618638e+01  -8.4941077143e+01  0.009758123  0.007361959 -74.74  0.001395605    1.302    0.232
       102 -11.3965     52.9474     74.2180   7.7574492610e+01  -8.5233111630e+01   0.01601148   0.00767008  -8.50  0.002656318    2.169    0.539
       103 -10.0320     58.0490     77.7679   7.7278078229e+01  -8.5198051016e+01  0.005912382  0.005138806  -0.11 0.0005615677    1.182    0.154
       104  -8.5419    181.7181     76.3205   7.7276288043e+01  -8.4331783461e+01  0.003767818  0.002412227 -43.77 0.0002796896    1.587    0.370
       105 -11.0321     14.2565     74.7135   7.7589295229e+01  -8.5504107727e+01  0.009735648  0.007252852 -24.97  0.001814318    1.384    0.277
       106  -9.8330    103.1917     74.6475   7.7475565514e+01  -8.4881374208e+01  0.007033224  0.006272651 -66.34  0.001589896    1.114    0.102
       107 -10.6661     80.0045     70.6235   7.7821502285e+01  -8.5042877151e+01   0.01905679  0.007136015 -24.30  0.002765784    2.833    0.647
       108  -8.8255    112.4880     75.4831   7.7401636306e+01  -8.4816432411e+01  0.003522119  0.003387264 -65.70 0.0003501725    1.042    0.040
       109 -10.7893      2.0138     71.3641   7.7905295544e+01  -8.5589063176e+01  0.009961293  0.006444424   3.90  0.001923532    1.584    0.369
       110 -12.5161      7.5527     61.0923   7.8796334646e+01  -8.5547254270e+01   0.02622871   0.01401029  56.45  0.004614154    1.855    0.461
       111 -11.6139     40.9196     69.9420   7.7948974074e+01  -8.5316355559e+01   0.01173576  0.007917819   1.23 0.0006780428    1.523    0.343
       112 -10.4758     34.7934     71.7872   7.7805768997e+01  -8.5359687309e+01   0.01138826   0.00470596 -69.48  0.001761599    2.358    0.576
       113  -9.8488     24.5906     73.6812   7.7662239374e+01  -8.5431540180e+01  0.006670955  0.004644135  29.94  0.001010257    1.436    0.304
       114  -9.2061    154.0541     72.4630   7.7575606202e+01  -8.4524779798e+01  0.005400172  0.003386789  86.03 0.0005931606    1.554    0.356
       115 -10.7989    122.7241     68.8059   7.7888071739e+01  -8.4743338940e+01   0.01131859  0.006355586  85.72  0.001315702    1.738    0.424
       116 -10.2495     13.9850     67.4604   7.8220848744e+01  -8.5504244625e+01  0.009674804  0.005075875  88.20  0.001579067    1.860    0.462
       117 -10.1281     96.8640     65.5142   7.8187235055e+01  -8.4923537768e+01  0.007122235  0.005883551  55.32 0.0007677528    1.190    0.160
       118 -10.9967     92.3140     62.7867   7.8408645837e+01  -8.4954598338e+01   0.01405636  0.006112018 -84.01  0.002231412    2.232    0.552
       119 -10.3220    201.8429     64.9004   7.8029606727e+01  -8.4188437497e+01  0.006921714  0.004763656 -79.34 0.0003172833    1.419    0.295
       120  -9.3126     46.6999     76.0743   7.7429602937e+01  -8.5277218913e+01   0.00829738  0.005509621  60.89  0.001469903    1.476    0.322
       121 -10.2044    158.9051     62.9607   7.8244557499e+01  -8.4488499036e+01  0.008772789  0.004500493  74.51 0.0009494839    1.919    0.479
       122  -9.2366    105.8946     63.6306   7.8311253506e+01  -8.4859784636e+01   0.00615904  0.003293779 -88.82 0.0005804535    1.822    0.451
       123 -10.2200     51.2798     55.8473   7.9086898380e+01  -8.5239388544e+01   0.01553336   0.00461848  28.58  0.002093084    3.174    0.685
       124 -10.5056     51.1697     61.1864   7.8648726555e+01  -8.5242067744e+01     0.008469  0.006503168 -62.37  0.001513781    1.290    0.225
       125 -10.6545     40.5428     56.8699   7.9041209275e+01  -8.5314897722e+01  0.009427758  0.004792809 -77.29 0.0009722609    1.904    0.475
       126 -10.9483     43.2193     61.1809   7.8673239384e+01  -8.5297704979e+01  0.009824862  0.005681711 -10.98  0.001105722    1.804    0.446
       127 -10.8805     46.2143     59.4163   7.8810159939e+01  -8.5276141986e+01   0.00840963   0.00695537 -53.25  0.000749729    1.213    0.176
       128  -9.6162     84.2872     61.6234   7.8520029456e+01  -8.5010422704e+01  0.006694925  0.004152909 -20.81  0.001251569    1.679    0.405
       129  -9.4711     64.8839     61.0085   7.8622857228e+01  -8.5146029238e+01  0.009543546  0.006988427 -14.69  0.001797262    1.416    0.294
       130  -9.4725     57.4790     61.9019   7.8571772272e+01  -8.5198144749e+01  0.005407655   0.00350024   0.84   0.00103069    1.589    0.371
       131  -9.6715    113.8217     60.9268   7.8496674511e+01  -8.4803477979e+01  0.006526476  0.004868571  -6.09  0.001344398    1.385    0.278
       132  -9.8875    122.9196     44.4940   7.9694485864e+01  -8.4733503732e+01  0.008697801   0.00565708 -80.61  0.001141313    1.494    0.331
       133 -11.0255    120.0002     57.5589   7.8732506340e+01  -8.4759132060e+01     0.042019  0.006443428 -48.31  0.003912961    6.718    0.851
       134 -10.0524    124.6857     56.6815   7.8784401120e+01  -8.4726038083e+01  0.006487767  0.005920539 -34.74 0.0006610837    1.122    0.109
       135 -11.0491    111.1199     40.6201   8.0035304568e+01  -8.4814166948e+01   0.01700133   0.01279153  -5.10  0.003547429    1.377    0.274
       136 -11.5268    117.2434     45.4045   7.9649806674e+01  -8.4773611588e+01   0.01850029   0.01097461  27.81  0.003020054    1.671    0.402
       137 -11.8598    119.5109     37.7115   8.0213592560e+01  -8.4754040114e+01   0.01576744  0.009087065 -20.52  0.001827981    1.836    0.455
       138 -10.3659     31.1825     53.1515   7.9390042537e+01  -8.5378894462e+01   0.01753142   0.00546743  83.79  0.002317993    3.239    0.691
       139  -9.3813     27.8299     59.4013   7.8872862661e+01  -8.5404778187e+01   0.02433326  0.008199531 -73.59  0.003443756    2.822    0.646
       140 -10.6117     25.3418     55.7564   7.9192552396e+01  -8.5420811267e+01   0.01013188   0.00599274  56.15 0.0008325842    1.675    0.403
       141  -9.0116    135.5836     59.2443   7.8566116796e+01  -8.4650622929e+01  0.005192692  0.003057963  23.83 0.0009451119    1.695    0.410
       142  -9.4456     79.8397     58.3353   7.8791260599e+01  -8.5040457707e+01  0.006686219  0.003701623  21.77 0.0007251191    1.801    0.445
       143 -11.6804     76.1235     53.2013   7.9209432267e+01  -8.5064544808e+01   0.01201277  0.008164637  62.03 0.0009200342    1.451    0.311
       144 -11.8327     72.9859     47.6254   7.9664307455e+01  -8.5084123016e+01    0.0266132  0.007416472 -14.82  0.003198548    4.182    0.761
       145  -9.2730    106.8937     58.4849   7.8699892578e+01  -8.4851173699e+01  0.005305363  0.003409059 -87.56 0.0006235145    1.516    0.340
       146  -9.0365     91.8281     57.5186   7.8818384866e+01  -8.4956275400e+01  0.007358016  0.003368287 -41.74  0.001177564    2.244    0.554
       147 -10.2243     88.0050     56.5705   7.8904008463e+01  -8.4982691506e+01   0.01019287  0.004534626  15.90  0.001133308    2.238    0.553
       148  -9.2999     33.4333     57.0631   7.9050944837e+01  -8.5364710902e+01  0.006083526  0.003759579 -79.70 0.0007151993    1.573    0.364
       149 -10.1538    157.0846     54.2635   7.8866891391e+01  -8.4498455962e+01   0.01147772  0.006127852 -53.62  0.002014116    1.867    0.464
       150  -9.8565    155.0124     50.1788   7.9163881069e+01  -8.4511425472e+01   0.01006189  0.003710983  22.67  0.001487619    2.627    0.619
       151 -10.1641    100.5240     54.8879   7.8993598042e+01  -8.4894472272e+01  0.009822009  0.005311179  88.23 0.0008611536    1.808    0.447
       152 -11.0568     60.5416     48.6063   7.9639884910e+01  -8.5171590034e+01   0.01952013  0.009191523  11.47  0.003243557    2.135    0.532
       153 -10.0965     55.6386     50.4325   7.9512693977e+01  -8.5206685224e+01  0.006528145  0.005130007  64.36 0.0004276366    1.250    0.200
       154  -9.9598     51.8332     48.3846   7.9696663153e+01  -8.5232387296e+01  0.006654571   0.00601651 -89.64 0.0006693054    1.077    0.072
       155 -10.3552     46.9713     48.5097   7.9708460438e+01  -8.5266441742e+01  0.009384937  0.005887426  74.63  0.001004857    1.574    0.365
       156 -11.2915     44.5055     44.4851   8.0052895509e+01  -8.5281760055e+01   0.01910962  0.008164845  11.24   0.00142866    2.344    0.573
       157 -10.2528     39.3121     44.1200   8.0109985999e+01  -8.5317878443e+01   0.01246702  0.006952342  43.52  0.002242924    1.772    0.436
       158  -8.9690     93.5026     52.5488   7.9197513352e+01  -8.4942700389e+01  0.003540498   0.00335614  64.33 0.0002700295    1.033    0.032
       159  -9.7991     10.7353     51.4197   7.9629636642e+01  -8.5521138522e+01  0.006538492  0.004591921 -26.58 0.0004430897    1.479    0.324
       160  -9.9846     13.1301     46.7209   8.0026401275e+01  -8.5502182141e+01   0.00998063  0.004304216  36.25   0.00158592    2.258    0.557
       161 -10.0852    239.9964     50.9790   7.8863276293e+01  -8.3917128510e+01  0.006577141   0.00468455  76.70 0.0006368569    1.374    0.272
       162  -9.7952    144.9945     50.6526   7.9162656594e+01  -8.4581699558e+01  0.006838399  0.004308171  30.18 0.0003764997    1.577    0.366
       163  -9.3916      2.0044     48.9528   7.9889263148e+01  -8.5581038165e+01  0.005954803  0.003710166 -47.19 0.0008730577    1.621    0.383
       164  -9.3027     34.0335     45.7640   7.9999560804e+01  -8.5355594443e+01   0.00712736  0.006839741  72.73  0.001012722    1.016    0.016
       165  -9.2641     26.3170     48.3090   7.9822832114e+01  -8.5410764047e+01  0.005453172  0.003504571  15.40 0.0004653877    1.569    0.363
       166 -10.2649     29.9170     45.2192   8.0066730893e+01  -8.5384099344e+01   0.01096258  0.004211477  45.69   0.00163219    2.571    0.611
       167 -10.6429     21.0096     46.2595   8.0024714614e+01  -8.5446877262e+01   0.01118375  0.007477239  27.50  0.001857812    1.489    0.329
       168  -9.8267     26.1665     43.1764   8.0260127469e+01  -8.5409268029e+01  0.007097246  0.004927566 -84.29 0.0007320191    1.402    0.287
       169  -9.5149     82.6764     46.8389   7.9684506817e+01  -8.5015998977e+01  0.005840313  0.003998602  34.36 0.0008847046    1.450    0.310
       170  -9.8887    138.6425     44.5405   7.9628142793e+01  -8.4623567598e+01   0.01267771  0.004202143  53.64  0.001732091    3.056    0.673
       171  -9.9956    234.3952     45.2685   7.9247317858e+01  -8.3954147395e+01  0.006948063  0.003627258 -60.33  0.001198829    1.880    0.468
       172 -10.2324    200.2332     44.9474   7.9377269363e+01  -8.4192966230e+01    0.0110103  0.004916664 -78.06  0.001705491    2.156    0.536
       173  -9.4846     93.0814     45.1865   7.9767995443e+01  -8.4942479832e+01  0.005580673  0.004378688  46.66  0.001177041    1.262    0.207
       174  -9.1306     91.4329     41.4671   8.0063002637e+01  -8.4952214737e+01  0.007268585  0.003614903 -44.53  0.001210396    2.049    0.512
       175 -10.3748    156.1527     42.2162   7.9726204278e+01  -8.4500060814e+01  0.007238678  0.006513355  21.86 0.0008256533    1.126    0.112
       176  -9.7205     99.3437     41.6442   8.0012102608e+01  -8.4897000077e+01  0.005977324  0.003601078 -45.91 0.0008335282    1.681    0.405
       177 -10.0173     57.1878     41.9932   8.0191877285e+01  -8.5191853308e+01  0.008429357  0.004996319 -80.73  0.001555839    1.636    0.389
       178  -9.0506     17.8297     41.4605   8.0454654485e+01  -8.5466604314e+01  0.007249815  0.003036262  33.15  0.001131318    2.309    0.567
       179 -10.3151      4.2059     36.7129   8.0953952315e+01  -8.5559027705e+01   0.01526059   0.01255692  -2.23    0.0033318    1.256    0.204
       180 -10.9404     49.4962    247.9111   6.3436364911e+01  -8.5146367991e+01   0.01107279   0.00592166 -28.16  0.001968448    1.831    0.454
       181 -10.3525     76.2990    240.2869   6.4502442173e+01  -8.4973882516e+01  0.006652412  0.005289229  38.58  0.001324488    1.263    0.208
       182 -10.2043     68.1592     32.5746   8.0887682200e+01  -8.5109968822e+01    0.0119611  0.007517685 -84.35  0.002134381    1.547    0.354
       183 -10.3917     22.5374     37.1871   8.0791942830e+01  -8.5431303796e+01   0.01420705  0.004184742 -70.74  0.001907596    3.097    0.677
       184  -9.5905    231.5336     37.4531   7.9762918285e+01  -8.3970781023e+01  0.003512838   0.00337687  70.00 2.991608e-05    1.017    0.016
       185  -8.8041    195.3955     37.5245   7.9895792609e+01  -8.4223471115e+01  0.003455302  0.003376519  53.65 3.561167e-05    1.024    0.023
       186 -11.5292    175.4023     33.4698   8.0258031052e+01  -8.4361199119e+01   0.01434459  0.009222792 -13.28  0.001199175    1.632    0.387
       187 -10.6164    152.9077     36.1201   8.0173708644e+01  -8.4519790215e+01  0.006580676  0.005418732  68.52            0    1.191    0.161
       188  -8.7501    131.6290     36.2520   8.0263313119e+01  -8.4668584599e+01  0.003832061  0.002341722 -51.45 0.0006958894    1.636    0.389
       189  -8.9857     94.6764     36.3177   8.0443935432e+01  -8.4926860366e+01  0.003893961  0.002367752 -44.87 0.0007044048    1.670    0.401
       190 -11.0525     67.8823    240.5532   6.4339757411e+01  -8.5031138064e+01  0.008427303  0.004949305  40.55  0.001289094    1.735    0.423
       191 -10.3730    131.3469    240.8028   6.5320642840e+01  -8.4595703392e+01  0.005045258  0.004473221 -82.89  0.001128064    1.133    0.117
       192 -12.0601    104.5107     32.7151   8.0666131186e+01  -8.4856143618e+01   0.01728813  0.009492859  80.36  0.003066507    1.812    0.448
       193 -12.3436    113.9056     25.2574   8.1173227201e+01  -8.4786058162e+01   0.02278414  0.009894229  77.71  0.002263839    2.362    0.577
       194  -9.9834    240.6703     32.0123   8.0078733090e+01  -8.3904292765e+01  0.007232795  0.004327026  56.78  0.001332639    1.663    0.399
       195  -9.1782    217.3359     32.1841   8.0162670636e+01  -8.4067463831e+01  0.004993816  0.003122819 -14.27 0.0004050302    1.681    0.405
       196  -9.9119    182.8613     31.2628   8.0376065460e+01  -8.4307905902e+01   0.00784506  0.004136399 -29.81 0.0009341062    2.007    0.502
       197 -11.1710    182.9693     25.6179   8.0762496520e+01  -8.4304000266e+01  0.009913363  0.009299392 -31.43  0.001356405    1.095    0.086
       198 -11.4018    188.9254     27.3643   8.0613614899e+01  -8.4263394616e+01   0.01160975  0.008480384  43.78  0.001066156    1.357    0.263
       199  -9.5483    187.5264     22.9440   8.0921559890e+01  -8.4270595228e+01  0.005995049  0.004721642  65.26 0.0005406604    1.252    0.201
       200 -10.3190     59.9106     22.7758   8.1728249659e+01  -8.5161209702e+01  0.007513356  0.005133735   6.60 0.0008789853    1.501    0.334
       201  -9.5033     43.0296     28.0425   8.1421219106e+01  -8.5282552435e+01  0.005432714  0.004540851  53.06  0.000334692    1.184    0.155
       202 -12.2209     58.0935     29.8972   8.1166517405e+01  -8.5178608940e+01   0.01047205  0.007903493  44.56  0.001202889    1.314    0.239
       203 -11.8186     49.4698     30.2904   8.1191890398e+01  -8.5239056674e+01   0.01757094  0.008803602  88.86  0.002333026    1.970    0.492
       204 -10.6835    146.6415    238.4108   6.5705429341e+01  -8.4493511416e+01   0.01208306  0.003474171 -38.69   0.00158177    3.378    0.704
       205  -9.1920     15.4150    233.7794   6.3935050508e+01  -8.5399238490e+01  0.005064072  0.003237776  12.12 0.0009408956    1.711    0.415
       206  -8.8275    189.6747    229.7100   6.6846803715e+01  -8.4206858302e+01  0.003844488  0.002369985  43.71 0.0005486546    1.613    0.380
       207 -10.1898     13.9074     22.4752   8.2117416300e+01  -8.5481757954e+01  0.007810829  0.006157235  39.97 0.0009003522    1.261    0.207
       208  -9.3149     44.9774    215.2391   6.5963715609e+01  -8.5220323389e+01  0.004765552  0.002916677  79.98 0.0007719402    1.598    0.374
       209  -9.2949    164.7523    211.8219   6.7779720787e+01  -8.4397134263e+01  0.004989749  0.003876066 -49.53 0.0005132538    1.318    0.241
       210 -11.0409      9.1087    210.5957   6.5773749700e+01  -8.5472568610e+01   0.01097899  0.005523151 -17.59   0.00188819    1.972    0.493
       211  -9.0635     61.5093    206.5811   6.6897470227e+01  -8.5116010522e+01  0.003499705  0.003366417  75.92 0.0001010217    1.015    0.014
       212  -9.7171     78.3601    204.0309   6.7322335893e+01  -8.5002256647e+01  0.007385133  0.004461311 -47.27 0.0009719378    1.708    0.415
       213 -10.7933     38.8309     22.1988   8.1936434011e+01  -8.5307807913e+01   0.00721829  0.005191477  25.44  0.000381689    1.388    0.280
       214 -10.8941      4.4608    205.0111   6.6175217121e+01  -8.5511073505e+01  0.007038879  0.004854278  22.73  0.001227947    1.527    0.345
       215  -9.5414    168.9342     23.5771   8.0977348201e+01  -8.4400805269e+01  0.009163831   0.00400651  69.58  0.001421378    2.361    0.576
       216 -10.6245    159.7121     29.6417   8.0600489803e+01  -8.4468762114e+01  0.008524586  0.006609316  71.41 0.0008141501    1.269    0.212
       217  -9.0888    135.2886    196.6634   6.8534891096e+01  -8.4615023733e+01  0.003823491  0.002405221 -47.75 0.0003099747    1.634    0.388
       218  -9.9530    135.0203     31.5009   8.0593399995e+01  -8.4642311699e+01  0.008286727  0.002933409 -74.90  0.001192586    2.653    0.623
       219 -10.7642     61.0712     36.1063   8.0646752900e+01  -8.5161531884e+01   0.01324655  0.006318227  36.09  0.001527638    2.048    0.512
       220  -9.4775     32.8342     31.1958   8.1230353459e+01  -8.5355750944e+01  0.005025872  0.003800952  46.20 0.0003104827    1.311    0.237
       221 -12.1214    125.8678     28.1239   8.0890278537e+01  -8.4704288766e+01   0.01234988  0.009205929 -63.50  0.001599119    1.318    0.241
       222 -10.9317    230.3446     27.4007   8.0419176262e+01  -8.3974048845e+01     0.010456  0.006660983 -84.57   0.00141196    1.527    0.345
       223 -10.1385    150.8010     27.0775   8.0828775156e+01  -8.4529532383e+01     0.008857    0.0035715  53.52  0.001232473    2.517    0.603
       224 -10.6228    144.5965     25.6438   8.0965464168e+01  -8.4572006677e+01   0.01401384  0.005048458 -59.92  0.001551093    2.631    0.620
       225 -10.1436    148.2041     22.1138   8.1197756259e+01  -8.4544633795e+01   0.01044533   0.00479157  55.24  0.001680337    2.211    0.548
       226 -10.7792    200.9812     25.3229   8.0692608358e+01  -8.4178020519e+01   0.01072677  0.004209191  39.02  0.001628056    2.474    0.596
       227 -10.6481    155.0728     24.4919   8.0989264402e+01  -8.4498152399e+01     0.011272  0.005504402 -59.42  0.001412169    1.987    0.497
       228 -12.6339      4.7460    183.5656   6.8031405755e+01  -8.5531303928e+01   0.02034253   0.01340829 -17.44  0.003993396    1.532    0.347
       229  -9.6961     27.9548    176.3037   6.8939974829e+01  -8.5376753621e+01  0.007003198  0.005165519  14.21  0.001178569    1.406    0.289
       230 -10.2473     16.0059    174.6924   6.8937368504e+01  -8.5460994573e+01  0.008139516  0.004707949 -22.68   0.00149066    1.726    0.421
       231 -13.1890     10.6547    162.1764   6.9956199965e+01  -8.5507676880e+01   0.03489675   0.01946332  28.80  0.006225791    1.869    0.465
       232 -12.8067     22.8697    148.8604   7.1214779097e+01  -8.5430933052e+01   0.01734312  0.007672172  40.67  0.001574971    2.273    0.560
       233  -9.3948    223.7794     22.3519   8.0777841616e+01  -8.4017073480e+01  0.004969058  0.003135684  78.72 0.0003969441    1.569    0.363
       234 -10.8759    178.8159     20.7255   8.1120415628e+01  -8.4330056554e+01   0.01374238  0.006017013  57.39  0.002157953    2.334    0.572
       235 -10.5993     16.5189    147.9576   7.1239829857e+01  -8.5475702400e+01  0.006567606  0.006241672 -11.63 0.0006877984    1.080    0.074
       236 -10.3737    246.9484     20.3079   8.0797970850e+01  -8.3854082635e+01  0.005158617  0.004654072  85.82  0.001023472    1.079    0.073
       237  -9.9441    216.7986     20.1098   8.0959463690e+01  -8.4064489975e+01  0.005392414  0.004595246 -40.42 0.0003567497    1.197    0.164
       238 -10.8686     18.5442    165.2744   6.9771470485e+01  -8.5450616300e+01   0.01227167  0.007202561  33.58  0.002246932    1.747    0.428
       239  -9.7764     74.6740     19.4766   8.1881556609e+01  -8.5055919458e+01  0.006989637   0.00512978  48.00 0.0009861529    1.352    0.261
       240  -9.5243     46.7146     20.1670   8.2041331838e+01  -8.5251366317e+01  0.006427615  0.004564508 -67.08  0.001134269    1.371    0.271
       241  -9.7950    199.1121     17.3501   8.1236979629e+01  -8.4186249357e+01  0.005705353  0.004674188  33.12 0.0003945467    1.219    0.180
       242 -10.5345    205.1484    163.3544   7.1420326820e+01  -8.4152085538e+01  0.006727164  0.005848852  22.92 0.0006726974    1.167    0.143
       243 -10.3527     28.2988    161.5839   7.0183388135e+01  -8.5385338796e+01  0.009742402  0.006717067  19.12  0.001934565    1.501    0.334
       244  -9.3902    104.1834    154.5992   7.1374276034e+01  -8.4860847060e+01  0.006942339  0.002607042  -9.19  0.001015749    2.678    0.627
       245 -10.4540     31.4946    156.9958   7.0599892806e+01  -8.5366063260e+01    0.0115172  0.005157718 -18.19  0.001871503    2.210    0.548
       246 -10.0479    211.0668     16.1724   8.1249402759e+01  -8.4102057403e+01   0.00562751  0.004997703   9.52 0.0002986319    1.153    0.133
       247  -9.7853    147.4297     16.0575   8.1635261291e+01  -8.4546049382e+01  0.008375853  0.003574358  69.26  0.001273442    2.455    0.593
       248 -10.3635    186.4622     15.0127   8.1467428960e+01  -8.4273010719e+01  0.006595153  0.005118027 -88.82 0.0003617067    1.257    0.204
       249  -9.5329     75.9041     14.7691   8.2242234074e+01  -8.5043883185e+01  0.004817358  0.004352362 -67.41 0.0003210556    1.091    0.083
       250 -11.2632     47.5406    147.6351   7.1511373243e+01  -8.5259550627e+01   0.01937165   0.01085928  29.86  0.003473837    1.833    0.455
       251 -10.6630      4.4199    153.7235   7.0631714606e+01  -8.5556642411e+01  0.006599694  0.004095021 -77.09 0.0007533095    1.643    0.391
       252  -9.5871    114.8949     12.8679   8.2090924255e+01  -8.4770679148e+01  0.005470923  0.004599389  50.26 0.0005210814    1.179    0.152
       253  -9.4391     61.2425    152.0341   7.1257177997e+01  -8.5161665432e+01  0.004850441  0.004793532 -88.38  0.000737742    1.020    0.020
       254 -12.0908      4.4345    143.2534   7.1551410788e+01  -8.5562456985e+01   0.02368094   0.01141884 -48.94  0.003931006    2.138    0.532
       255 -11.6155     12.4630    135.5549   7.2283620757e+01  -8.5510025760e+01   0.01941873   0.01122044  27.08  0.003540558    1.776    0.437
       256  -9.7288      7.5730    129.8033   7.2754936461e+01  -8.5546455977e+01  0.006888251  0.004744335 -68.28 0.0006021627    1.465    0.317
       257 -10.6053     10.4438    126.6225   7.3050124877e+01  -8.5527511762e+01   0.01013984   0.00682964  -4.99  0.001387856    1.522    0.343
       258 -10.8182     33.1040    144.5279   7.1662171553e+01  -8.5361829646e+01  0.007499486  0.007036203 -84.80  0.000753889    1.051    0.049
       259 -10.1795     40.7914    138.9682   7.2181573935e+01  -8.5310771188e+01   0.01005681  0.006886582   2.39  0.001698241    1.502    0.334
       260 -10.7148     80.2567    138.5661   7.2458787268e+01  -8.5035341568e+01   0.00666897  0.005869767 -80.47 0.0004521692    1.123    0.110
       261 -11.6599     23.3472    136.4320   7.2280515463e+01  -8.5433657667e+01   0.01805552   0.01127288 -71.12  0.002050251    1.625    0.385
       262  -9.3603     65.9311     10.4884   8.2662874729e+01  -8.5110019311e+01  0.005541908  0.003411542 -84.59 0.0007001936    1.583    0.368
       263 -10.4856     30.1835    132.7843   7.2634195615e+01  -8.5387383566e+01    0.0107227  0.006484812  44.80 0.0009697968    1.632    0.387
       264  -9.4981     32.0242    137.5053   7.2246531895e+01  -8.5372615516e+01  0.005213272  0.004480244  81.48 0.0007399707    1.131    0.116
       265  -8.9808     26.5491    127.4931   7.3063137437e+01  -8.5414666966e+01  0.003483757  0.003411715  82.22 9.250997e-05    1.010    0.010
       266  -9.4568     22.8985    126.8705   7.3096708918e+01  -8.5440386074e+01  0.005245774  0.004444475  48.94 0.0003482069    1.161    0.139
       267  -9.7873      2.1932    125.9493   7.3063320138e+01  -8.5585394507e+01  0.006858916  0.005428343 -36.98  0.001458661    1.286    0.223
       268 -11.2434    104.0863    122.3648   7.3828836183e+01  -8.4873960596e+01  0.009832939  0.008496174  87.60  0.001318845    1.129    0.114
       269  -9.7957     33.3091    125.9569   7.3228908555e+01  -8.5367910399e+01  0.005846067  0.004054129 -30.52  0.001080435    1.467    0.318
       270  -9.6511     18.8581    123.9132   7.3330027040e+01  -8.5469555908e+01  0.005205422  0.004996544 -61.32 0.0005649123    1.051    0.048
       271  -8.9056     84.8733    123.1385   7.3693470112e+01  -8.5008155191e+01  0.004824965  0.003741933  46.45  0.001007111    1.271    0.213
       272 -10.2681     55.9420    121.9548   7.3667183973e+01  -8.5210802759e+01  0.006215777  0.004937266  87.74 0.0006595786    1.228    0.186
       273  -9.1933    103.9390    147.1571   7.1938367986e+01  -8.4866255711e+01  0.004927623  0.003740493  48.72            0    1.293    0.226
       274  -9.6192     44.4696    120.2089   7.3762181660e+01  -8.5291482529e+01  0.007027162  0.005018157 -23.97 0.0008569847    1.429    0.300
       275  -9.9588     43.5101    115.5081   7.4149291644e+01  -8.5299254349e+01  0.007789108   0.00615995   9.60   0.00165947    1.293    0.227
       276  -9.9770     79.1275    115.5300   7.4271174728e+01  -8.5050042362e+01  0.005856999  0.005070978   0.08 0.0004376353    1.185    0.156
       277 -10.5300      7.5122    114.5412   7.4095349601e+01  -8.5551284878e+01   0.01067266   0.00671585  87.29  0.001938354    1.549    0.354
       278 -12.0293      2.5073    111.6971   7.4327541201e+01  -8.5586853572e+01   0.01656793    0.0109442 -65.54 0.0009005835    1.520    0.342
       279 -11.4415      4.3896    105.8415   7.4851974734e+01  -8.5574562140e+01   0.01213957   0.01179433 -45.29  0.002137008    1.050    0.047
       280  -8.9925     67.6679    115.3024   7.4251040488e+01  -8.5130270611e+01  0.003872186  0.002376462 -49.21 0.0007035208    1.654    0.396
       281 -10.4976     35.9319    102.8341   7.5188631381e+01  -8.5354078025e+01   0.01605333  0.005356726  69.37  0.001759668    2.843    0.648
       282  -9.9777     31.6965     97.0937   7.5666254309e+01  -8.5384022219e+01   0.01283097  0.004989007 -52.01   0.00190768    2.619    0.618
       283  -9.7221     28.7289    100.5736   7.5365598161e+01  -8.5404658623e+01  0.006223614  0.004577707 -31.93 0.0003663643    1.389    0.280
       284 -11.7480     26.1270    106.7454   7.4832978998e+01  -8.5422317705e+01   0.02044609   0.01230126  41.06  0.002757402    1.649    0.393
       285 -11.4076     22.0659    114.3834   7.4165053161e+01  -8.5449506309e+01   0.01540358  0.006131419  72.45  0.002294642    2.380    0.580
       286 -11.5579     28.4461    113.0606   7.4301377977e+01  -8.5405122667e+01   0.01297321  0.007138799  75.09   0.00191854    1.748    0.428
