#   1 NUMBER                 Running object number                                     
#   2 MAG_AUTO               Kron-like elliptical aperture magnitude                    [mag]
#   3 X_IMAGE                Object position along x                                    [pixel]
#   4 Y_IMAGE                Object position along y                                    [pixel]
#   5 X_WORLD                Barycenter position along world x axis                     [deg]
#   6 Y_WORLD                Barycenter position along world y axis                     [deg]
#   7 A_WORLD                Profile RMS along major axis (world units)                 [deg]
#   8 B_WORLD                Profile RMS along minor axis (world units)                 [deg]
#   9 THETA_WORLD            Position angle (CCW/world-x)                               [deg]
#  10 FWHM_WORLD             FWHM assuming a gaussian core                              [deg]
#  11 ELONGATION             A_IMAGE/B_IMAGE                                           
#  12 ELLIPTICITY            1 - B_IMAGE/A_IMAGE                                       
         1 -10.9360     84.1217     22.3979   9.1902065936e+01   6.0660191517e+01    0.2673429    0.1854473  12.59 0.0005608507    1.557    0.358
         2 -11.5220     25.4528     19.9757   1.1475045887e+02   6.9565036228e+01    0.5185818    0.2771199 -14.21  0.002717537    2.371    0.578
         3 -11.9243     26.6139     13.8799   1.1145039296e+02   7.0442084279e+01     0.281115    0.2652972  31.28 0.0006004735    1.547    0.353
         4 -10.1010     35.2011     20.5739   1.1037924309e+02   6.8454145604e+01    0.2780755    0.1464045 -45.07   0.00138915    1.777    0.437
         5 -10.8044    108.0429     17.5578   8.2893544731e+01   5.6235855361e+01    0.3245959    0.2450355  -5.18 0.0004382539    1.379    0.275
         6 -10.9196    217.3781     16.2549   6.4513006736e+01   2.8553332767e+01    0.5258539    0.1932685  56.01  0.001905073    2.683    0.627
         7 -10.6634     76.0837     16.6563   9.2000493255e+01   6.2917790050e+01    0.3086891    0.1949573  18.46  0.001263456    1.736    0.424
         8 -11.9732    130.9863     13.4122   7.6021115768e+01   5.1236396137e+01    0.5260981    0.3500988  36.12  0.002641114    1.509    0.337
         9  -9.9207    175.7794     11.8801   6.8113563338e+01   3.9818039562e+01    0.2050069    0.1784652  48.34 0.0004326814    1.178    0.151
        10 -11.3479    119.7132     11.0090   7.7457047023e+01   5.4221078584e+01    0.3414673    0.2940409  -7.36  0.001703022    1.209    0.173
        11 -12.0992     80.6526      7.2903   8.6114917907e+01   6.3139022941e+01    0.6007452    0.3253401  11.28 0.0007256016    2.431    0.589
        12  -9.8059      1.8951      8.1745   1.2204901313e+02   7.3377192640e+01    0.1936635    0.1371814 -81.07  0.001179994    2.799    0.643
        13  -9.1254    161.0213      8.0048   6.8939899127e+01   4.4077879122e+01    0.1682012    0.1481622  68.88 0.0003088566    1.029    0.028
        14 -10.1157      9.2422      7.7151   1.1772044063e+02   7.2956623339e+01    0.2887274    0.1468683 -17.52  0.001656397    2.153    0.536
        15 -10.8202    127.5440      6.2920   7.3986609312e+01   5.2772624490e+01    0.3271378    0.2069803 -43.86 0.0007325832    1.833    0.454
        16 -10.8021     75.0608      4.9297   8.6772692612e+01   6.4463011920e+01     0.349685    0.1695531 -24.69  0.001730214    2.014    0.503
        17  -9.5505     59.9705      5.2484   9.2283828481e+01   6.7115452121e+01    0.3289697   0.09165402  45.81  0.001297934    3.429    0.708
        18  -9.8633     91.8429      3.9485   8.1272040514e+01   6.1193197400e+01    0.1989864    0.1514058  21.77 0.0004449312    1.211    0.174
        19 -11.8290     27.5623      2.9072   1.0547388359e+02   7.1960485130e+01    0.4027666    0.2283359  28.66  0.001910993    1.835    0.455
        20  -9.1712    100.7284      3.6654   7.8824068752e+01   5.9294461787e+01    0.1379761   0.08745226  25.70  0.000417151    1.596    0.373
        21 -11.0515    153.3984    233.7729   1.2559281184e+02   6.6272376021e+00    0.2164292    0.1698084  11.43 0.0008017967    1.693    0.409
        22  -9.7114    243.0263    247.4900   1.1194499213e+02  -9.3008111650e+00     0.160145    0.1342038  23.24 0.0004915763    1.279    0.218
        23 -10.9079    246.9000    250.1914   1.1172668068e+02  -1.0112196435e+01    0.4385024    0.1212962  37.36  0.002026703    2.823    0.646
        24 -10.4641    250.3817    244.0919   1.1024011973e+02  -1.0008185565e+01    0.3439257    0.1483162 -28.73  0.001952799    2.567    0.610
        25 -11.1280    181.5327    248.4276   1.2246322792e+02   3.2902525985e-03    0.3680798    0.1830748 -30.67  0.001930548    3.060    0.673
        26 -10.1810    127.9016    249.6486   1.3200977055e+02   8.3729392095e+00    0.1622025    0.1575198 -71.51  0.001021824    1.390    0.281
        27  -9.9225     72.7860    249.9565   1.4149297467e+02   1.6341699437e+01    0.1481639    0.1317251  65.06  0.001197658    1.381    0.276
        28  -9.2706     46.2937    250.3558   1.4584865394e+02   1.9636669649e+01   0.08445571   0.07869328 -79.33 0.0007031157    1.690    0.408
        29 -11.7639     27.9565    246.0593   1.4852647850e+02   2.2460031812e+01    0.3736988    0.1672777 -84.02  0.002418982    2.066    0.516
        30 -12.6728     22.2763    249.1748   1.4955299978e+02   2.2559273565e+01    0.8902552    0.1312248  53.64  0.003937965    3.835    0.739
        31 -10.8353     11.4557    250.1143   1.5123112252e+02   2.3533810064e+01    0.2160719   0.07231448  54.11  0.001342881    1.970    0.492
        32  -9.9978     79.5479    231.2779   1.3884383266e+02   1.8563559399e+01    0.2057378    0.1257249  48.57 0.0005732937    1.330    0.248
        33 -10.4124     71.9966    243.8288   1.4117399129e+02   1.7454408824e+01    0.1784656    0.1378783  80.10  0.000732052    1.201    0.167
        34 -10.1431    137.1552    247.1277   1.3011238353e+02   7.2930437325e+00    0.1698067    0.1379811  37.71 0.0007234662    1.236    0.191
        35 -10.0097    169.9839    228.9845   1.2190168699e+02   4.5379518745e+00    0.1539044    0.1217584  40.96 0.0008925343    1.013    0.013
        36 -10.1387     86.3092    233.4806   1.3782357188e+02   1.7223605825e+01    0.2039433    0.1173834  80.00  0.001184562    1.904    0.475
        37 -10.7776    116.0858    227.5280   1.3176257102e+02   1.3734025041e+01    0.3838564    0.1357282 -66.84  0.001473281    4.656    0.785
        38  -9.1682     93.6700    229.3469   1.3610478096e+02   1.6866553503e+01    0.1278496   0.07167795  66.79 0.0007049697    1.759    0.432
        39  -9.6307     53.6536    234.7045   1.4365211713e+02   2.1391387204e+01   0.08839536   0.08637219  47.76   0.00070326    1.672    0.402
        40 -10.2792    190.4223    226.4438   1.1779544293e+02   1.4214693738e+00    0.2023869    0.1804132  -2.70 0.0007202002    1.253    0.202
        41  -9.5653    140.0029    227.4438   1.2727206670e+02   9.8419560790e+00    0.1929905   0.09986123  43.75 0.0008779866    1.558    0.358
        42 -10.3621     88.0967    227.1289   1.3691627268e+02   1.8072840744e+01    0.1681685    0.1487257  53.42  0.001223416    1.301    0.231
        43 -10.6189     66.4408    226.4287   1.4079492827e+02   2.1214710548e+01    0.2454187    0.1382675  47.61 0.0009262973    1.462    0.316
        44 -11.5105     73.9851    238.3697   1.4041204540e+02   1.8106110203e+01    0.3860989    0.2436112  55.32  0.001841011    1.194    0.162
        45 -10.3588    129.7731    226.7359   1.2910466944e+02   1.1652100678e+01    0.3753574    0.1464328  52.62  0.001655521    2.433    0.589
        46 -10.4770     81.4543    224.7183   1.3791484311e+02   1.9457522038e+01    0.2332533    0.1664356  72.03 0.0008929198    1.190    0.159
        47 -10.9048     13.1152    222.1649   1.4977024230e+02   2.8190880241e+01    0.1701897    0.1319973  81.49 0.0003410163    1.228    0.185
        48 -11.2493    141.4703    221.3685   1.2621338359e+02   1.0578227813e+01    0.3147439    0.2185944  23.84  0.001259196    1.832    0.454
        49  -9.1900    134.8734    223.0000   1.2767963131e+02   1.1422504130e+01     0.205871   0.05923613  42.45 0.0007883102    2.845    0.649
        50 -11.0325    123.3908    221.4501   1.2967587750e+02   1.3587434176e+01    0.2798492    0.2024242  47.55 0.0009870965    1.147    0.128
        51  -9.1345     51.6700    222.6732   1.4315372269e+02   2.3795810564e+01   0.09345844   0.08739481 -53.54 0.0007050963    1.707    0.414
        52  -9.8494    165.6451    220.7386   1.2153791010e+02   6.5116086716e+00    0.1504485    0.1206876 -61.60 0.0009418191    1.589    0.371
        53 -10.2758    173.8288    219.7868   1.1985958042e+02   5.2294826880e+00     0.232215    0.1808276  56.88 0.0008017843    1.332    0.249
        54  -9.5145     21.8085    220.3588   1.4821791778e+02   2.7633264069e+01    0.1232329   0.08896834  43.60 0.0004364007    1.541    0.351
        55  -9.7060    250.3060    219.0616   1.0618998825e+02  -7.3728961651e+00    0.1615635    0.1261039   3.09 0.0007364161    1.115    0.103
        56  -8.8459    233.6636    219.3276   1.0902208800e+02  -4.8206126657e+00    0.1063851   0.09462729  62.96 0.0007051821    1.725    0.420
        57 -10.8790    192.6249    216.5097   1.1585597898e+02   2.4247634067e+00    0.3613865    0.2119576  22.36  0.001820698    2.033    0.508
        58  -9.9090     50.3298    218.2597   1.4307170852e+02   2.4778791268e+01    0.1869461    0.1271296  37.06 0.0009728734    1.706    0.414
        59 -10.8097     10.0563    217.0216   1.5003687474e+02   2.9430894242e+01    0.2671577    0.1357441  62.21   0.00100079    1.459    0.315
        60 -10.5643    201.6003    215.9189   1.1411573526e+02   9.5038185751e-01    0.2374196    0.1572294  32.15  0.001380509    1.295    0.228
        61  -9.5187    137.2042    215.6249   1.2627338216e+02   1.2265256337e+01    0.1832613    0.1047943  36.47 0.0009424151    1.688    0.407
        62  -9.7829     30.6673    215.3313   1.4639171779e+02   2.7617223376e+01    0.1207704   0.05779283  66.22 0.0007052145    1.725    0.420
        63 -10.1612    208.9785    212.1772   1.1215895438e+02   1.8898804759e-01    0.1951334    0.1705865   4.27 0.0004575051    1.150    0.130
        64  -9.7360    142.8056    213.3938   1.2487916892e+02   1.1677572806e+01    0.1787239    0.1065787  36.26  0.000531029    1.606    0.377
        65 -11.2674     20.5545    211.4369   1.4794399781e+02   2.9425889557e+01    0.2929609    0.1357167  73.06 0.0009065194    1.828    0.453
        66  -9.8918    212.8922    211.8639   1.1140100678e+02  -4.4139731889e-01    0.1600282    0.1409573  47.13 0.0006447479    1.320    0.243
        67 -10.2697    217.8155    207.9564   1.0985098780e+02  -7.6182936164e-01    0.3783868     0.171697 -19.65  0.001467222    3.900    0.744
        68 -11.4515      5.1481    207.6414   1.5042818348e+02   3.1642816813e+01    0.3970928    0.1589853 -88.86  0.002313387    2.078    0.519
        69 -10.1877      1.4983    207.4766   1.5104653168e+02   3.2005509373e+01    0.1870374    0.1067535 -88.65  0.001114238    1.369    0.270
        70 -10.1882     10.5413    208.6287   1.4954358134e+02   3.0950135714e+01    0.1898255    0.1206846 -56.23  0.001081679    2.230    0.552
        71 -10.1725    170.1980    213.1652   1.1954817936e+02   6.8810474629e+00     0.174867    0.1410239  60.67  0.001068762    1.326    0.246
        72  -9.4460    150.2928    205.3188   1.2223991294e+02   1.1733193710e+01     0.123972   0.09976217  12.19 0.0003699437    1.605    0.377
        73  -9.1308     27.7056    205.3706   1.4629794538e+02   2.9839083569e+01    0.1216407   0.05970745  69.18 0.0007027216    1.728    0.421
        74  -9.4230    238.5313    201.4455   1.0506978406e+02  -3.4087879857e+00    0.1268043    0.1005369  14.79   0.00012195    1.054    0.051
        75  -9.9349    218.2853    201.3365   1.0860390458e+02   5.5935641920e-02    0.1303318   0.08866969   9.98 0.0007014619    1.627    0.385
        76  -9.0285     34.6730    200.7267   1.4468951245e+02   2.9989979612e+01   0.09411784   0.08482322 -62.51  0.000248439    1.584    0.369
        77 -11.0632    227.2370    196.7216   1.0617294108e+02  -8.7354306161e-01    0.3058044    0.1963479   5.35 0.0009646217    1.854    0.461
        78 -11.1712    232.3418    191.5904   1.0432340935e+02  -1.0637865718e+00    0.3811243    0.2232401  11.21  0.001825505    2.229    0.551
        79 -11.7824    192.3223    194.9319   1.1228788435e+02   5.6979127450e+00    0.3585716    0.3077538 -88.51   0.00211695    1.628    0.386
        80 -11.6410    215.5361    194.1311   1.0779836050e+02   1.5571463032e+00    0.3246121    0.1919995 -35.71  0.001697696    1.840    0.457
        81  -9.7345    203.0247    195.7658   1.1040823831e+02   3.5916108270e+00    0.1851134    0.1551399  29.99 0.0005051232    1.030    0.029
        82 -11.4634    187.6842    189.5063   1.1221407624e+02   7.4359884858e+00    0.3376694    0.2191505 -25.34  0.001701126    1.906    0.475
        83  -9.3748    205.6022    190.2352   1.0891775053e+02   3.9491077165e+00    0.1713629    0.1226264 -19.45  0.000607387    1.568    0.362
        84 -10.4225    163.3165    191.1347   1.1735576737e+02   1.1796411512e+01    0.2549312    0.1224664 -38.74  0.001091442    2.587    0.614
        85 -10.2198    166.7815    183.3914   1.1529894143e+02   1.2502653689e+01    0.2081531    0.1670875  41.61 0.0006150449    1.118    0.106
        86  -9.5358     61.6152    184.8032   1.3792352503e+02   2.9986346629e+01    0.1757998    0.1013077 -85.74 0.0009512619    1.697    0.411
        87 -10.3893    250.2037    189.9205   1.0096209978e+02  -3.8694820924e+00    0.1777456    0.1604304 -11.28 0.0006379564    1.253    0.202
        88 -11.2125    249.0073    182.5808   9.9751865202e+01  -2.7177073237e+00    0.3177531    0.1676002  21.74  0.001487007    2.274    0.560
        89 -11.5884    224.2112    178.3365   1.0321650181e+02   2.2730693597e+00    0.3037942    0.2566849  20.65 0.0005027711    1.049    0.047
        90 -10.4669      2.1585    180.1227   1.4956068990e+02   3.7295391707e+01    0.1806258     0.122153  68.12  0.000519265    1.176    0.150
        91 -12.0299    244.6991    177.5815   9.9493653320e+01  -1.3068290384e+00    0.3349329    0.2107796  -2.27  0.001722236    1.857    0.462
        92  -9.3158     70.2166    177.5977   1.3528026438e+02   3.0355164347e+01    0.1495509    0.1181353  37.10 0.0004187126    1.469    0.319
        93  -9.9303    211.3659    174.8532   1.0488502722e+02   5.2323280418e+00     0.193216    0.1234192 -21.75 0.0009435609    1.787    0.440
        94  -9.0851     51.3203    175.7718   1.3918151515e+02   3.3206835712e+01     0.122408   0.07430546  64.78 0.0002905161    1.502    0.334
        95 -10.6094    200.2513    176.4275   1.0730833970e+02   7.1397869680e+00     0.243801    0.1676976 -21.88 0.0007475341    1.672    0.402
        96  -9.8467    218.3269    173.3041   1.0328481514e+02   4.1371393303e+00    0.1411379   0.09788062  12.50 0.0003730588    1.646    0.393
        97  -9.8540    183.3351    173.3287   1.1004161868e+02   1.1014856915e+01    0.1459287     0.106901  11.26 0.0007051954    1.725    0.420
        98 -12.1580     16.3357    183.1689   1.4700197171e+02   3.5416271661e+01    0.3705635    0.2189464  83.81  0.001913538    1.339    0.253
        99  -9.8186    193.3398    172.3283   1.0784822483e+02   9.1857385131e+00    0.1468264    0.1049861  11.78 0.0007051649    1.736    0.424
       100  -9.6452     59.6333    171.8066   1.3693788627e+02   3.3021985646e+01     0.179261    0.1032084 -83.66 0.0009445607    1.685    0.406
       101  -9.7076     74.4949    171.4935   1.3358294296e+02   3.1072170451e+01     0.129935    0.1105161  79.86 -8.338756e-06    1.024    0.024
       102 -10.2968    197.2110    169.3986   1.0650179619e+02   8.9057381190e+00    0.1979808    0.1275079  52.64 0.0008221266    1.625    0.385
       103  -9.8460      4.5847    167.7336   1.4834340553e+02   3.9647161600e+01    0.2151001   0.07993565 -74.61  0.001140016    2.111    0.526
       104  -9.6832    210.0141    166.3315   1.0341406306e+02   6.8559612733e+00    0.1984828    0.1692514  30.98  0.000492462    1.087    0.080
       105 -10.6814     54.9966    160.9774   1.3672738458e+02   3.5993899830e+01    0.2650501    0.2002847 -30.40  0.001511998    2.108    0.526
       106 -10.2887      9.9972    165.1023   1.4705101200e+02   3.9752028442e+01     0.169953     0.124096  83.76 0.0003849893    1.019    0.018
       107  -9.1462    229.5046    164.5293   9.9474200532e+01   3.3425706675e+00    0.1374433    0.1198148   9.13 0.0001438828    1.035    0.034
       108 -10.5834     36.2104    161.9757   1.4111092039e+02   3.7932939441e+01    0.3079603     0.141406 -70.85  0.001261827    1.857    0.461
       109 -11.1265    246.5238    162.4755   9.6123829994e+01   4.7921517517e-01    0.2198717    0.1700315  50.49 0.0009782902    1.509    0.337
       110 -11.2253    247.9302    158.9340   9.5151867151e+01   7.2997894073e-01    0.3130053    0.2666873 -36.60  0.001223333    1.305    0.234
       111  -9.3824    200.0378    162.7849   1.0459361853e+02   9.4526160891e+00     0.189639    0.1092148  45.59 0.0004564523    1.650    0.394
       112 -10.0220    238.4685    158.5289   9.6656214529e+01   2.5432647649e+00    0.1367612    0.1182867   4.28 0.0002173537    1.044    0.042
       113 -10.6899     40.9597    165.0515   1.4035893194e+02   3.6741570379e+01    0.1813326    0.1419366  83.88 -0.001877172    1.020    0.020
       114 -10.0810      8.0103    158.4496   1.4699641772e+02   4.1333916911e+01    0.1396805    0.1056961  41.40 0.0006125584    1.531    0.347
       115 -10.6889     23.3834    156.1925   1.4343948197e+02   4.0484002015e+01    0.3734744    0.2249619  36.76  0.002304952    1.840    0.457
       116  -9.6771     23.7113    152.6567   1.4304120453e+02   4.1231802736e+01    0.1894983    0.1361929 -72.43 0.0005963473    1.238    0.192
       117  -9.9189    217.2448    154.8732   9.9646107413e+01   7.2665866234e+00    0.2835946    0.1489448  37.70  0.001235501    1.924    0.480
       118  -9.9998    205.2756    152.4816   1.0138245840e+02   1.0127491544e+01    0.2461388    0.1824765 -23.05  0.001246143    1.435    0.303
       119 -10.1803    197.2407    153.6085   1.0319405860e+02   1.1616778724e+01    0.2129452    0.1284223  37.25 0.0009539704    1.658    0.397
       120  -9.2601    151.6464    153.3125   1.1278020159e+02   2.1297346867e+01    0.1536232    0.1143011  79.56  0.000704501    1.731    0.422
       121 -10.3914     10.0382    152.5233   1.4610748573e+02   4.2447036257e+01    0.2295499    0.1318935  65.24 0.0008933914    1.581    0.367
       122 -10.4261    178.3570    151.4519   1.0657551435e+02   1.6021797821e+01     0.317029    0.2565928  66.87   0.00161559    1.404    0.288
       123  -9.6095     92.8537    148.1589   1.2576283024e+02   3.3473536574e+01    0.1805445    0.1712003 -25.96 0.0008787522    1.326    0.246
       124  -9.4583    233.5212    146.9919   9.5020725817e+01   5.2563725324e+00    0.2116191    0.1298597 -32.08  0.001027201    1.575    0.365
       125 -10.3195    206.9038    145.9768   9.9634378689e+01   1.0899999860e+01    0.2485597    0.2041952  43.28  0.000763216    1.196    0.164
       126  -9.3113     37.4964    146.4908   1.3916372517e+02   4.1252904706e+01    0.1248054    0.1002001 -89.87   0.00013007    1.008    0.008
       127 -11.1155      7.8598    145.2840   1.4601971278e+02   4.4195765953e+01    0.2742002    0.1374101  49.05 0.0008502158    1.962    0.490
       128 -10.5899      3.1547    143.7369   1.4696993352e+02   4.4883574158e+01    0.1957493    0.1401009 -54.92 0.0008884795    1.589    0.371
       129  -9.8022    215.5024    145.5313   9.7917674375e+01   9.1641536623e+00    0.1426277    0.1334908   8.05 7.640679e-05    1.007    0.007
       130 -10.2825    212.4691    141.5704   9.7590229103e+01   1.0470439366e+01    0.3939056    0.2045608  30.49  0.001519474    2.517    0.603
       131 -10.0506     37.4176    142.1600   1.3867722120e+02   4.2243777608e+01    0.1922298    0.1356325  49.07   0.00118501    1.460    0.315
       132 -11.4423     13.4188    140.9410   1.4435293741e+02   4.4716489344e+01    0.3563336    0.2181208 -11.85  0.001892459    3.332    0.700
       133 -11.0704     57.5821    138.5339   1.3311916046e+02   4.0778244187e+01    0.3619169    0.2118991  69.37 0.0006490098    1.978    0.495
       134 -10.0910    236.1156    138.8022   9.2758510609e+01   6.0170520721e+00     0.198384    0.1894999 -47.78 0.0006503651    1.209    0.173
       135  -9.7263     44.2438    138.2472   1.3648080984e+02   4.2409985094e+01    0.2098148   0.09320463 -80.88  0.000899606    2.449    0.592
       136 -11.7306      3.6981    135.9763   1.4622182248e+02   4.6542273312e+01    0.5106515    0.1892146 -60.33  0.001795607    2.320    0.569
       137 -11.6436      9.1387    136.7896   1.4499643764e+02   4.5968531337e+01    0.2086294    0.1633627 -74.92 0.0002521247    1.158    0.136
       138 -10.7997     22.0067    136.2441   1.4181356387e+02   4.5050902801e+01    0.2358733    0.1345544  49.96  0.001379751    1.793    0.442
       139  -9.9453    138.3449    135.2767   1.1200544938e+02   2.7837079396e+01    0.2782164    0.1805564  34.91 0.0007475176    1.709    0.415
       140 -11.9743     36.4348    131.0600   1.3754220037e+02   4.4884875361e+01    0.4105203    0.2647437 -70.92  0.002047948    1.292    0.226
       141 -10.4005    249.6721    130.2911   8.8635678495e+01   4.6299130149e+00    0.2411858    0.2095716 -48.88   0.00141588    1.297    0.229
       142  -9.4086     29.1766    130.5986   1.3936281831e+02   4.5690513624e+01    0.1328391    0.1195053  -7.04   0.00027949    1.547    0.354
       143  -9.9900    126.4918    129.4739   1.1360794528e+02   3.1533961977e+01    0.1493954     0.143041  82.49 0.0001620823    1.003    0.003
       144 -10.2172     74.0815    129.3235   1.2727830988e+02   4.0705457663e+01    0.2295551    0.1734388 -54.09 0.0006571765    1.304    0.233
       145  -8.9441     60.2662    128.6683   1.3087631495e+02   4.2732690247e+01    0.1345402   0.09225653  81.41 0.0002458137    1.580    0.367
       146  -9.8258      1.3358    126.7961   1.4600728523e+02   4.8724446082e+01     0.227875   0.08457431 -80.20  0.001117565    2.168    0.539
       147  -9.2402     68.3334    126.3227   1.2829310623e+02   4.2213817976e+01    0.1344837    0.1010572 -34.00  0.000695895    1.705    0.414
       148 -10.7690     44.3328    125.8578   1.3472713823e+02   4.5263943979e+01    0.1979373    0.1604722  62.42 0.0004842961    1.264    0.209
       149 -11.8854      9.9966    122.7408   1.4342931357e+02   4.9039651470e+01    0.5049582    0.3093969 -29.58  0.002917633    2.488    0.598
       150 -10.5256     18.1520    116.1308   1.4051401737e+02   4.9928510299e+01    0.2423744    0.1576244 -65.05 0.0008455307    1.270    0.212
       151 -12.3297     16.6443    109.1097   1.4004341385e+02   5.1638374085e+01     0.539708    0.3280704  81.51    0.0018636    1.699    0.411
       152 -10.5640    219.5594    124.4857   9.2318889126e+01   1.1831142683e+01    0.2638418    0.2384941   3.73  0.000619299    1.111    0.100
       153  -9.6604     20.5880    121.7208   1.4053807295e+02   4.8463191455e+01    0.1580527    0.0950716 -83.24 0.0003316219    1.421    0.296
       154  -9.6220    221.5461    120.0099   9.0897264650e+01   1.2145695884e+01    0.2262905    0.1390923 -32.99 0.0007395115    1.579    0.367
       155  -9.2182    166.4267    118.8186   1.0154240135e+02   2.5050392981e+01     0.204936    0.1504288 -28.16 0.0004588957    1.528    0.346
       156 -10.2788     54.4349    117.7244   1.3062992170e+02   4.6008718766e+01    0.2184414    0.1787698  36.36 0.0009553157    1.404    0.288
       157 -10.1013    179.3225    116.2059   9.8083240089e+01   2.2549631639e+01    0.2538106    0.2062093  38.50 0.0005133476    1.257    0.204
       158  -9.2659    107.5595    115.5703   1.1532618977e+02   3.8337467583e+01    0.1453457    0.1394781 -72.90  0.000114589    1.025    0.024
       159  -9.9415     35.1863    113.8738   1.3545639969e+02   4.8975845800e+01    0.3477442    0.1480907 -71.08  0.001600599    2.071    0.517
       160  -9.9821     38.2891    111.3363   1.3417030593e+02   4.9260894525e+01    0.2251897    0.1599973 -46.84 0.0007999631    1.461    0.315
       161 -10.7056     35.5765    109.4664   1.3465588248e+02   4.9957431099e+01    0.2697677    0.1554683 -76.30  0.001282326    1.585    0.369
       162  -9.1241     66.7222    113.0221   1.2624267103e+02   4.5540224424e+01    0.1632162    0.1090283 -62.90 0.0002219511    1.344    0.256
       163  -9.8619     42.3605    110.7121   1.3288797333e+02   4.8992311007e+01    0.1927593    0.1368667 -80.68 0.0006777001    1.308    0.235
       164  -9.5963    167.4729    109.0168   9.8786760442e+01   2.6748196038e+01    0.2342343    0.1543613 -39.33 0.0004694957    1.535    0.349
       165 -10.2056    242.0061    108.1762   8.4702054417e+01   9.6121104187e+00    0.2237021    0.1648956 -81.09 0.0006348095    1.973    0.493
       166 -10.9222     23.2450    107.1710   1.3788761528e+02   5.1570542484e+01    0.2389596    0.1672101 -79.47 0.0003458789    1.211    0.174
       167  -9.4954    132.8561    107.4010   1.0661307207e+02   3.5008030354e+01    0.2199123    0.1449745  35.96 0.0009461186    1.682    0.405
       168  -9.8030    126.9892    106.7403   1.0795271240e+02   3.6408972518e+01    0.2074276    0.1888354  51.47  0.001083736    1.107    0.096
       169  -9.7889     76.0000    107.0064   1.2227556623e+02   4.5620397921e+01    0.2334119   0.07322121 -56.54 0.0004564999    2.909    0.656
       170 -10.4553     61.9815    107.0019   1.2641966533e+02   4.7569507170e+01    0.2118807    0.1487916 -36.21 0.0006452532    1.663    0.399
       171  -9.1776     49.6188    107.2960   1.3015085162e+02   4.8998677141e+01     0.135014   0.09157727  71.83 0.0007020628    1.760    0.432
       172 -10.4217      6.2867    106.3149   1.4262088065e+02   5.2973946957e+01    0.2706858    0.1399351 -56.78  0.001091949    1.655    0.396
       173 -10.9321      2.7586    105.3882   1.4350508038e+02   5.3394491194e+01    0.2182042    0.1915826  84.77 0.0007319947    1.194    0.162
       174  -9.7875    223.3105    103.9550   8.6662667777e+01   1.4426598648e+01    0.2082805    0.1807425 -31.80 0.0004768782    1.101    0.092
       175 -10.0656     93.3304    104.2803   1.1658640564e+02   4.3461016296e+01    0.1951634    0.1216973 -53.10 0.0003765713    1.512    0.338
       176 -10.9071     69.4791    102.8533   1.2329408787e+02   4.7520206420e+01    0.2449187    0.2067204  23.54 0.0006261016    1.400    0.286
       177 -10.3390    247.7773    102.3873   8.2463084919e+01   9.2833127729e+00    0.1909149    0.1273601  42.65 0.0006064934    1.649    0.393
       178  -9.7784    120.3458    101.3216   1.0827608106e+02   3.8972790438e+01    0.2310202    0.1832092  -2.39 0.0006517521    1.707    0.414
       179 -10.2903     36.6929    101.3524   1.3296205602e+02   5.1722462239e+01    0.2064549    0.1581981  25.66  0.000693772    1.596    0.374
       180  -9.8765     27.9148    100.8982   1.3554794840e+02   5.2619486323e+01    0.1693198    0.1373648 -55.77  0.001116213    1.167    0.143
       181 -10.7851      3.9447    100.7948   1.4263461758e+02   5.4349788581e+01    0.2606913    0.1699469  42.77  0.001137695    1.795    0.443
       182 -11.7078     20.4869     98.1479   1.3736533808e+02   5.3842304792e+01    0.4905699    0.1908602 -68.79  0.002070795    2.056    0.514
       183 -10.3444     92.6056     96.2585   1.1477121486e+02   4.5391198846e+01    0.2873576    0.1339852 -54.14  0.001139022    2.097    0.523
       184 -12.1345      8.5976     94.3516   1.4042629901e+02   5.5511543752e+01    0.3820961    0.1675189 -57.52  0.002062538    1.784    0.440
       185 -10.9149    109.1830     93.4209   1.0920004530e+02   4.2938120797e+01    0.3485814    0.2014938 -42.12 0.0003131001    1.717    0.418
       186  -9.9233      7.1530     88.8353   1.4009530094e+02   5.6828723179e+01    0.1656999    0.1271949 -86.58 0.0003023951    1.203    0.169
       187 -10.2960      1.8807     93.3668   1.4232762211e+02   5.6118427610e+01    0.3382857   0.08573648 -55.91  0.001494814    2.806    0.644
       188  -9.2447    171.3335     91.3158   9.3122177930e+01   2.9212702992e+01    0.1623243    0.1239447  16.81 0.0007047052    1.689    0.408
       189 -10.4477     96.1494     90.5797   1.1219773764e+02   4.6017076741e+01    0.2798814    0.1905352 -16.21  0.001203367    2.239    0.553
       190 -10.5750     61.9974     98.5095   1.2461343335e+02   4.9530186139e+01    0.2898868    0.1795934  23.86  0.001311797    2.048    0.512
       191  -9.1047     38.2222     90.3558   1.3041552422e+02   5.4091493272e+01    0.1297685   0.07757191 -46.66 0.0001516973    1.560    0.359
       192 -11.2520     46.4438     83.9655   1.2633416071e+02   5.4690805861e+01    0.5869882    0.3334268 -68.80  0.002645903    1.775    0.437
       193  -9.6302      2.8903     86.1893   1.4106139026e+02   5.7653015272e+01    0.2156058    0.1017281  47.40  0.001158745    2.636    0.621
       194 -11.0159     85.5640     82.6126   1.1319846229e+02   4.9591207937e+01    0.5007055    0.2393353 -50.13  0.001584867    1.956    0.489
       195 -10.6882    118.1639     83.2676   1.0374548155e+02   4.3236100192e+01    0.2957382    0.2490528   6.00  0.001015641    1.410    0.291
       196 -11.5510     23.8836     78.2590   1.3277434162e+02   5.8055288987e+01    0.3872266    0.2346687 -73.59  0.001365076    1.543    0.352
       197 -11.6259     19.9251     82.0676   1.3484772636e+02   5.7504589532e+01    0.3010541    0.2015069 -82.63 0.0003564963    1.487    0.327
       198 -11.4467     15.9753     81.5323   1.3607236999e+02   5.7899475253e+01    0.3094507    0.1930678 -50.84  0.001177378    1.376    0.273
       199 -11.2603     75.3157     81.8827   1.1625829147e+02   5.1390478485e+01    0.4065666    0.1733735 -50.99  0.001661305    2.123    0.529
       200 -11.7568     72.2320     78.4795   1.1631542488e+02   5.2593532950e+01    0.4600371    0.3024303 -23.68 0.0004898885    1.977    0.494
       201  -9.5265      8.2794     80.6486   1.3848463831e+02   5.8577038128e+01    0.3868027    0.2298177 -80.35  0.002316954    1.536    0.349
       202 -10.1860      2.4649     72.0294   1.3904846893e+02   6.0774875195e+01    0.2355385     0.111703 -49.63  0.001036131    1.737    0.424
       203 -10.4607      3.2986     78.6627   1.3982449008e+02   5.9287172868e+01    0.3069891    0.1955102  84.43  0.001904864    1.693    0.409
       204 -11.9055      5.7403     73.9733   1.3824083465e+02   6.0182782230e+01    0.4296178    0.3503405 -27.71  0.003147339    1.408    0.290
       205 -10.1535    100.9988     78.4793   1.0723938513e+02   4.7689971110e+01    0.2222353     0.145252  42.05  0.001034652    1.600    0.375
       206  -9.8694     36.0877     77.6926   1.2843148840e+02   5.7137897572e+01    0.1686527    0.1435304 -49.37 0.0004120994    1.071    0.067
       207 -11.4434    150.9612     78.6233   9.3960302003e+01   3.6606507840e+01    0.2856884    0.2660302 -84.33   0.00034893    1.137    0.121
       208  -9.7679    193.4662     77.3127   8.4807985927e+01   2.6132817053e+01    0.2695632    0.1401184  57.80  0.001057361    1.935    0.483
       209 -11.8429    108.2533     74.7949   1.0395486527e+02   4.7007686599e+01    0.6402353    0.3036179 -34.73  0.001354513    2.348    0.574
       210 -11.7409     62.8198     72.1986   1.1770595680e+02   5.5280009857e+01    0.4653777    0.3384809 -59.04  0.002037081    1.344    0.256
       211 -11.0807     58.9683     76.3322   1.2018070708e+02   5.4897362201e+01    0.4156198    0.2926779  82.90  0.001466048    2.181    0.541
       212 -10.0230     54.5606     72.4548   1.2065344132e+02   5.6290298828e+01    0.2244484    0.1435411 -54.95 0.0004733893    1.384    0.277
       213 -10.0925    121.6044     76.2348   1.0064296236e+02   4.3902779211e+01    0.2143568    0.1427344 -30.53 0.0008511234    1.619    0.382
       214 -10.8424     40.3977     73.0399   1.2581491646e+02   5.7741916177e+01    0.2981824    0.2124451 -68.66 0.0007228809    1.382    0.276
       215 -11.1886    152.2250     72.2481   9.1714649594e+01   3.7460321149e+01    0.3497451    0.2624821  51.49  0.001037753    1.315    0.240
       216 -11.0881     77.5701     71.6972   1.1255913308e+02   5.3213384037e+01    0.3627394    0.2774651  66.61 0.0001778283    1.756    0.431
       217 -10.2676    115.9209     70.8874   1.0051484470e+02   4.6173998741e+01     0.328102    0.2054815 -45.25  0.001086562    1.594    0.373
       218 -12.0599     49.4971     69.5989   1.2166663179e+02   5.7505615042e+01    0.4644609    0.3217116 -27.90  0.001578013    1.579    0.367
       219  -9.2280    215.5017     70.5133   7.9268644934e+01   2.1703059637e+01     0.149406    0.1393469 -60.73  0.000810299    1.035    0.033
       220  -9.3988    175.1737     70.5939   8.6326112718e+01   3.1939734111e+01    0.2112785    0.1405975  45.91 0.0002514031    1.537    0.349
       221 -11.3809     69.0780     67.4333   1.1412580276e+02   5.5398211061e+01    0.3276397    0.2740348 -37.54 0.0009273663    1.083    0.076
       222 -10.9643     31.2411     66.3716   1.2748887207e+02   6.0048299588e+01    0.2778304    0.1918234 -57.06 0.0009071761    1.197    0.164
       223 -11.1151     25.6438     68.5110   1.3006137588e+02   6.0054531303e+01    0.2932399    0.2568012 -14.37  0.001704127    1.303    0.232
       224 -10.8417     20.7513     66.1335   1.3132435249e+02   6.0940039630e+01    0.2526899    0.1757639  26.35  0.001617207    1.750    0.429
       225 -10.9574     94.6234     68.7060   1.0611877132e+02   5.0876967087e+01    0.2808842    0.1863243 -10.52 0.0009187777    2.276    0.561
       226 -10.6228     37.2625     67.5330   1.2555966586e+02   5.9243838988e+01    0.3229825     0.182943 -47.51  0.001756809    1.478    0.323
       227 -11.3580    130.3409     65.4448   9.4853778015e+01   4.3959247166e+01     0.492656    0.2490837 -45.93  0.001923128    2.091    0.522
       228 -10.1445      6.8205     68.0046   1.3680369829e+02   6.1418692996e+01    0.1725996    0.1517446 -43.19  0.001048195    1.207    0.172
       229 -10.3398    156.5833     66.7366   8.9021063487e+01   3.7338264862e+01    0.2147717    0.1426954 -46.25 0.0003859744    1.562    0.360
       230 -10.0525     14.4967     66.4658   1.3370646736e+02   6.1296070092e+01    0.2475519      0.15853 -18.40 0.0009969684    1.928    0.481
       231 -11.1623      2.2820     65.1968   1.3793297766e+02   6.2255412180e+01    0.4148137   0.08073694 -54.08  0.001753207    2.966    0.663
       232 -11.5344    120.3132     64.5111   9.7203421092e+01   4.6412559661e+01    0.6227871    0.3947582   2.49  0.002313802    2.893    0.654
       233  -9.9738    165.5397     64.8760   8.6538639224e+01   3.5373877529e+01     0.227473    0.1537137 -31.98 0.0004525674    1.523    0.343
       234 -10.2045    106.0231     64.5414   1.0127672421e+02   4.9458095793e+01    0.3305555    0.1789722 -55.94  0.001285113    2.459    0.593
       235 -11.3326     84.2217     62.8972   1.0754560261e+02   5.3892010405e+01    0.4535829     0.360368 -62.24  0.001968395    1.470    0.320
       236 -10.6757     86.0558     58.0105   1.0527816106e+02   5.4512366418e+01    0.3245921    0.2448628 -43.90 0.0004250636    1.281    0.219
       237 -10.4805     76.6122     65.1876   1.1084041787e+02   5.4701673780e+01    0.3187329    0.1826387  54.23  0.001407259    2.402    0.584
       238 -10.7402    174.3488     63.8141   8.4455466490e+01   3.3278226276e+01    0.2971484      0.25518 -87.56 0.0005393228    1.258    0.205
       239 -10.3385     87.1120     52.8163   1.0309123683e+02   5.5285807241e+01    0.2934473    0.1888623 -46.89  0.001439422    1.588    0.370
       240 -11.3237     41.0390     63.6139   1.2311490453e+02   5.9701811540e+01    0.3023255    0.1969865  88.61  0.001455386    2.677    0.626
       241 -10.4889     51.8546     62.3801   1.1873948378e+02   5.8750415975e+01    0.2569378    0.1729836 -36.81  0.001197275    1.381    0.276
       242 -11.2255     10.9237     62.3355   1.3417218605e+02   6.2401787736e+01    0.2526236    0.1715083 -53.36 0.0005573818    1.150    0.130
       243 -10.8533    170.0620     61.2815   8.4520823114e+01   3.4798675468e+01    0.2487047    0.2137528 -16.04 0.0002945292    1.274    0.215
       244 -10.8694     64.5481     59.9877   1.1336470074e+02   5.7570465640e+01    0.4250748     0.187294  43.41  0.001820895    2.671    0.626
       245 -10.0115     71.8234     61.7855   1.1137980649e+02   5.6134999611e+01    0.2377253     0.198557 -52.30 0.0002364481    1.209    0.173
       246 -10.8279     70.2430     58.5640   1.1086643771e+02   5.7015027340e+01    0.2959235    0.2017941 -18.65 0.0009794739    1.746    0.427
       247 -10.5229     32.6099     61.1808   1.2563912192e+02   6.1031026387e+01    0.3401182    0.2030169 -32.03  0.001878102    1.759    0.431
       248 -10.9097     27.2034     61.2093   1.2771435565e+02   6.1492175679e+01    0.3308293     0.167578  22.66  0.001490102    2.382    0.580
       249 -11.4025     57.6381     59.2923   1.1565287474e+02   5.8654991928e+01    0.4043719    0.2424951 -48.20   0.00211428    1.470    0.320
       250 -11.7196    135.4369     50.3173   8.8472072526e+01   4.5309583548e+01    0.5148852     0.339729 -72.43  0.001134815    2.418    0.586
       251 -10.9670    137.1415     57.8537   9.0627806439e+01   4.3665654433e+01    0.5170348    0.2968932  26.25   0.00176579    2.656    0.623
       252 -10.7136    137.5480     54.5221   8.9405827527e+01   4.4119198009e+01    0.2796182    0.2439536  48.51 0.0005006162    1.121    0.108
       253 -10.0264     18.2540     59.5087   1.3074003962e+02   6.2530678821e+01     0.212286    0.1255276 -71.73 0.0005426598    1.682    0.405
       254 -10.6361    122.5320     56.4641   9.3867974906e+01   4.7340392246e+01    0.3965692    0.2827238 -84.60    0.0017009    2.245    0.555
       255 -10.4042    114.7746     57.3377   9.6289225620e+01   4.8921972488e+01    0.3618152    0.1709441  46.57   0.00135358    2.111    0.526
       256  -9.8119    117.5301     54.5316   9.4543934724e+01   4.8799815540e+01    0.2680171    0.1417283 -38.69 0.0006448046    1.875    0.467
       257  -9.5607     80.8114     57.1611   1.0673300913e+02   5.5584940614e+01    0.1839962    0.1499662 -15.42 0.0003433121    1.259    0.206
       258 -10.7900     99.5481     55.9011   1.0024641931e+02   5.2359880221e+01    0.4934588    0.1968638  40.58  0.001827976    2.688    0.628
       259 -11.6547     38.2087     51.7275   1.2072015776e+02   6.2441859427e+01    0.5666142    0.3549036 -33.50  0.003049725    1.511    0.338
       260 -10.0581     44.7564     51.2739   1.1797628579e+02   6.1830649280e+01    0.2333328     0.175919 -33.88 0.0005521143    1.168    0.144
       261 -10.6606     46.0862     47.0002   1.1601727776e+02   6.2513511365e+01    0.2199959    0.1594638 -48.14 0.0003019288    1.251    0.201
       262 -12.5330    127.9729     51.4703   9.0714314982e+01   4.6912417937e+01    0.3980612    0.3107144 -20.43 0.0003253942    1.356    0.262
       263 -11.9895      5.1220     52.3712   1.3426789501e+02   6.4818770738e+01    0.6444883    0.2629771 -22.21  0.002942994    3.672    0.728
       264 -11.1939     12.9824     49.9422   1.3048904618e+02   6.4871221532e+01    0.3084019    0.1347573 -54.78  0.001519025    1.684    0.406
       265 -12.1473      8.6917     45.6757   1.3118811652e+02   6.5998081215e+01     0.416589    0.3262383 -29.28  0.001500231    1.255    0.203
       266 -10.1008      6.8000     40.9387   1.3075633152e+02   6.7055660946e+01    0.1756465    0.1138465 -44.25 0.0006210243    1.207    0.172
       267 -10.0327    157.6933     52.0889   8.4112397849e+01   3.9447024598e+01     0.212638    0.1955535 -13.59 0.0004371288    1.152    0.132
       268 -10.3629     83.0990     51.6564   1.0400607875e+02   5.6214196632e+01    0.2257268    0.1772131 -44.36 0.0003925295    1.274    0.215
       269 -11.6019     51.5153     47.3828   1.1399829604e+02   6.1782656666e+01    0.6923853    0.2560804 -50.94  0.002878734    2.570    0.611
       270 -11.7305    142.3772     47.5504   8.5904598293e+01   4.4029287427e+01    0.5795032    0.3512623 -20.06  0.002170165    1.941    0.485
       271 -10.1188    139.4551     44.5382   8.5527574097e+01   4.5210146420e+01     0.275714    0.1679442  38.25 0.0007138739    1.769    0.435
       272 -10.5759    114.9343     49.3798   9.3419247765e+01   5.0241155496e+01    0.2835785    0.2330669 -17.34 0.0009072548    1.249    0.200
       273 -10.8737    101.7686     49.5172   9.7266199531e+01   5.3030692171e+01    0.3942445    0.2760272  75.58  0.001772065    2.285    0.562
       274 -10.0983     98.4386     44.7562   9.6499406825e+01   5.4504502703e+01     0.278986    0.2072906  12.17 0.0008192908    1.549    0.354
       275 -10.9231     76.9680     49.9448   1.0548052963e+02   5.7577060664e+01    0.2168743    0.1558946  -5.47  0.001112356    1.670    0.401
       276 -11.8674    155.4670     47.5849   8.3098055512e+01   4.0703299853e+01     0.434922    0.2360332  45.06  0.001292618    1.881    0.468
       277  -9.3298    104.3327     46.2892   9.5306198033e+01   5.3038490587e+01     0.147064    0.1071162  14.09  0.000606712    1.627    0.385
       278  -9.7869     91.6783     46.1326   9.9137179816e+01   5.5607074458e+01    0.2175499    0.1665577 -49.10 0.0009362697    1.450    0.311
       279 -10.0717     17.6279     45.1560   1.2725059041e+02   6.5532431912e+01    0.2899806    0.1751339 -88.50  0.000896271    3.071    0.674
       280  -9.8475    233.1494     45.1727   7.0258684457e+01   2.1062493301e+01    0.1925006    0.1869826 -21.87  0.000449789    1.165    0.142
       281 -10.7133    122.4919     44.3257   8.9565770297e+01   4.9326522280e+01    0.4021046     0.282102 -35.80 0.0008833644    1.443    0.307
       282 -10.3913    119.4798     39.3355   8.8504932844e+01   5.0775643878e+01    0.2789648    0.2346024  16.21 0.0004506622    1.229    0.187
       283  -9.7327    123.4151     38.7839   8.7296208320e+01   4.9938328637e+01    0.1955716     0.138652 -12.38 0.0003616054    1.596    0.374
       284  -9.4764     86.7191     45.1959   1.0039425365e+02   5.6699924762e+01    0.2148028   0.09927364  36.29 0.0007295112    2.395    0.582
       285 -10.7859     64.0929     41.5207   1.0698247831e+02   6.1128248806e+01    0.2616945    0.1841752 -36.12 0.0009878769    1.277    0.217
       286 -11.1567     68.7190     37.9248   1.0384201215e+02   6.1032823643e+01    0.3792261    0.1959106 -33.01  0.001800368    1.851    0.460
       287  -9.8245     56.4894     42.0435   1.1010393750e+02   6.2124242628e+01    0.2006931    0.1138846 -44.56  0.001031737    1.601    0.375
       288 -10.2606     24.1188     41.6684   1.2340965786e+02   6.5727702025e+01    0.2152582    0.1815635 -40.50  0.001494174    1.077    0.071
       289 -10.3514    225.5616     40.0573   6.9835563224e+01   2.3597981908e+01    0.3380268    0.2065683 -66.35  0.001550652    1.827    0.453
       290 -10.2227     95.6658     40.4472   9.5697327284e+01   5.5758294771e+01    0.3118654    0.2470522  75.77  0.001347224    1.787    0.440
       291 -10.0110     90.3245     40.6449   9.7460930529e+01   5.6775595245e+01    0.2257919    0.1772879  70.98 0.0008580266    1.793    0.442
       292 -10.3161     44.2371     39.7788   1.1419616293e+02   6.4091150411e+01    0.2850082    0.1828733 -52.15  0.001099604    1.559    0.359
       293 -11.6353     82.3634     36.8750   9.8588983876e+01   5.8871521117e+01    0.3084248    0.2848092  -7.53 0.0008808438    1.066    0.062
       294  -9.3297     19.3674     37.8442   1.2427403934e+02   6.6844317231e+01    0.1693864   0.07964089 -46.21 0.0005088162    1.631    0.387
       295 -10.2595     14.3227     33.8515   1.2527082625e+02   6.7974358452e+01    0.2255981    0.1416577  43.94   0.00136666    2.322    0.569
       296  -9.9843      1.3335     37.8715   1.3235881158e+02   6.7945103425e+01    0.2302142    0.0973253 -43.16 0.0005865943    1.842    0.457
       297 -10.6728      9.1405     33.6594   1.2760317731e+02   6.8346066886e+01    0.2963082    0.1591371 -44.86  0.001350865    1.406    0.289
       298 -11.7926      4.7334     30.8108   1.2879033796e+02   6.9145179244e+01    0.4942995    0.2859129 -40.55   0.00182631    1.353    0.261
       299 -10.7721      8.9535     25.7286   1.2509769583e+02   6.9851680471e+01    0.3581869    0.1596728 -28.96  0.001432181    2.314    0.568
       300 -10.7778    111.1974     33.9102   8.8631147688e+01   5.3440331136e+01    0.4514539    0.2832878 -29.02  0.000936573    1.608    0.378
       301 -10.8325    102.2994     36.9341   9.2322522579e+01   5.4935101816e+01    0.3532095    0.1977381  52.47  0.001016163    1.846    0.458
       302 -10.7682    105.8640     34.1442   9.0198758377e+01   5.4581566917e+01    0.3105959    0.2647397  30.76 0.0007964319    1.119    0.106
       303 -11.0874     24.4288     35.5138   1.2123016982e+02   6.6883000677e+01    0.2251825    0.2099047  12.45 0.0005593954    1.320    0.242
       304  -9.9612     31.9958     33.8472   1.1724975416e+02   6.6498561566e+01    0.2532958    0.1481578  14.40  0.001233881    2.020    0.505
       305 -11.1315     55.9854     31.0531   1.0593476489e+02   6.4098706345e+01    0.5236853    0.2631709 -18.31  0.002139187    3.121    0.680
       306 -11.5221    144.9678     31.4577   7.9760969254e+01   4.5636763160e+01    0.3759373    0.2776293 -81.19 0.0004469502    1.710    0.415
       307 -10.4292     97.8019     32.0354   9.1700525137e+01   5.6593934886e+01     0.237053    0.1898924  25.02 0.0006049129    1.218    0.179
       308 -10.9718     76.2616     33.6137   9.9362552170e+01   6.0475276337e+01    0.2834088    0.2042291  15.13  0.001106041    1.494    0.331
       309  -9.7516     49.7024     31.3101   1.0861048996e+02   6.4913607098e+01    0.1639849    0.1474538 -28.91 0.0004771946    1.188    0.158
       310 -10.2384     50.3684     27.8002   1.0685898134e+02   6.5408636629e+01    0.2825101    0.1395087 -28.24 0.0009990722    2.089    0.521
       311 -10.7977     81.9963     29.2155   9.5544947593e+01   6.0110183921e+01     0.242025    0.1683941 -45.73  0.001283235    1.671    0.401
       312 -10.6404     66.1301     29.8467   1.0147181311e+02   6.2760131662e+01    0.1781257    0.1664355 -13.47 0.0003303638    1.178    0.151
       313 -10.9231     70.8203     26.1377   9.8128911900e+01   6.2550082466e+01    0.3947099    0.1863466  35.61  0.001814684    2.222    0.550
       314 -10.4749    152.6764     27.0572   7.6738541413e+01   4.4203595732e+01    0.3304105    0.2181153 -75.57  0.001454227    2.028    0.507
       315  -9.4571    124.6202     28.0954   8.2991647861e+01   5.1106854939e+01    0.1904496    0.1322662  -4.37 0.0003739114    1.684    0.406
       316  -9.8696    172.9939     27.4990   7.3409294046e+01   3.8817140645e+01    0.2139277    0.1207199 -82.65 0.0008104289    2.540    0.606
       317  -9.6176     24.7977     26.7970   1.1785551517e+02   6.8447385688e+01    0.1427608    0.1282104 -46.21 0.0004729085    1.310    0.236
       318 -10.0412    131.7239     26.0597   8.0610030650e+01   4.9634296604e+01    0.1941714    0.1803994   4.96 0.0004217862    1.098    0.089
       319 -11.7053     60.9436     24.2046   1.0100284256e+02   6.4442084675e+01    0.4639167    0.2249494 -43.70  0.002207574    2.218    0.549
       320 -10.5547     16.9907     24.3445   1.2065506169e+02   6.9537958426e+01    0.2388622    0.1362388 -39.24  0.000980999    1.368    0.269
       321  -9.6040    113.0512     25.2310   8.4723011481e+01   5.4179327952e+01    0.1989894    0.1772765  17.64  0.000572946    1.067    0.063
       322  -9.8859    112.6782     21.9969   8.3523931037e+01   5.4662392915e+01    0.2187495    0.1818614  58.88  0.000571284    1.240    0.193
       323 -10.6827     54.3488     23.5202   1.0333740113e+02   6.5532009712e+01    0.2436855    0.2278209 -31.80 0.0005325125    1.326    0.246
       324 -10.6974      1.4064     24.3213   1.2835694195e+02   7.0544154770e+01    0.2524033   0.08123248 -57.84  0.001245179    2.374    0.579
       325 -10.6608     99.8589     22.8509   8.7311439831e+01   5.7399870117e+01    0.3577772    0.2659619  22.72  0.001574301    1.349    0.259
       326 -12.0587    231.6585    247.0468   1.1373814085e+02  -7.6055348969e+00    0.4911399    0.2579187  25.07  0.002904032    1.711    0.415
       327 -12.1325    226.0130    246.1201   1.1453779961e+02  -6.6674451161e+00    0.5874031    0.3202457  11.87  0.003186513    2.380    0.580
       328 -10.9076      6.3241    245.0895   1.5180967476e+02   2.4877055534e+01    0.2264727    0.1083999  75.32 0.0006935229    1.553    0.356
       329 -10.8480    123.6767     21.9081   8.0842388407e+01   5.2089628582e+01    0.3458115    0.1788188  57.40 0.0009455483    1.808    0.447
       330 -11.5434     66.8899     21.4663   9.7495309888e+01   6.3885356960e+01    0.3384197    0.2408377  49.52  0.001944504    1.686    0.407
       331 -11.8972      8.4893    241.6879   1.5135122199e+02   2.5233312375e+01    0.3708872    0.1514596  68.99  0.002384109    1.858    0.462
       332 -10.0759    115.4516    244.6776   1.3369189686e+02   1.1048759084e+01    0.1728418    0.1114496 -71.06  0.001102622    1.893    0.472
       333  -9.9967    104.4591     18.5354   8.4237436597e+01   5.6923515953e+01    0.2708542    0.1540025   2.80  0.001005616    2.434    0.589
       334  -9.6012     45.2934     20.5922   1.0584446549e+02   6.7225836798e+01    0.1568504    0.1061129  17.05 0.0007173201    1.530    0.346
       335  -9.3164    168.4474    250.5699   1.2501615331e+02   1.8217584156e+00    0.1176071   0.08862721  38.86 5.483131e-05    1.050    0.047
       336  -9.8598    167.3462     19.1664   7.1630430861e+01   4.1272018265e+01    0.2088708     0.168236  56.82 0.0006963846    1.166    0.142
       337 -10.1305     81.5258     18.0293   9.0805861526e+01   6.1723880816e+01    0.3278827    0.1231982 -28.24  0.001336423    2.655    0.623
       338  -9.4736     50.2150     18.7928   1.0289892867e+02   6.6831898611e+01    0.1623609    0.1195497  -5.10 0.0002611021    1.269    0.212
       339 -10.1435     19.5378     18.7826   1.1716475634e+02   7.0300827191e+01    0.2181773    0.1640491  10.41  0.001350838    1.421    0.296
       340  -9.6850     20.0052     15.4624   1.1549670136e+02   7.0815948669e+01     0.158733    0.1238941 -19.44 0.0003413633    1.077    0.071
       341  -8.9270    151.6452     18.7235   7.4061030707e+01   4.5430839010e+01    0.1532391    0.0978992  38.73 0.0004408091    1.649    0.394
       342 -10.8958    146.9614    244.3750   1.2805826740e+02   6.1263912672e+00    0.2745886   0.08937833  42.72  0.001211846    2.367    0.578
       343 -10.2177      9.7077     16.5089   1.2126365000e+02   7.1451100505e+01    0.1895569    0.1346066 -41.08 0.0004751053    1.117    0.105
       344 -10.2972    109.7510    243.2076   1.3455464416e+02   1.2148608031e+01    0.2612127    0.1469875  66.06  0.001500666    1.846    0.458
       345  -9.3764    166.4570     14.5206   7.0264924490e+01   4.2003577191e+01    0.1428947    0.1300097  62.07 0.0001178074    1.043    0.041
       346  -9.9462     99.6771     14.0492   8.3618938097e+01   5.8480548788e+01    0.1900725    0.1599844  -4.30 0.0007314679    1.162    0.139
       347  -9.7612    137.0228     20.0298   7.7270149565e+01   4.9022331666e+01    0.2140543    0.1658111 -67.40 0.0003247194    1.567    0.362
       348  -9.2413    155.2878     13.3102   7.1595812927e+01   4.5054385952e+01    0.1457464   0.09957656  35.75 0.0002541032    1.578    0.366
       349 -11.7172     34.8392    241.7617   1.4721076368e+02   2.2415089907e+01    0.3925293    0.1984934  44.42  0.002622271    1.688    0.408
       350 -10.6107     31.5993    237.2001   1.4749111835e+02   2.3564602498e+01    0.2398808    0.1147521  70.04 0.0008728147    1.696    0.410
       351 -10.3775     28.9308    232.8909   1.4769756978e+02   2.4613567732e+01    0.4548351    0.1042735  42.54  0.002229218    3.038    0.671
       352  -8.9517     51.3212     11.3066   9.8823517506e+01   6.7725257743e+01    0.1261539    0.0816045   2.69 0.0003715443    1.639    0.390
       353 -12.4931     19.7542    239.2182   1.4949408247e+02   2.4502127801e+01    0.4562151    0.2354381  58.68  0.003244556    1.372    0.271
       354 -12.0410    155.8902    241.5541   1.2612140401e+02   5.0815857518e+00    0.3472321    0.1951792  33.70  0.001389176    1.693    0.409
       355 -10.5014    174.4960    238.8233   1.2243212586e+02   2.4024450482e+00    0.2427971    0.1673883  32.75  0.001141617    1.266    0.210
       356 -10.9264    177.5726    234.9487   1.2135011891e+02   2.4202550497e+00    0.2553462    0.1757309  18.44  0.001196465    1.702    0.413
       357  -9.4792    160.9786    250.0000   1.2625147886e+02   3.0913037816e+00    0.1965722   0.05186982  42.51 0.0004513501    2.874    0.652
       358 -10.5985    159.9052    235.8427   1.2467154059e+02   5.2396400540e+00    0.1873656    0.1423537  31.83  0.000677415    1.256    0.204
       359 -10.9448     73.7100    232.9765   1.4002770996e+02   1.9073715246e+01    0.2274137    0.1639336  69.82 0.0009260088    1.106    0.095
       360 -10.5515    166.9980    233.7885   1.2310825403e+02   4.3507713943e+00    0.1844355      0.17603  34.47 0.0007576565    1.208    0.172
