#   1 NUMBER                 Running object number                                     
#   2 MAG_AUTO               Kron-like elliptical aperture magnitude                    [mag]
#   3 X_IMAGE                Object position along x                                    [pixel]
#   4 Y_IMAGE                Object position along y                                    [pixel]
#   5 X_WORLD                Barycenter position along world x axis                     [deg]
#   6 Y_WORLD                Barycenter position along world y axis                     [deg]
#   7 A_WORLD                Profile RMS along major axis (world units)                 [deg]
#   8 B_WORLD                Profile RMS along minor axis (world units)                 [deg]
#   9 THETA_WORLD            Position angle (CCW/world-x)                               [deg]
#  10 FWHM_WORLD             FWHM assuming a gaussian core                              [deg]
#  11 ELONGATION             A_IMAGE/B_IMAGE                                           
#  12 ELLIPTICITY            1 - B_IMAGE/A_IMAGE                                       
         1 -13.5904    216.2079     28.4783   2.8369463048e+00   2.8345007681e+01    0.9151883    0.7465447 -43.66  0.004027661    1.191    0.161
         2 -11.3569    227.1359      9.5851   3.5762630989e+02   2.8221145121e+01    0.2393505    0.1918826 -68.35 0.0007460931    1.087    0.080
         3 -19.4271     20.0459    138.0506   7.9980665985e+01   4.4439244248e+01     19.11865     3.355481 -77.82   0.04765883    5.945    0.832
         4 -12.7258    248.6864    247.2048   4.2784500089e+01  -8.8846332995e+00     0.545064    0.2678814 -27.98   0.00362303    1.810    0.447
         5 -15.5522    121.7467    234.8809   6.4562390204e+01   8.7363335846e+00     5.831001     3.916697 -71.12   0.03373493    2.007    0.502
         6 -10.1034    161.4721    199.9503   5.1184083667e+01   9.0568636619e+00    0.3488005    0.1977717  53.22  0.001574767    2.387    0.581
         7  -9.9266    210.8782    198.7746   4.1359242142e+01   1.8593747950e+00    0.1838441    0.1418879  -1.19 0.0004870772    1.158    0.136
         8 -11.2880     82.1497    194.8893   6.8883595353e+01   2.2514093343e+01    0.4243248     0.267678  48.71  0.001042762    1.425    0.298
         9  -9.6069     69.2476    195.3676   7.2147810613e+01   2.4216689652e+01    0.3238032    0.1461665 -67.24  0.001412389    2.285    0.562
        10  -9.9678     49.2674    194.9001   7.7076498681e+01   2.6904486397e+01    0.2216014    0.1508012  49.49 0.0007911591    1.262    0.208
        11 -10.2678     54.5556    191.0765   7.5399749594e+01   2.7148970635e+01    0.2966638    0.1525268 -88.44  0.001321616    2.172    0.540
        12  -9.6827    237.5425    188.5203   3.5048365401e+01  -2.3986814543e-01    0.1198424   0.09533946 -13.53 0.0001133235    1.017    0.017
        13 -11.6849     59.8628    227.2809   7.7264041620e+01   1.8518595004e+01    0.1775071    0.1665822 -87.93  0.000577605    1.271    0.213
        14  -9.7063     71.8952    176.5010   6.9252250605e+01   2.8341062107e+01     0.209176    0.1332186  35.84 0.0006259587    1.511    0.338
        15 -12.0251     58.6916    179.1105   7.3090932082e+01   2.9506108243e+01    0.4242329    0.3155403 -41.31  0.001257481    1.729    0.422
        16 -10.0182    174.9692    179.4926   4.4774710190e+01   1.0627397211e+01    0.2125389    0.1802835 -32.22 0.0006456003    1.161    0.139
        17 -12.4754    172.7051    173.9032   4.4191167078e+01   1.2062404758e+01    0.7288736    0.4912943  -2.34  0.002109106    2.041    0.510
        18 -11.3658    180.8974    168.8955   4.1537189080e+01   1.1597570229e+01    0.5973221    0.3438004 -62.56  0.002388736    3.005    0.667
        19 -10.2480     73.9369    179.9481   6.9147286845e+01   2.7208418165e+01    0.2679156    0.1925721 -79.03 0.0006208411    1.414    0.293
        20 -10.8094     90.0035    221.9717   7.0056692407e+01   1.5614165119e+01    0.2453531    0.2191385   7.09 0.0008081745    1.354    0.261
        21 -15.6844     68.4267    143.4027   6.5437215859e+01   3.7327190765e+01     2.619672     1.735158  74.95  0.009835797    1.724    0.420
        22 -12.0550     89.1807    215.2730   6.9529937182e+01   1.7088479797e+01    0.5853975     0.293131 -60.15   0.00210937    2.207    0.547
        23 -10.1195     99.4737    160.4400   5.9340305469e+01   2.7991435931e+01    0.2772144    0.2157974  68.12  0.000108558    1.363    0.266
        24 -11.6362     95.2345    159.5744   6.0353577116e+01   2.8919388947e+01     0.289213    0.2590877 -82.78 0.0004301256    1.102    0.093
        25  -8.8487    139.2736    156.3184   4.8257612623e+01   2.1758908054e+01    0.1476858    0.1169757 -13.99 0.0002351234    1.567    0.362
        26 -11.8569    133.5390    144.0259   4.7107164706e+01   2.5651648648e+01    0.8362086    0.2981333 -56.53  0.002510956    3.513    0.715
        27 -11.2458    160.5651    221.6531   5.4732813613e+01   5.4296029658e+00     0.228904    0.1799472  20.56 0.0006841812    1.115    0.103
        28 -12.2102    109.0890    145.2985   5.3850710561e+01   3.0021260618e+01    0.4467915    0.3740957  32.32   0.00158098    1.259    0.206
        29 -11.3738     90.2561    148.4479   5.9795710268e+01   3.2557466110e+01    0.2960279    0.2831193 -81.35   0.00030228    1.059    0.056
        30 -13.1168     95.8032    143.3374   5.7224822493e+01   3.2907023198e+01     0.751172    0.6289809 -31.09  0.002511775    1.418    0.295
        31 -12.7166    106.2776    131.5459   5.1730994769e+01   3.3967178908e+01    0.7624244    0.4551973 -57.10  0.003175088    1.667    0.400
        32 -11.6193    135.2133    129.7272   4.3451790693e+01   2.8616880783e+01    0.5634661    0.2186573 -49.22  0.001894216    2.543    0.607
        33 -11.9716     95.6079    130.6691   5.4684231063e+01   3.6177947123e+01    0.3089589    0.2892894 -52.43 0.0009559116    1.109    0.098
        34 -10.3718    161.5506    126.3925   3.6411925151e+01   2.3841330355e+01    0.3667737    0.1851256 -37.73  0.001204383    2.049    0.512
        35 -10.1564     83.5468    221.4847   7.1462187270e+01   1.6601881280e+01    0.2711653    0.1449846 -69.13  0.001153952    2.135    0.532
        36 -11.3852    114.3897    125.2168   4.7961793360e+01   3.3945880772e+01    0.3536986    0.3089209  77.36   0.00155073    1.209    0.173
        37 -10.6724    102.3308    120.4229   5.0332711001e+01   3.7515103916e+01    0.2923793    0.2621484 -14.63 0.0006286211    1.327    0.246
        38  -9.9763    162.1343    119.7369   3.4666360122e+01   2.5117214422e+01    0.2606497     0.198559 -55.46 0.0005191189    1.325    0.245
        39  -9.9378    159.1613    115.8312   3.4345679535e+01   2.6580423037e+01    0.2725426    0.2060941 -68.76 0.0007338365    1.542    0.352
        40 -10.0782    155.9811    111.4237   3.3930688240e+01   2.8209170683e+01     0.290855    0.2036804 -59.69 0.0007201199    1.544    0.352
        41  -9.8009     93.0928    235.6869   7.0760167560e+01   1.2549456083e+01    0.1636115    0.1300091  39.90 0.0002940893    1.059    0.056
        42 -11.6655    116.6713    109.0585   4.3261840380e+01   3.7376074422e+01    0.3529249     0.270878  68.78  0.001596308    1.490    0.329
        43  -9.2605    147.6404    106.3441   3.4511601590e+01   3.1156208902e+01    0.1683825    0.1226376 -82.73 0.0007033037    1.837    0.456
        44 -10.4918     60.9503    219.0913   7.6366046321e+01   2.0073323018e+01     0.136237    0.1108415  80.30 0.0002902531    1.195    0.163
        45 -10.3199    110.0080    115.5267   4.6854885599e+01   3.7202977602e+01    0.2380757    0.2095025 -59.04  0.000335057    1.105    0.095
        46  -9.3547     84.6661    104.3160   5.1956297866e+01   4.4929838967e+01    0.1641606    0.1210316  77.47 0.0003319659    1.690    0.408
        47 -11.6916    112.0273     99.3652   4.1952722719e+01   4.0657876652e+01    0.4756981    0.2778473  68.32  0.001660283    2.694    0.629
        48  -9.8416     64.2098     99.3952   5.7978677086e+01   4.9658643554e+01    0.2104942    0.1376745  46.64 0.0004540145    1.620    0.383
        49 -11.1263     67.7349    213.8148   7.4346731191e+01   2.0319258291e+01    0.1712257     0.150741  62.08 0.0003532478    1.076    0.071
        50  -9.3547     70.3465    233.5328   7.5473939094e+01   1.5954569663e+01     0.113995    0.1051636  45.61 0.0001773406    1.202    0.168
        51  -9.5142    113.9918     88.7491   3.8281070010e+01   4.2657427767e+01    0.2173241    0.2040303  68.91 0.0003103474    1.071    0.066
        52 -10.2757     98.9872     89.1063   4.2960418965e+01   4.5831672943e+01    0.3870149    0.2029084  64.08  0.001234217    3.241    0.691
        53  -9.2734    155.6850     87.2997   2.7460118368e+01   3.3221612325e+01    0.1593411    0.1177396 -75.62 0.0003915926    1.611    0.379
        54 -12.3912     53.5133    230.4291   7.8883131457e+01   1.8660104181e+01    0.3058238    0.1782814  85.49  0.001658667    1.835    0.455
        55  -9.0319    101.9901     76.7695   3.8125609431e+01   4.7965940451e+01     0.195887    0.1299494  47.30 0.0002896661    1.530    0.346
        56 -12.8797    174.1355     67.3004   1.8268930157e+01   3.2459247799e+01    0.4927893    0.4585512 -73.49 0.0007941614    1.049    0.047
        57 -13.6197    191.2510     53.9333   1.2023200446e+01   3.0522955152e+01     1.176144    0.9446239  35.83  0.004017221    1.658    0.397
        58 -12.0453    196.8965     48.5931   9.8883594644e+00   2.9996714674e+01    0.3908646    0.3260035  48.58  0.001140447    1.476    0.323
        59 -10.5296     40.4567    230.9166   8.1724580272e+01   2.0089369417e+01    0.1496088    0.1267291 -81.44  0.001033675    1.345    0.257
        60 -12.3291     91.8164    241.2218   7.1558262947e+01   1.1705926143e+01     0.236656    0.1840589 -57.99  0.001160209    1.570    0.363
        61 -11.1482     60.7335     21.2888   3.0151103606e+01   6.6838705518e+01    0.2182326    0.2093594  79.95 0.0008054305    1.253    0.202
        62 -12.2660     47.8866    228.8091   7.9992083631e+01   1.9657375719e+01    0.2527735    0.2147328 -60.19  0.001712962    1.502    0.334
