#   1 NUMBER                 Running object number                                     
#   2 MAG_AUTO               Kron-like elliptical aperture magnitude                    [mag]
#   3 X_IMAGE                Object position along x                                    [pixel]
#   4 Y_IMAGE                Object position along y                                    [pixel]
#   5 X_WORLD                Barycenter position along world x axis                     [deg]
#   6 Y_WORLD                Barycenter position along world y axis                     [deg]
#   7 A_WORLD                Profile RMS along major axis (world units)                 [deg]
#   8 B_WORLD                Profile RMS along minor axis (world units)                 [deg]
#   9 THETA_WORLD            Position angle (CCW/world-x)                               [deg]
#  10 FWHM_WORLD             FWHM assuming a gaussian core                              [deg]
#  11 ELONGATION             A_IMAGE/B_IMAGE                                           
#  12 ELLIPTICITY            1 - B_IMAGE/A_IMAGE                                       
         1  -9.7769     57.6996      9.8259   7.3182812146e+01   6.6659414665e+01    0.2677432    0.1544749  41.43  0.001477578    1.739    0.425
         2  -9.1987     91.8008      9.5950   6.1575443093e+01   6.0265320276e+01    0.1800067    0.1244437  64.81 0.0009512077    1.715    0.417
         3  -9.5975     71.7317      6.4750   6.6348921087e+01   6.4584287861e+01    0.2323387    0.1210928  53.88  0.001143384    2.110    0.526
         4  -9.0340     35.3017      5.6922   8.0838650048e+01   7.0438732893e+01    0.1000244   0.09092157 -34.03 0.0003834162    1.600    0.375
         5 -10.9466    173.6658    244.1227   1.0194600823e+02   5.5823044165e-01     0.212198    0.1731673  66.30   0.00141527    1.556    0.357
         6 -10.4985    168.0868    242.8618   1.0279938862e+02   1.6361304218e+00    0.1856266    0.1447285  50.47 0.0008071379    1.242    0.195
         7  -9.9795    237.2326    240.0146   9.0025299039e+01  -8.7969703415e+00    0.2890685    0.1256229  29.77  0.001196406    1.997    0.499
         8 -10.3591    107.5089    236.3522   1.1329963656e+02   1.2341671476e+01     0.297264    0.1483418  67.59  0.001384133    2.737    0.635
         9  -9.7190    160.7461    226.9896   1.0198453878e+02   5.2127985233e+00    0.2006259    0.1812773 -61.53  0.001006707    1.369    0.269
        10 -10.5514    164.3001    225.8482   1.0113570467e+02   4.7862709441e+00    0.3181617    0.2796578  54.81  0.001901816    1.193    0.162
        11 -10.6936     88.4783    227.0231   1.1592641320e+02   1.6837933793e+01    0.1681549    0.1518778 -63.50 0.0005842139    1.432    0.302
        12 -11.3721     98.9336    226.4628   1.1387632535e+02   1.5383555145e+01    0.3338049    0.2090145  36.39  0.001925698    1.618    0.382
        13 -11.5834    125.8436    221.1353   1.0800831482e+02   1.2067181180e+01    0.3360043    0.2675265  33.89   0.00134348    1.298    0.230
        14  -9.7307    108.6658    222.9725   1.1160702187e+02   1.4511002165e+01    0.1705199    0.1493949  68.94 0.0009985571    1.104    0.094
        15  -9.6771     75.2746    220.0077   1.1776501611e+02   2.0032351734e+01    0.1690015    0.1336859  69.39 0.0005503123    1.028    0.027
        16  -9.2781    143.6064    217.1939   1.0394886295e+02   9.7569348415e+00    0.1612935    0.1235069 -38.09 0.0005773822    1.627    0.385
        17  -9.0513    157.5180    221.5458   1.0182604123e+02   6.6319896119e+00    0.1296891    0.1079802  39.37 0.0002384745    1.024    0.023
        18 -10.0689    131.0636    214.9425   1.0615005301e+02   1.2296384155e+01    0.1988373    0.1738851  47.35   0.00127395    1.071    0.066
        19  -9.1433     79.0484    211.2124   1.1616317894e+02   2.1203008541e+01    0.1648564    0.0876352  41.52 0.0008710788    1.716    0.417
        20  -9.0106    115.6908    210.3405   1.0865615790e+02   1.5716517516e+01    0.1353697   0.08900847  69.71 0.0007044204    1.690    0.408
        21  -9.3180    202.6938    208.6474   9.0991371399e+01   7.5026496247e-01    0.1354001    0.0917365   8.11 0.0007042038    1.712    0.416
        22  -9.3693     56.3617    205.6924   1.2012605527e+02   2.5374783811e+01    0.1320159   0.07074649  65.71 0.0007039761    1.739    0.425
        23 -10.0557     89.6819    199.7602   1.1271723535e+02   2.1933734043e+01    0.2263005    0.1608629  52.70 0.0009745258    1.228    0.185
        24 -11.4377    173.4453    194.8878   9.4332827381e+01   8.2588032608e+00    0.4806559    0.2764724 -40.12  0.002320736    1.948    0.487
        25  -9.7900    126.6636    197.2759   1.0454204429e+02   1.6365888862e+01    0.2469708    0.2074592 -36.33  0.001444928    1.480    0.324
        26  -9.7733     67.5288    195.3941   1.1686048019e+02   2.6030540463e+01    0.2559173    0.1117722  58.95   0.00114794    2.391    0.582
        27  -9.3981     44.4952    194.4755   1.2150644874e+02   2.9142613820e+01    0.1238094   0.09226189  74.55  5.61972e-05    1.072    0.067
        28  -9.5099    139.3761    190.1823   1.0070079138e+02   1.5474458400e+01    0.1878915     0.130805 -68.17 0.0009443722    1.746    0.427
        29 -10.2674     88.3791    190.0792   1.1179774672e+02   2.4145418623e+01    0.2884316    0.1415128  54.24  0.001336114    1.975    0.494
        30 -11.8128     97.0885    187.8253   1.0959573787e+02   2.3262870656e+01     0.666968    0.2352124  49.27  0.002575599    2.735    0.634
        31  -9.4567     35.1734    188.3828   1.2288115756e+02   3.1488242268e+01    0.1699404   0.08576383  50.48 0.0009458843    1.758    0.431
        32  -9.2177    120.7979    187.0771   1.0425824508e+02   1.9437052951e+01    0.1784429    0.1089767 -58.97 0.0008663255    1.766    0.434
        33 -10.2750    110.1987    186.5506   1.0651985263e+02   2.1374739860e+01    0.3934307     0.184479  64.77  0.001349646    3.727    0.732
        34 -10.7891    210.7965    183.6868   8.4798981615e+01   3.1301315896e+00    0.5002269    0.2595883  17.67  0.001836116    3.335    0.700
        35  -9.6459    156.6447    188.0569   9.6632995885e+01   1.2660015003e+01      0.18889    0.1848021 -43.75  0.001149448    1.130    0.115
        36  -9.8725    197.7239    182.6001   8.7132092315e+01   5.7651145233e+00    0.3248178    0.1668992 -51.23  0.001346577    2.648    0.622
        37 -10.3373     12.6968    183.7820   1.2705153918e+02   3.4714399343e+01    0.2205285    0.1936506  -3.78  0.001349459    1.881    0.468
        38  -9.0226    148.3297    181.6564   9.7291509713e+01   1.5471208919e+01    0.1467321    0.1086113  76.21 0.0007050858    1.750    0.428
        39 -10.2555    204.5327    176.0133   8.4476015716e+01   5.5644716742e+00    0.3121408    0.2221252 -24.16  0.001039204    1.472    0.321
        40 -10.6002     77.5173    176.3231   1.1243246753e+02   2.8752687497e+01    0.4349884     0.159916  53.18  0.001653035    3.011    0.668
        41  -9.5432     60.2051    177.3528   1.1645877654e+02   3.0902855374e+01    0.2897011    0.1084675  56.07  0.001142852    3.036    0.671
        42 -10.1187    107.4698    176.4916   1.0559965104e+02   2.3980924867e+01    0.2628873    0.1108694  49.85  0.001037456    2.351    0.575
        43 -10.0265     56.2641    188.1220   1.1847406915e+02   2.9055161879e+01    0.2653242    0.1188636  58.69  0.001243438    2.246    0.555
        44  -9.0768     45.3457    172.6575   1.1925405394e+02   3.3773120224e+01    0.1375498   0.07704797  69.57  0.000704612    1.791    0.442
        45 -10.2120    122.8904    170.6743   1.0107525911e+02   2.2512390557e+01    0.3905104    0.2085565  62.11  0.001333526    2.532    0.605
        46  -9.5924    208.0088    170.4447   8.2653389279e+01   5.8259803127e+00    0.2160635    0.1303944  40.19 0.0006992935    1.583    0.368
        47  -9.7719     55.7030    170.3479   1.1666687482e+02   3.3044960597e+01    0.2154004    0.1244986  69.05  0.001098405    1.795    0.443
        48  -9.9472    101.5614    167.2074   1.0549327596e+02   2.7027239928e+01    0.5821197    0.1307902  46.34   0.00167422    4.466    0.776
        49  -9.6767    140.0246    165.9776   9.6252425516e+01   2.0267511866e+01    0.2433921    0.1771483  77.25  0.001134238    1.784    0.440
        50 -10.0974     80.9059    164.9974   1.1007038034e+02   3.0808266593e+01    0.4580269    0.2423358  78.38  0.001780093    3.005    0.667
        51  -9.4848     38.4772    164.9895   1.2000386833e+02   3.6267573793e+01    0.1762884   0.08624009  80.44 0.0007498079    2.331    0.571
        52  -9.8292     70.6995    163.7386   1.1232680329e+02   3.2570231887e+01    0.2131064   0.08914062  48.18 0.0008976081    2.354    0.575
        53  -9.5245      9.5210    161.3893   1.2612386585e+02   3.9820667714e+01    0.2489002    0.1129062  72.39  0.001276804    2.186    0.543
        54 -10.3109     93.6786    161.2055   1.0640650943e+02   2.9687556978e+01    0.3410012    0.1605037  53.09  0.001393081    2.294    0.564
        55  -9.8253     63.3618    161.6047   1.1379025431e+02   3.4057565198e+01    0.2592756   0.08125683  48.12 0.0009524417    3.254    0.693
        56  -9.1626    148.4749    163.9793   9.3927804424e+01   1.9014616442e+01    0.1979367    0.1305154 -77.00 0.0008073887    2.368    0.578
        57  -9.0264     24.0019    160.3312   1.2282959076e+02   3.8783570512e+01    0.1985106    0.0468125  50.16 0.0007051741    4.354    0.770
        58 -10.2753    106.7258    158.7258   1.0280826542e+02   2.8055565108e+01    0.4762976     0.210061  54.79  0.001743004    2.761    0.638
        59  -9.7788    120.4331    156.5317   9.9069747004e+01   2.6070855932e+01    0.3624713    0.2210077  76.74  0.001390496    2.713    0.631
        60 -10.5553     50.9143    156.1462   1.1607778197e+02   3.6885035285e+01    0.4545932    0.1674204  53.14  0.001800437    3.105    0.678
        61 -10.0314    213.2235    155.6373   7.8473774311e+01   7.3102593341e+00    0.2574717    0.1739468  34.17  0.000834836    1.478    0.323
        62 -10.5481     83.1049    155.6567   1.0810417574e+02   3.2632516074e+01    0.4437684    0.1849511  57.11  0.001563179    3.329    0.700
        63 -10.3495     69.5096    154.7155   1.1133001678e+02   3.4828512163e+01    0.4555449    0.1852286  49.51  0.001862971    2.576    0.612
        64  -9.9757    134.4354    154.1172   9.5221139713e+01   2.3909869943e+01    0.3123559    0.1905868  60.37   0.00131129    1.957    0.489
        65  -9.9102     99.8594    151.7507   1.0325517622e+02   3.0838950059e+01      0.31944    0.1574005  50.09  0.001317848    2.102    0.524
        66  -9.2937     92.4561    152.5028   1.0524549411e+02   3.1895090348e+01    0.2659271    0.1153178  49.23  0.001038105    2.408    0.585
        67  -9.7124     29.2566    150.8553   1.2067333850e+02   4.0442305294e+01     0.298041    0.1338324  70.90  0.001296192    2.806    0.644
        68  -8.8563    229.7278    149.3135   7.4018973366e+01   5.0905727943e+00    0.1314197    0.1106438 -60.60 0.0002764449    1.555    0.357
        69 -10.4865     41.0309    148.4502   1.1753859807e+02   3.9799775162e+01    0.5119275    0.1820923  53.38   0.00200866    3.359    0.702
        70 -11.0472    109.1883    146.6463   9.9941754070e+01   3.0384454502e+01     0.774042    0.3751934  62.24  0.002556487    3.500    0.714
        71 -10.9703     57.2156    146.6136   1.1323684019e+02   3.8353238568e+01    0.6043774    0.2687587  60.93  0.002350576    3.135    0.681
        72 -10.5749    150.0916    146.0070   8.9782361144e+01   2.2464006037e+01     0.522917    0.3322482  79.06  0.001888732    2.968    0.663
        73  -9.4122     78.8174    147.6212   1.0787433685e+02   3.5163225484e+01    0.2037224    0.1168012  50.22  0.000949625    1.786    0.440
        74  -9.5688     14.0803    146.6847   1.2386352350e+02   4.2743944241e+01    0.2100065   0.08599268  38.49  0.001079065    2.497    0.600
        75 -10.4293    126.3898    144.1842   9.5120651387e+01   2.7700602041e+01    0.5068164    0.2932329  71.65  0.001754791    3.172    0.685
        76 -10.8647     89.5001    144.7237   1.0462101253e+02   3.4196068285e+01    0.4768464    0.2115916  51.41  0.001848541    2.536    0.606
        77  -9.0752      3.3399    142.6587   1.2603475610e+02   4.4468031052e+01    0.1250701    0.0677172  69.84 0.0007049514    1.771    0.435
        78  -9.7459     72.4587    142.4414   1.0865790635e+02   3.7315122123e+01    0.4363331    0.1190877  48.35  0.001317809    4.545    0.780
        79 -10.2612     24.2841    138.9867   1.2060027191e+02   4.3651309149e+01    0.4401655    0.1838704  62.61  0.001873611    3.107    0.678
        80 -10.0479     39.5864    136.6057   1.1638915714e+02   4.2740696846e+01    0.3042106    0.1683697  57.44  0.001282396    1.986    0.496
        81 -10.0306    114.3525    134.4567   9.6093354964e+01   3.2247863128e+01    0.4433085    0.2129458  56.93  0.001556151    2.812    0.644
        82 -11.3248     84.9687    132.6901   1.0356320346e+02   3.7774110665e+01    0.6067055    0.2864527  52.52  0.002244653    2.512    0.602
        83 -10.0768    144.7135    132.9636   8.8084925880e+01   2.6420082762e+01    0.3956501     0.186527  54.37  0.001389496    2.495    0.599
        84 -10.7718    133.8791    132.7803   9.0718021700e+01   2.8747368341e+01     0.508442    0.2702852  59.71  0.001839418    2.544    0.607
        85  -9.6056    153.8710    130.5493   8.5307333392e+01   2.4947741240e+01     0.301259    0.2096408 -83.70  0.001189683    2.310    0.567
        86 -11.3060    101.6134    129.3919   9.8373724759e+01   3.5770070409e+01    0.7621592    0.3657874  51.84  0.002926106    2.404    0.584
        87 -10.0487     13.6753    130.3480   1.2234785814e+02   4.6525728491e+01    0.3141773    0.1586817  64.36  0.001623378    2.212    0.548
        88 -10.9577     74.1316    130.1560   1.0604346103e+02   4.0015193588e+01     0.383614    0.1752217  47.25  0.001555761    2.377    0.579
        89 -10.6919    120.6593    126.8791   9.2732062953e+01   3.2768433943e+01     0.760819    0.2947489  53.73  0.002311318    3.577    0.720
        90 -11.3749     61.1758    125.6455   1.0882375891e+02   4.2865076765e+01    0.6447191    0.3241406  62.56  0.002544011    2.996    0.666
        91 -11.3441     45.5317    124.2592   1.1297729246e+02   4.5050763700e+01    0.7987593    0.3903871  68.51  0.003114149    3.356    0.702
        92 -10.9698     29.9923    123.6358   1.1719660378e+02   4.6746651980e+01    0.7897556    0.3375613  66.00  0.002930155    4.034    0.752
        93  -9.4916    181.0236    125.6888   7.7971445668e+01   1.9818514901e+01    0.2497849    0.1299263  68.74 0.0007044364    4.241    0.764
        94 -10.8880    143.5714    120.3980   8.5290070020e+01   2.9405860910e+01    0.5973204    0.3357738  53.60  0.001878514    1.928    0.481
        95 -10.2371     72.3639    120.7730   1.0472645595e+02   4.2521830950e+01    0.4237465    0.2126486  53.99  0.001737364    2.513    0.602
        96 -10.1523    132.5955    119.9809   8.7956931664e+01   3.1873526856e+01    0.4702814    0.2508494  59.62  0.001688271    2.527    0.604
        97 -10.0921      3.7858    118.0979   1.2363841980e+02   5.0027955124e+01    0.3299421    0.1606723  64.75  0.001702496    2.388    0.581
        98 -10.9559    111.0976    115.9434   9.2679009619e+01   3.7153649326e+01    0.6062721    0.3673918  67.88  0.002300355    2.588    0.614
        99 -11.1481     80.9430    114.2131   1.0085598533e+02   4.2814325900e+01    0.6913047    0.3954741  65.19  0.002725841    2.745    0.636
       100 -11.4399     95.2640    113.8737   9.6629056939e+01   4.0539649459e+01    0.7463576    0.3448318  46.26  0.002910795    2.338    0.572
       101  -9.9935    123.8015    113.5718   8.8635422469e+01   3.5152976612e+01    0.4522062    0.2131182  51.10   0.00164276    2.350    0.574
       102 -11.2486     68.1550    111.9493   1.0414341003e+02   4.5225493447e+01    0.5302631     0.287461  53.34  0.002121271    2.292    0.564
       103 -10.4823     14.6714    110.9075   1.1978063866e+02   5.0971474715e+01    0.3745688    0.2090304  84.65  0.001987076    1.925    0.481
       104  -9.7296    134.8878    110.5769   8.4940370549e+01   3.3455214993e+01     0.373347    0.1460229  53.89  0.001138328    3.231    0.690
       105 -11.4567     47.3894    103.9008   1.0882401605e+02   4.9710012291e+01    0.8834418    0.4254051  61.84  0.003251954    3.897    0.743
       106 -11.3140     24.0143    103.5406   1.1596015422e+02   5.1994425767e+01      0.73871    0.3383847  65.49  0.002901769    3.872    0.742
       107 -10.2124    141.4224    105.9422   8.2022654495e+01   3.3002743082e+01    0.4926233    0.2567351  62.19  0.001665626    2.811    0.644
       108  -9.5885    151.3715    104.5460   7.9180156730e+01   3.1011296168e+01    0.3863086     0.235896  80.12  0.001229759    3.475    0.712
       109 -10.5369    130.7129    103.4456   8.4102006919e+01   3.5920492783e+01    0.5391639    0.2793425  53.42  0.002029659    2.159    0.537
       110  -9.9125      7.5406    103.6704   1.2090513522e+02   5.3116731155e+01    0.2591715    0.1305027  61.27  0.001313685    2.525    0.604
       111 -11.4844    111.9728    100.8721   8.8525066357e+01   4.0407034788e+01     0.957298    0.4493736  59.07  0.002999709    3.643    0.726
       112 -10.5500     84.2379    101.4546   9.6856480077e+01   4.5296032523e+01    0.4702077    0.2424331  49.83  0.001928933    2.316    0.568
       113 -11.3446     65.9669     97.3865   1.0155244099e+02   4.8969826279e+01    0.7487692    0.3801753  51.34  0.003134323    2.602    0.616
       114 -10.7869     97.7181     97.9982   9.1888492091e+01   4.3771781613e+01    0.6411504    0.2261778  41.44  0.002186444    2.980    0.664
       115 -10.1915    140.4072     93.5440   7.8781925371e+01   3.5834783023e+01     0.439896    0.2644286  69.27  0.001594684    2.561    0.610
       116 -10.6810    127.3368     92.3909   8.1863782119e+01   3.9025784474e+01    0.7616678    0.3407311  55.19  0.002574758    2.773    0.639
       117 -10.2512      7.3594     92.8353   1.1947668390e+02   5.5614746592e+01    0.4810341    0.1543516  31.46   0.00223297    3.477    0.712
       118 -10.8426     35.9981     90.7008   1.0982682622e+02   5.3963531623e+01    0.4844743    0.3329323  61.93  0.002317615    1.867    0.464
       119 -11.3750     89.0258     88.0603   9.1790322793e+01   4.7542553158e+01    0.7705756    0.3514516  52.78  0.002742288    3.130    0.681
       120 -11.0917     50.8546     86.2387   1.0384031880e+02   5.3449385080e+01    0.6698308     0.327009  53.33  0.002704517    3.258    0.693
       121 -10.8432    107.5470     85.0500   8.5262425675e+01   4.4742986264e+01    0.7387426    0.3785836  57.29  0.002686153    2.746    0.636
       122  -9.8062    143.0047     84.2944   7.5381467801e+01   3.7087680304e+01    0.4309568     0.198532  57.96  0.001464811    2.614    0.617
       123 -10.5460     25.8516     81.8130   1.1144159263e+02   5.6880320048e+01    0.4676936    0.2458932  53.56  0.002241699    2.784    0.641
       124 -10.3129     10.4067     81.9058   1.1675545471e+02   5.7922709652e+01    0.4271149    0.2201675  31.93  0.002395111    2.356    0.576
       125 -10.6918     75.7173     81.6766   9.4254382056e+01   5.1133223016e+01    0.3616718    0.2346062  60.51  0.001561834    2.252    0.556
       126  -9.0184    151.6639     81.3410   7.2386841175e+01   3.5573300746e+01    0.1659072    0.1252434 -75.74 0.0007050728    1.760    0.432
       127  -9.4395    121.1539     81.6738   8.0327688994e+01   4.2600276871e+01    0.3117735    0.1420115  54.24  0.001084463    2.614    0.617
       128 -10.2228    130.5549     76.9953   7.6311793784e+01   4.1425007281e+01    0.5679428    0.2679464  58.18  0.001971707    2.661    0.624
       129  -9.2619    142.4511     76.4992   7.3117709575e+01   3.8722344565e+01    0.2887578      0.15491  63.10  0.001041149    2.398    0.583
       130 -10.7416     84.0907     74.2596   8.9255667040e+01   5.1374008382e+01     0.584822    0.3908164  73.02  0.002407465    2.820    0.645
       131  -9.5240    117.1979     73.9811   7.9000907192e+01   4.4997906571e+01     0.279076     0.198912  61.59  0.001173139    1.683    0.406
       132  -9.7839     43.4768     73.5004   1.0322311424e+02   5.7132109604e+01    0.2182807    0.1733159  75.78 0.0009198503    1.700    0.412
       133  -9.3220      8.3818     73.6681   1.1598887648e+02   5.9885461693e+01    0.3293254    0.1149046  46.98  0.001263669    4.996    0.800
       134  -9.9086    107.4235     72.9994   8.1521916810e+01   4.7251521665e+01    0.4044316    0.2070196  55.13  0.001538038    2.462    0.594
       135 -10.3290     96.5463     72.6526   8.4735646017e+01   4.9466071031e+01    0.3814377    0.2918427  80.71  0.001784329    1.986    0.496
       136 -10.5864     53.0569     71.0228   9.9060189719e+01   5.6590613742e+01    0.5229773    0.3702672  67.72  0.002646993    2.226    0.551
       137 -10.3146     17.4048     70.9555   1.1218186464e+02   5.9935519956e+01    0.2791171    0.1709101  53.61  0.001542908    2.291    0.563
       138  -9.2805    140.3704     67.6225   7.0799596058e+01   4.0858516917e+01    0.2990913    0.1475876  66.97 0.0009541492    3.220    0.689
       139  -9.6159    123.7645     67.3727   7.5006945835e+01   4.4803630961e+01    0.4272507    0.1965284  54.51  0.001555308    2.415    0.586
       140 -10.2074     39.2874     65.5356   1.0262850969e+02   5.9301498556e+01    0.5240018    0.2411257  44.27  0.002331263    3.022    0.669
       141  -8.9281     10.6370     66.3143   1.1371603546e+02   6.1379785145e+01    0.1141996   0.08446936  73.88 0.0007040992    1.760    0.432
       142  -9.9141    112.2050     65.0952   7.7483734389e+01   4.7778295552e+01    0.4426652    0.2006695  55.84   0.00156435    2.803    0.643
       143  -9.9515    102.0134     61.8798   7.9416545479e+01   5.0501542140e+01    0.3767557    0.2455474  71.59   0.00150529    2.726    0.633
       144 -10.9320     75.9557     60.7714   8.7596261240e+01   5.5476966413e+01     0.660572    0.3144199  49.17  0.002665412    2.772    0.639
       145 -10.0212     26.9882     60.5300   1.0602630214e+02   6.1494962444e+01    0.3677461     0.159754  42.40   0.00166284    3.260    0.693
       146 -10.3309      8.8800     58.3535   1.1265901612e+02   6.3200787866e+01    0.4090954    0.2013441  44.87  0.002099473    2.995    0.666
       147  -9.8599    121.1974     57.2941   7.2265486730e+01   4.7191910980e+01    0.4443239    0.2129496  60.91  0.001574453    2.792    0.642
       148 -10.2807     55.4515     55.6600   9.3375798514e+01   5.9495944297e+01    0.3787094    0.2777033  84.52  0.001831836    2.659    0.624
       149 -10.1789     45.8774     56.6706   9.7428646821e+01   6.0459977482e+01    0.3860428    0.2183858  54.02  0.001707964    3.172    0.685
       150 -10.4920     64.3692     55.7233   9.0028391684e+01   5.8253351702e+01    0.4161602    0.2351887  41.05   0.00202051    2.016    0.504
       151  -9.5880    108.2467     55.1676   7.5168203047e+01   5.0420833476e+01    0.3491689    0.2011492  64.70  0.001351189    2.663    0.625
       152 -10.6993     94.3266     51.9201   7.8250774103e+01   5.3836905113e+01    0.5999931     0.310686  54.83  0.002439034    2.481    0.597
       153 -10.5711     33.2201     52.7906   1.0129012295e+02   6.2566918517e+01     0.465037    0.2534424  42.52  0.002383988    2.494    0.599
       154  -9.8786     22.2901     53.7174   1.0605895514e+02   6.3302696852e+01    0.3514824    0.1249881  26.57   0.00162052    3.200    0.688
       155  -9.3990    113.9587     48.1381   7.0974542925e+01   5.0353809039e+01    0.2375135    0.1794105  89.04  0.001089037    2.030    0.507
       156 -10.3738     83.8397     47.8836   8.0194551665e+01   5.6520411081e+01    0.4662721    0.2287778  51.96  0.001906428    2.625    0.619
       157  -9.3423    124.0059     46.9988   6.7862553130e+01   4.8232399049e+01    0.2344528    0.1863161 -74.11  0.001135221    1.690    0.408
       158 -10.1593     46.8048     45.5432   9.3265677915e+01   6.2549674048e+01    0.3063588    0.1786839  35.40  0.001630722    1.962    0.490
       159 -10.2333     19.0697     46.0457   1.0520274680e+02   6.5116647244e+01    0.3850142     0.139364  27.81  0.001831405    3.154    0.683
       160  -8.9197    134.2360     44.2362   6.4345224758e+01   4.6198444520e+01    0.2363148    0.1262295  68.59 0.0008852324    2.451    0.592
       161 -10.1220     71.3502     42.8006   8.2642693324e+01   5.9560006658e+01    0.5125012    0.2738129  55.59  0.002090376    3.188    0.686
       162 -10.0153     59.3113     43.6295   8.7533458809e+01   6.1260475316e+01    0.3177483    0.2466223  71.27  0.001674508    2.315    0.568
       163 -10.3045      6.3289     43.0086   1.0990946336e+02   6.6535209217e+01    0.3486457    0.2590748  52.80  0.002315112    1.979    0.495
       164  -9.6983    107.3745     42.6904   7.0800931563e+01   5.2666051869e+01    0.3027827    0.2235764  81.59  0.001404998    2.105    0.525
       165  -9.8298     38.0329     41.6874   9.5546628698e+01   6.4275773784e+01    0.2543653    0.1861581  49.02  0.001176184    1.997    0.499
       166 -10.0702     97.2784     39.4952   7.2568266931e+01   5.5294981224e+01    0.3423446    0.2372409  88.16  0.001401352    3.089    0.676
       167  -9.6446     82.6389     38.3188   7.6846405268e+01   5.8336563863e+01    0.2907112    0.2226702  77.96  0.001437837    2.273    0.560
       168 -10.1672     27.6145     37.0893   9.8467818948e+01   6.6172600659e+01    0.3062703     0.148029  37.44  0.001563252    2.678    0.627
       169  -9.6728    113.2243     36.1313   6.6656485171e+01   5.2338431256e+01    0.2766325    0.1989276  88.95  0.001248054    2.235    0.553
       170  -9.0545    105.5997     35.7838   6.8635536085e+01   5.4084484419e+01    0.1979148    0.1273255 -40.28 0.0009414158    1.668    0.400
       171 -10.2893     62.6081     33.8628   8.2318270034e+01   6.2452010810e+01    0.4291172    0.2204315  49.95   0.00191946    2.759    0.638
       172 -10.3488     51.1115     33.7361   8.6901781778e+01   6.4133206961e+01    0.3202369    0.2140149  52.37  0.001684201    2.358    0.576
       173 -10.1108     74.7932     32.6910   7.7263060091e+01   6.0628094759e+01    0.4391779    0.2018654  50.44  0.001852725    2.696    0.629
       174  -8.9762    222.3169     31.9591   4.5957575570e+01   2.5329348037e+01    0.2477562   0.05756607 -46.65 0.0007044428    4.404    0.773
       175  -9.8382     13.4689     31.5295   1.0307832993e+02   6.8349274773e+01    0.1765425    0.1561333  88.21 0.0008979713    1.689    0.408
       176  -9.5874    103.3225     30.3285   6.7111232585e+01   5.5341214487e+01    0.2928686    0.1747388  58.41  0.001353973    1.862    0.463
       177 -10.0722     83.4477     29.0440   7.2714566087e+01   5.9582445611e+01    0.3949926    0.2786739  83.45  0.001723227    3.154    0.683
       178  -9.3161    120.9735     34.0000   6.3831544419e+01   5.0840702742e+01    0.2455554   0.07904954  55.87 0.0008101967    2.996    0.666
       179  -9.8828     93.2030     27.7526   6.9043338693e+01   5.7828125176e+01    0.3571445    0.2463355  77.14   0.00163652    2.524    0.604
       180  -9.8186      4.2792     28.1551   1.0640097842e+02   6.9554320142e+01    0.1812794     0.138364  51.78 0.0009454028    2.073    0.518
       181  -8.9225    106.0219     23.5179   6.3595714068e+01   5.5621917771e+01    0.1888812    0.1258957  85.30 0.0008104099    2.613    0.617
       182 -10.4831     51.0419     22.3467   8.1961778491e+01   6.5970567603e+01    0.4343127    0.1981687  42.69  0.002067888    2.558    0.609
       183 -10.3892     64.8928     21.6852   7.6079022347e+01   6.3930556733e+01    0.3133947    0.2300473  51.28  0.001797516    1.753    0.429
       184  -8.9874     20.9371     22.4549   9.5962476555e+01   6.9409819491e+01     0.140366   0.09479584  47.73 0.0008084654    2.541    0.606
       185 -10.2904     75.9084     20.4158   7.1486242918e+01   6.2170338257e+01    0.4246148    0.2423799  56.08  0.002036466    2.261    0.558
       186  -9.0545     12.4755     21.5149   9.9852021697e+01   7.0249613986e+01    0.1169013   0.08626761 -31.79  0.000809978    1.009    0.009
       187  -9.5772     40.4292     19.1127   8.5130225965e+01   6.7880651080e+01    0.2202433    0.1580777  44.98    0.0013286    1.972    0.493
       188  -9.7693     89.8718     18.1889   6.5953067238e+01   5.9723380540e+01    0.3341729    0.1844052  61.74  0.001512223    2.318    0.569
       189  -9.8606     98.5248     16.0608   6.2522977435e+01   5.8139437658e+01     0.256855    0.1928366  72.89   0.00136926    1.730    0.422
       190  -9.1346     17.9605     14.4894   9.4008328624e+01   7.1005000838e+01    0.1338379   0.09442665  46.99 0.0008090726    2.480    0.597
       191  -9.5763     40.9051     12.9364   8.1932181881e+01   6.8726275034e+01    0.2003081    0.1356008  -9.88  0.001224912    1.325    0.245
       192  -9.5414     84.7322     11.4312   6.4491328748e+01   6.1533751184e+01    0.2423772    0.1258899  57.39  0.001130348    2.137    0.532
       193 -10.9423    165.8093    248.8537   1.0400295243e+02   1.1687658081e+00    0.2555987    0.1383596  33.13  0.001290516    1.635    0.389
       194  -9.0629     48.3241     10.6550   7.7482236264e+01   6.8004905372e+01    0.1084162   0.09688614 -50.58 0.0007050311    1.738    0.425
       195 -10.2290    245.6676    247.4296   8.9778614941e+01  -1.0783744663e+01    0.2970995    0.1353935  33.87  0.001705251    1.752    0.429
       196  -9.4511    107.2398    248.6235   1.1458798504e+02   1.0353877947e+01    0.1638809   0.09268673  36.95 0.0009285011    1.677    0.404
