#   1 NUMBER                 Running object number                                     
#   2 MAG_AUTO               Kron-like elliptical aperture magnitude                    [mag]
#   3 X_IMAGE                Object position along x                                    [pixel]
#   4 Y_IMAGE                Object position along y                                    [pixel]
#   5 X_WORLD                Barycenter position along world x axis                     [deg]
#   6 Y_WORLD                Barycenter position along world y axis                     [deg]
#   7 A_WORLD                Profile RMS along major axis (world units)                 [deg]
#   8 B_WORLD                Profile RMS along minor axis (world units)                 [deg]
#   9 THETA_WORLD            Position angle (CCW/world-x)                               [deg]
#  10 FWHM_WORLD             FWHM assuming a gaussian core                              [deg]
#  11 ELONGATION             A_IMAGE/B_IMAGE                                           
#  12 ELLIPTICITY            1 - B_IMAGE/A_IMAGE                                       
         1 -14.1787      2.5202     72.6553   1.1932851050e+02   5.8954102295e+01       1.8819     0.336747 -69.98  0.006658715    4.455    0.776
         2 -13.3697    195.9781     33.4725   5.5317723532e+01   3.2132054851e+01     1.173156    0.5329841  43.86  0.004355661    2.467    0.595
         3 -12.6887    215.2082     10.7146   4.6135878554e+01   2.9775828871e+01    0.6799493    0.6096536 -59.09  0.003173855    1.086    0.079
         4 -12.1396    208.2983     20.2567   4.9674432971e+01   3.0512327707e+01    0.3897008    0.2949513  26.29  0.001044499    1.578    0.366
         5 -14.5285    244.4388    235.2597   9.3464144600e+01  -7.4644160453e+00     2.053649    0.9952027 -23.20   0.01185551    2.469    0.595
         6 -12.2127    100.8191    248.1824   1.1825511368e+02   1.3639285720e+01    0.5532981    0.4022009  50.40   0.00385628    1.249    0.200
         7 -13.3293    170.5323    228.4454   1.0469399383e+02   5.5120505563e+00     1.717436    0.5689591  45.89  0.007751111    2.379    0.580
         8 -13.2259    165.8183    211.7361   1.0322156076e+02   8.7102350555e+00     1.473076    0.8238226 -60.24  0.007640128    2.530    0.605
         9 -12.2863    121.9716    240.6756   1.1421379759e+02   1.1627148069e+01    0.7282087    0.5027031  34.39  0.004879319    1.734    0.423
        10  99.0000    107.1004    220.0401   1.1460362035e+02   1.7100453260e+01     2.180238     1.691963  55.59   0.01294735    1.129    0.114
        11 -14.6205    148.0915    218.4081   1.0727093060e+02   1.0763299780e+01     1.415674     1.276688  70.41  0.008419547    1.157    0.136
        12 -13.0466    137.2776    248.3995   1.1252845096e+02   8.1879677483e+00    0.5453477    0.3727931  56.86  0.002640882    1.148    0.129
        13 -13.4649    126.9584    248.2327   1.1415493544e+02   9.7910478637e+00    0.7881026    0.4524353  39.72  0.004014703    1.665    0.399
        14 -10.9685     74.0626    248.5477   1.2236369858e+02   1.7220408445e+01      0.54993    0.2944253  51.45   0.00364891    1.411    0.291
        15 -13.4584     24.5064    214.9415   1.2779866673e+02   2.8532621695e+01     1.388975     0.658625  67.40  0.009335316    1.655    0.396
        16 -14.5846     41.8879    224.1575   1.2565068820e+02   2.5069507505e+01     2.272347    0.9377259  77.80   0.01262654    2.553    0.608
        17 -14.9437     39.9736    244.6774   1.2712666855e+02   2.1953600837e+01     1.771466    0.3876423  57.58  0.008173546    3.802    0.737
        18 -11.5915     57.8975    201.3241   1.2135974757e+02   2.7201758100e+01      0.61232    0.3664258 -50.56  0.003693429    2.522    0.603
        19 -11.5861     52.8158    199.8752   1.2212198549e+02   2.8087017693e+01     0.582576    0.2483749 -65.24  0.003321142    2.260    0.557
        20 -13.8555    201.4553    183.5790   9.2130506747e+01   6.3442690616e+00     2.830681     1.451867 -22.45   0.01185398    3.043    0.671
        21 -13.4379    205.2871    192.6245   9.3056474692e+01   4.3000360666e+00     2.031116     1.041166  18.17  0.007082259    4.443    0.775
        22 -16.1106     16.0296    243.5861   1.3043727213e+02   2.4679769200e+01     1.882597    0.5556312  56.45   0.01164062    2.299    0.565
        23 -10.1407     22.8328    193.8242   1.2680295888e+02   3.2492488463e+01    0.2983958    0.1903892  54.02  0.001577451    1.418    0.295
        24 -10.0592     30.7840    196.4361   1.2563680593e+02   3.1197921044e+01    0.5882084    0.2672046  84.64  0.003385176    2.047    0.512
        25 -11.8979     33.5697    190.3581   1.2472954629e+02   3.2041240459e+01    0.5635869    0.2642504  82.57  0.002717929    2.018    0.504
        26 -10.1070      6.1822    200.1722   1.2987597783e+02   3.2907791940e+01    0.1413076    0.1026383  86.94 0.0008652776    1.176    0.150
        27 -14.6134    154.9212    245.0572   1.0932585562e+02   5.8593312314e+00     4.016001    0.9734775  42.79   0.01619802    3.362    0.703
        28  -9.1748     15.3895    197.2428   1.2824174085e+02   3.2586196548e+01    0.2922123    0.0772955  43.99  0.001562518    2.967    0.663
        29 -12.2000    111.2132    241.6363   1.1603955007e+02   1.3099975923e+01    0.7308473    0.3876539  65.82  0.004404733    1.867    0.464
        30  -9.8372      6.7146    184.3587   1.2893938075e+02   3.5758487175e+01     0.256478    0.2057126  70.56  0.001301311    1.277    0.217
        31 -13.2083      2.3127    123.0544   1.2537999239e+02   4.8340747013e+01     1.042683    0.2556783 -76.80  0.004414754    3.292    0.696
        32 -15.1732     18.8948    147.3987   1.2403524468e+02   4.2001290954e+01       1.9254      1.44003  79.95   0.01065111    1.117    0.105
        33 -13.3736     43.2715    142.3003   1.1834470301e+02   4.0735755115e+01    0.9607351    0.7042699  74.18  0.004471444    1.249    0.199
        34 -12.5997    183.7657    186.7605   9.5981165189e+01   9.2527496490e+00    0.7163232    0.5283917  60.29   0.00403192    1.451    0.311
        35 -11.4223    170.8494    186.6839   9.8406335639e+01   1.1724736049e+01    0.5333552    0.4132136   8.59  0.002979794    1.733    0.423
        36  99.0000     69.4673    188.3228   1.1807823199e+02   2.8173188642e+01    0.4698839    0.3416122  20.88  0.002831427    2.402    0.584
        37 -11.1265     67.4938    184.9382   1.1810390176e+02   2.9086204058e+01    0.3794094    0.2840307  28.48  0.002224213    1.947    0.486
        38 -13.1049    107.3139    177.8768   1.0950602495e+02   2.4660321724e+01      1.66431     1.056443  49.63  0.009112521    1.434    0.303
        39  -9.8599     53.4739    188.5332   1.2103998931e+02   3.0144219322e+01    0.1707623    0.1087074  29.16  0.001028307    2.338    0.572
        40 -13.3801     30.6793    159.2469   1.2272880486e+02   3.8471299253e+01     1.045994     0.827158   8.35  0.007262892    2.209    0.547
        41 -10.7485     72.8573    177.6395   1.1629546161e+02   2.9811828202e+01    0.2814309    0.2323373 -85.95 0.0009873182    1.131    0.116
        42 -12.9282     70.5500    164.8041   1.1525886394e+02   3.2721894482e+01    0.7106557    0.4078707  51.34  0.001920798    1.646    0.392
        43 -12.6084     77.9085    173.4018   1.1480764013e+02   2.9969520693e+01    0.8857092    0.4797776  52.64  0.004149274    1.698    0.411
        44 -11.1719     81.0500    167.9762   1.1350230631e+02   3.0629282257e+01    0.3237521    0.2396055  66.19 0.0008449074    1.210    0.173
        45 -12.4351    192.4627    201.3874   9.6850207144e+01   5.4258831412e+00     1.016722    0.7307178  21.82  0.005917316    1.530    0.346
        46 -13.3656    150.8061    168.3287   9.9182805880e+01   1.8771469387e+01      1.16469    0.9319148  46.20     0.006668    1.163    0.140
        47 -10.7186     32.0109    170.1276   1.2342275043e+02   3.6137195208e+01    0.2807626     0.207547  76.68  0.001509572    1.085    0.079
        48 -14.8477    191.3312    159.2225   8.9343202350e+01   1.2249834813e+01     1.880297     1.411216 -20.36  0.009841091    1.557    0.358
        49 -14.2515    184.2686    144.3887   8.7617430257e+01   1.6327594462e+01     1.084918    0.8241762 -17.48  0.005434928    1.580    0.367
        50 -11.3855     59.9340    166.4953   1.1761325800e+02   3.3734726888e+01    0.4754423    0.4254164 -57.18  0.002857986    1.464    0.317
        51 -10.6611     54.7701    165.6007   1.1855305872e+02   3.4545416930e+01    0.2653965    0.1731126  72.54  0.001667264    1.385    0.278
        52 -11.6324    110.0346    165.0007   1.0707070805e+02   2.6768182323e+01    0.5618863    0.4563086 -85.38   0.00341835    1.182    0.154
        53 -14.4666    139.3826    145.7595   9.7377075268e+01   2.5365530475e+01     1.984278     1.459266 -51.68   0.01039157    1.400    0.286
        54 -12.5118     77.9570    151.4575   1.1193287079e+02   3.4512958188e+01     1.339616    0.6974753 -80.63  0.006291089    2.265    0.558
        55 -11.8316     69.2567    143.7516   1.1276196698e+02   3.7344382067e+01    0.6264138    0.3262777  71.77  0.002840783    2.617    0.618
        56 -10.8919     64.5087    141.9889   1.1358038507e+02   3.8336940328e+01    0.2922415    0.1704298 -64.07 0.0006516806    1.511    0.338
        57 -13.1915     89.6601    139.3863   1.0743431158e+02   3.5405246765e+01     1.118215    0.6330256 -52.62  0.005533571    1.747    0.428
        58 -10.2752     98.4971    129.2138   1.0353453722e+02   3.6232734540e+01    0.2614698    0.2181794  12.40  0.001005684    1.666    0.400
        59 -14.9432    165.9326    130.1854   8.8257791912e+01   2.2961047683e+01     1.945416     1.324773  58.53  0.009066079    1.561    0.359
        60 -12.0164     18.8951    179.0354   1.2650223448e+02   3.5669645287e+01     1.177713    0.6793476 -76.26  0.008228191    1.435    0.303
        61  -9.0902    107.7011    120.7331   9.9599432186e+01   3.6534535226e+01    0.1290396    0.1111202 -14.74 0.0002051953    1.519    0.342
        62 -12.1086     63.8284    107.8167   1.0818795674e+02   4.5956894320e+01    0.6719515    0.5677866 -88.28  0.004294897    1.154    0.133
        63 -12.3847     79.9853    126.5093   1.0750836503e+02   3.9651193878e+01    0.7988145    0.4831269 -51.12   0.00416881    1.624    0.384
        64 -11.2184     22.3181    109.4882   1.1917150365e+02   4.9780240389e+01    0.3911943    0.1947173 -51.62   0.00221689    1.928    0.481
        65 -12.6621     32.4129    107.1542   1.1628534072e+02   4.9438403285e+01    0.4916107    0.3690245  75.04  0.002411187    1.382    0.276
        66 -14.3869    134.0346    222.9017   1.1027449112e+02   1.2403729260e+01     1.621919    0.9896626 -74.29  0.009473579    2.168    0.539
        67 -10.0759      1.4460    215.9870   1.3133195185e+02   3.0575564390e+01    0.1682906   0.08171899 -70.54  0.001183719    2.015    0.504
        68  99.0000     59.2994    210.0253   1.2183332385e+02   2.5452619249e+01    0.5779101    0.2526988  69.08  0.003062196    2.402    0.584
