#   1 NUMBER                 Running object number                                     
#   2 MAG_AUTO               Kron-like elliptical aperture magnitude                    [mag]
#   3 X_IMAGE                Object position along x                                    [pixel]
#   4 Y_IMAGE                Object position along y                                    [pixel]
#   5 X_WORLD                Barycenter position along world x axis                     [deg]
#   6 Y_WORLD                Barycenter position along world y axis                     [deg]
#   7 A_WORLD                Profile RMS along major axis (world units)                 [deg]
#   8 B_WORLD                Profile RMS along minor axis (world units)                 [deg]
#   9 THETA_WORLD            Position angle (CCW/world-x)                               [deg]
#  10 FWHM_WORLD             FWHM assuming a gaussian core                              [deg]
#  11 ELONGATION             A_IMAGE/B_IMAGE                                           
#  12 ELLIPTICITY            1 - B_IMAGE/A_IMAGE                                       
         1 -16.4451     31.0329    131.9388   1.2270123232e+02   4.4683070236e+01     4.424678     3.114816  41.70   0.02933726    1.516    0.340
         2 -11.0018    187.5433     28.8183   5.6800731672e+01   3.4688082100e+01     0.711977    0.5876195  71.81  0.001745149    1.206    0.171
         3 -12.2616     34.4702      3.8221   8.9638463167e+01   7.1461496020e+01     2.537235     1.044109  20.43   0.01003988    4.289    0.767
         4 -10.1412     19.3264      2.2666   9.7122977213e+01   7.3307781078e+01    0.5075312    0.2866135  29.12  0.002812021    2.065    0.516
         5  -8.3816    211.9940      7.5204   4.7318021905e+01   3.0550629011e+01    0.2118213    0.1335318  74.85 0.0005089157    1.553    0.356
         6 -11.6871      3.9600      4.2265   1.0718553541e+02   7.4099556000e+01     1.752077     1.037885 -66.44   0.01083921    1.866    0.464
         7 -10.4086    203.6252      3.6391   4.7019922127e+01   3.3114345814e+01    0.6504887    0.3838019  85.13  0.003002784    1.753    0.429
         8 -11.0027     62.8413    212.7559   1.2296612201e+02   2.5264137094e+01    0.1399942    0.1031343  65.24 0.0004254688    1.019    0.019
         9 -14.0584    242.6568    226.3406   9.3192615140e+01  -3.7179664390e+00      3.21321     1.221844 -27.43   0.01720774    3.057    0.673
        10  99.0000    119.8050    233.2801   1.1468385518e+02   1.4290693211e+01     13.26543     2.493921  40.61   0.03683256    4.318    0.768
        11  99.0000     24.3740    214.0195   1.2973377227e+02   2.9323421676e+01     1.819023     1.230144  66.23   0.01467959    1.026    0.026
        12 -14.9535     79.8687    235.2448   1.2165126338e+02   1.9493639770e+01    0.8980373    0.3948984  35.75    0.0050736    2.344    0.573
        13 -14.0732     68.3584    230.5263   1.2325522816e+02   2.1676191190e+01    0.3590896    0.2335203  64.72  0.002683203    1.192    0.161
        14 -15.8216     72.2386    245.2451   1.2358165909e+02   1.8962152329e+01     1.102157    0.3448219  48.71  0.006174057    2.173    0.540
        15 -15.6249     63.1359    236.9512   1.2453831189e+02   2.1315808295e+01    0.9741133    0.3476437 -59.81  0.005442301    3.572    0.720
        16  -9.9395      7.8770    213.4362   1.3244981221e+02   3.0988626094e+01   0.09417672    0.0437708  79.88 0.0006244383    1.719    0.418
        17 -10.6445     83.9972    211.5189   1.1903592787e+02   2.2745284354e+01    0.3123973    0.1295878  39.78   0.00123845    2.100    0.524
        18 -11.5549     58.4409    199.3249   1.2276651039e+02   2.8150969964e+01    0.2271387    0.1413485  32.03  0.001434118    1.929    0.481
        19  -8.6409     53.9599    197.5276   1.2347128462e+02   2.9010509418e+01    0.2925208    0.2321715  -2.17  0.001916163    2.531    0.605
        20 -11.8107     59.5896    210.3098   1.2337249769e+02   2.6078736495e+01    0.2468324    0.1633804 -49.64   0.00161814    2.365    0.577
        21 -12.4509     62.2911    204.6702   1.2246163424e+02   2.6730656042e+01    0.3990504    0.1990431 -84.44  0.002344471    2.133    0.531
        22 -10.6843     41.2106    205.4214   1.2634602211e+02   2.9049357853e+01    0.2707169    0.1307624  63.80  0.001691022    1.707    0.414
        23  99.0000     40.0644    198.7064   1.2613401890e+02   3.0371029011e+01    0.3779645    0.1859645  79.04  0.002286425    1.913    0.477
        24 -11.4058     49.8430    197.0171   1.2420620532e+02   2.9582896977e+01    0.2637523    0.2043403  14.28  0.001793794    2.209    0.547
        25 -11.1624     45.2542    197.6586   1.2510689662e+02   2.9987796145e+01    0.1754586    0.1098631  50.44 0.0005289646    1.320    0.243
        26 -10.9964     17.2956    209.8050   1.3073843600e+02   3.0732943238e+01   0.09685069   0.04882079  58.36 0.0006623772    1.434    0.303
        27 -10.7968     54.0806    208.1888   1.2421483462e+02   2.7102763927e+01    0.1154179   0.08364566  71.60 0.0003370548    1.083    0.077
        28 -12.4884     76.7418    205.1901   1.1982375749e+02   2.4797116750e+01    0.2274218    0.1942037  86.78  0.001270243    1.236    0.191
        29 -10.5604     81.9529    202.6123   1.1861490544e+02   2.4549640992e+01    0.1521368    0.1254863  69.34 0.0007425377    1.093    0.085
        30  99.0000     16.5734    206.4582   1.3071495736e+02   3.1379436007e+01    0.0973498   0.07358506  73.56 0.0003661899    1.135    0.119
        31 -11.2642     48.8051    204.6173   1.2492548538e+02   2.8340688075e+01    0.1385154   0.09789386  52.31 0.0009031723    1.213    0.175
        32  99.0000     13.7614    201.7253   1.3099165407e+02   3.2470127225e+01    0.2675541    0.1123779  42.22  0.001728131    1.967    0.491
        33 -10.9289      7.1803    202.3623   1.3214949615e+02   3.2952428029e+01   0.08603492   0.05813263 -76.99 0.0006654916    1.544    0.352
        34  -9.2948     90.0298    196.7595   1.1649985740e+02   2.4461839122e+01    0.1670124    0.1348893  68.67 0.0004762876    1.059    0.055
        35  99.0000     20.3069    197.2103   1.2962911101e+02   3.2659115406e+01   0.07965626    0.0733132  67.43 0.0004423139    1.462    0.316
        36  -9.9423     20.4565    193.8367   1.2943173561e+02   3.3255109959e+01    0.1239103   0.08145408 -87.91 0.0003251895    1.313    0.239
        37 -10.8115     27.0838    194.3778   1.2825407882e+02   3.2509744247e+01    0.1794041    0.1217506 -66.95  0.001312863    1.698    0.411
        38  -6.1335     62.7529    194.5274   1.2156428934e+02   2.8493590560e+01    0.1075742   0.07972559  80.74 0.0004347058    1.167    0.143
        39 -11.3124     57.7775    193.6877   1.2245027904e+02   2.9256242537e+01    0.1524485    0.1084832  66.48 0.0004774051    1.099    0.090
        40 -10.6639     43.6299    192.2328   1.2503787752e+02   3.1162098326e+01    0.3450629   0.09320027  42.40  0.001671554    2.767    0.639
        41 -11.9641     46.5075    190.5729   1.2437162112e+02   3.1148162001e+01    0.2169628    0.1507963  82.52  0.001259889    1.207    0.172
        42 -11.5832     49.4386    189.4780   1.2372669461e+02   3.1018658903e+01    0.2141753     0.123207  77.77  0.001344602    1.576    0.366
        43  -9.9783      1.7785    192.7822   1.3271475199e+02   3.5115660401e+01    0.1601453   0.04503026  43.39 0.0009077121    2.516    0.603
        44  -9.0834     35.0600    189.5067   1.2647736893e+02   3.2591867747e+01    0.1906809   0.09334507  37.56 0.0008156225    1.993    0.498
        45  -7.5054     93.4781    187.9709   1.1488088359e+02   2.5551799708e+01    0.1640127   0.09110446  82.30 0.0008084528    2.414    0.586
        46  -9.9096     33.1530    183.8226   1.2647207059e+02   3.3858120672e+01    0.2983417    0.1140482  44.19  0.001673839    2.126    0.530
        47  99.0000     28.4627    183.4758   1.2735297470e+02   3.4398689931e+01    0.2646004    0.1506792  43.48   0.00177581    1.605    0.377
        48 -11.3729     43.3160    183.1693   1.2444528447e+02   3.2899414387e+01      0.14733    0.1186077  72.42 0.0004328839    1.093    0.085
        49 -10.6610     16.2421    182.5100   1.2962250556e+02   3.5744866154e+01     0.110747    0.0843062  63.14 0.0002103106    1.155    0.134
        50 -11.1411     50.5856    180.2144   1.2276794682e+02   3.2646028507e+01    0.1495566    0.1181258  72.15 0.0003238678    1.034    0.033
        51 -10.6165     19.2846    179.8167   1.2889751734e+02   3.5975399645e+01    0.1125393   0.08982733  75.36 0.0002845507    1.138    0.121
        52 -10.2142    235.3868    177.3438   8.6157921762e+01   2.6444429053e+00    0.2506454    0.2162527 -19.65  0.000972356    1.306    0.234
        53  -9.8256    236.8289    173.1368   8.5129919741e+01   2.9010623391e+00    0.2030491    0.1681283 -27.77 0.0009172536    1.386    0.279
        54 -12.6181     91.6951    225.5004   1.1886297549e+02   1.9430814435e+01     1.015911    0.5271997 -66.19  0.006393918    2.258    0.557
        55  -7.1906     85.6718    177.8293   1.1533309159e+02   2.8580687531e+01    0.2271754    0.1442795 -86.68  0.001308083    1.690    0.408
        56  -9.6953     88.9858    171.4822   1.1388230897e+02   2.9332737943e+01    0.4489796    0.2921043 -36.15  0.002254861    2.612    0.617
        57 -13.8329     89.9690    247.4946   1.2087266628e+02   1.6385135278e+01    0.7023502    0.1838405  52.71  0.003227285    3.250    0.692
        58  -9.5811     43.0403    174.2853   1.2381514385e+02   3.4650491466e+01    0.1028986   0.08243025  72.14 0.0002432551    1.066    0.062
        59  -9.4585     39.8093    172.1354   1.2430661144e+02   3.5423692900e+01    0.1326282    0.1053824  76.06 0.0009667791    1.052    0.050
        60  -9.4472    175.3302    172.2802   9.6091876793e+01   1.4325094920e+01    0.2558816    0.2417582  45.08 0.0007802411    1.119    0.107
        61  -7.8211    196.7249    170.5575   9.1701312954e+01   1.0554584428e+01    0.1699056    0.1160344  50.61 0.0003491639    1.466    0.318
        62  -7.8510     99.2940    169.3192   1.1139214236e+02   2.8205304865e+01    0.1127257    0.1010406 -14.49 0.0002876604    1.608    0.378
        63  -8.4761    157.1164    168.2846   9.9023179049e+01   1.8399437514e+01     0.322754    0.1581972  41.80  0.001036447    1.821    0.451
        64  -9.5432    204.6197    165.1321   8.9217750842e+01   9.8452875887e+00    0.2302543    0.1890061  35.75 0.0003159023    1.092    0.084
        65  -9.9530     95.9887    163.6405   1.1134555556e+02   2.9832943184e+01    0.4200148    0.2303481  72.00  0.001128461    2.470    0.595
        66 -10.7516     81.7939    223.2917   1.2041477002e+02   2.1107880734e+01    0.1421392     0.103061  57.05 0.0002969146    1.033    0.032
        67  -7.8085    104.1877    133.1404   1.0459396731e+02   3.4818858695e+01    0.1765833    0.1425551  70.89  0.000375965    1.237    0.192
        68  -8.5363    161.4177    127.8303   9.0094592284e+01   2.4802195156e+01    0.3701465    0.2603909 -80.06  0.001618459    2.256    0.557
        69  -7.6276    165.6749    116.2910   8.6473534653e+01   2.6018666593e+01    0.1472136    0.1184673  89.25 0.0002772083    1.615    0.381
        70  -7.7288    161.8385    111.8468   8.6229299029e+01   2.7697667188e+01    0.1951253    0.1725841 -85.98            0    1.307    0.235
        71  -7.0515    117.2772    109.3367   9.6339729450e+01   3.7542381376e+01    0.1411016    0.1150657 -14.41 0.0007000476    1.611    0.379
        72  -7.4725    215.9621    108.7737   7.4764624988e+01   1.5968523592e+01     0.179348     0.116318  48.96 0.0003140222    1.537    0.349
        73  -9.0148     99.2336    156.9086   1.0966718305e+02   3.0680778402e+01    0.2222737    0.1728844   9.54  0.000898704    2.008    0.502
        74  -8.7561    196.7013    107.1094   7.7855947200e+01   2.0590977510e+01    0.2743853    0.2013189  39.85 0.0004696823    1.345    0.256
        75  -8.0284    170.1405    158.1679   9.4535847029e+01   1.7624387153e+01    0.1831293    0.1586107  71.12 0.0004844613    1.324    0.245
        76  -7.6038    181.1024    104.8405   8.0353507472e+01   2.4577844333e+01    0.2020611    0.1695748  19.46  0.001021603    1.278    0.218
        77  -7.3946    167.0070     99.9741   8.2055039153e+01   2.8721894647e+01    0.1802034     0.170732  42.36            0    1.034    0.033
        78  -7.9386    122.7665     95.7635   9.1547111237e+01   3.9312101256e+01    0.2043628    0.1713567  77.44  0.001018973    1.350    0.259
        79  -8.4312    222.7670     93.3817   6.9757310410e+01   1.6746346595e+01    0.3104658    0.1852178 -24.58 0.0002971053    1.681    0.405
        80  -7.9707    112.8718     88.6585   9.2312512343e+01   4.2778124133e+01    0.1950199    0.1831412  58.58 0.0005794205    1.087    0.080
        81  -8.5874    182.5229    138.4792   8.8022704025e+01   1.8444581355e+01    0.1424361    0.1316299  31.43 1.116385e-05    1.005    0.005
        82  -7.9235    104.9480    154.1603   1.0795664704e+02   3.0320288439e+01    0.2090293    0.1566723  63.78   0.00116211    1.272    0.214
        83  -7.9916     80.8889     78.0988   9.8899126904e+01   5.0729763324e+01    0.2957757    0.1743402 -28.94  0.001254618    2.437    0.590
        84  -8.9769    168.8423     72.2274   7.3812688726e+01   3.3199350238e+01    0.2997738    0.2028015  36.11 0.0006980607    1.620    0.383
        85  -7.8490    126.1209     66.8054   8.2204649264e+01   4.4380846803e+01    0.2030262    0.1759883   6.48 0.0004136214    1.291    0.225
        86  -8.3299    119.5184     66.0360   8.3742138020e+01   4.5975744764e+01     0.204519    0.2016526 -27.84  0.000370007    1.019    0.018
        87  -8.7242    124.0237     58.0071   7.9850974848e+01   4.6478349824e+01    0.2201151    0.2121035 -31.90 0.0003275889    1.032    0.031
        88  -9.3130    109.6233     57.3089   8.3638400062e+01   4.9732197767e+01     0.252926    0.2476797 -79.25  0.000307388    1.104    0.094
        89 -12.0845    170.6240     49.2089   6.6247416622e+01   3.6420536760e+01     1.934751    0.8564977  40.20  0.006543254    2.759    0.638
        90 -11.5937    184.0606     34.3143   5.9088737301e+01   3.4930472274e+01     1.057937    0.6300011  59.75  0.003848844    1.619    0.382
        91 -11.6946     73.0541    221.0000   1.2176837692e+02   2.2611657408e+01    0.2667004    0.1059367  46.74 0.0007230371    1.876    0.467
        92  -7.7409    149.1807     31.1908   6.4298035606e+01   4.4576882972e+01    0.2083946     0.176481 -67.38 0.0004352173    1.347    0.257
        93 -12.0281     76.0000    218.9828   1.2109481785e+02   2.2563235547e+01    0.2047163    0.1373439 -74.73  0.001202244    1.625    0.385
        94 -10.9291      7.7898    220.8268   1.3272555378e+02   2.9767843190e+01    0.1632713    0.0606476  52.51  0.001074917    1.815    0.449
        95 -11.0646     68.2801    213.5598   1.2205189537e+02   2.4452131770e+01    0.1433402    0.1112273  85.95 0.0002160604    1.240    0.194
        96 -12.0264     69.7848    208.5558   1.2138936811e+02   2.5115988009e+01     0.173305    0.1364051  76.27   0.00040593    1.129    0.115
