#   1 NUMBER                 Running object number                                     
#   2 MAG_AUTO               Kron-like elliptical aperture magnitude                    [mag]
#   3 X_IMAGE                Object position along x                                    [pixel]
#   4 Y_IMAGE                Object position along y                                    [pixel]
#   5 X_WORLD                Barycenter position along world x axis                     [deg]
#   6 Y_WORLD                Barycenter position along world y axis                     [deg]
#   7 A_WORLD                Profile RMS along major axis (world units)                 [deg]
#   8 B_WORLD                Profile RMS along minor axis (world units)                 [deg]
#   9 THETA_WORLD            Position angle (CCW/world-x)                               [deg]
#  10 FWHM_WORLD             FWHM assuming a gaussian core                              [deg]
#  11 ELONGATION             A_IMAGE/B_IMAGE                                           
#  12 ELLIPTICITY            1 - B_IMAGE/A_IMAGE                                       
         1  -9.5963     40.7676     14.0701   7.1463307102e+01   6.8026751520e+01    0.1663648    0.1276627   1.29 0.0002095869    1.064    0.060
         2  -9.6697     92.6759    238.3427   1.0744811253e+02   1.2490468932e+01    0.2076071    0.1261296  62.27  0.001102872    1.750    0.429
         3  -9.5190     84.8248    233.8239   1.0860007701e+02   1.4486663418e+01    0.1802708    0.1294622  64.09 0.0006503614    1.331    0.249
         4  -9.8133     78.4281    233.7047   1.0992298139e+02   1.5401218537e+01    0.2231777    0.1196519 -74.61  0.001134572    2.132    0.531
         5  -9.4253    145.7813    233.5733   9.5679067120e+01   5.2885208549e+00    0.1929402      0.10621  44.83 0.0007162915    1.702    0.412
         6 -10.2171     92.5126    230.9700   1.0666534107e+02   1.3952006392e+01    0.1797003    0.1248238 -67.91  0.001029318    1.581    0.368
         7 -10.1599     72.7508    227.9843   1.1053360340e+02   1.7329991668e+01    0.2675201    0.1617172 -79.76   0.00129503    1.807    0.447
         8 -10.6461    162.2105    224.4273   9.0835205967e+01   4.2795840239e+00    0.4773463    0.3205085 -51.84  0.002573822    1.769    0.435
         9 -10.1228     98.8520    226.0288   1.0472470738e+02   1.4004693399e+01    0.3877554    0.1650327  40.43  0.001735989    2.018    0.505
        10  -9.4136     49.3538    226.6659   1.1528446683e+02   2.0606605901e+01    0.1360446   0.07318161  63.21 0.0007044814    1.790    0.441
        11  -9.4828    120.3161    227.6745   1.0028645970e+02   1.0392992230e+01    0.1352592   0.09421363  63.97 0.0004872389    1.670    0.401
        12 -10.3348    184.2693    223.8709   8.6182630148e+01   8.5068371319e-01    0.2382251     0.163747  39.66  0.001324778    1.423    0.297
        13 -10.2987    149.0686    222.5695   9.3338725382e+01   6.7478879321e+00     0.354461    0.2276303 -70.01  0.001682492    2.443    0.591
        14 -10.3487    114.5500    223.2863   1.0095158800e+02   1.2151662343e+01    0.2326559    0.1335881 -64.41  0.001124315    2.071    0.517
        15  -9.3543     19.0000    224.0045   1.2116394118e+02   2.4532693529e+01    0.1840031   0.05689727 -76.18 0.0008063579    2.970    0.663
        16 -11.3187    125.7119    221.0146   9.8187091181e+01   1.0830600966e+01    0.3437245    0.2705007  -3.34 0.0008266926    1.636    0.389
        17 -10.6584    193.7988    222.0260   8.3955037259e+01  -3.3707863217e-01    0.2389627    0.1570958  44.17  0.001188812    1.669    0.401
        18 -10.9536     84.7687    226.9377   1.0786638548e+02   1.5874661601e+01    0.2388273    0.1669912  80.40  0.001346834    1.571    0.363
        19 -10.0308     83.1511    219.9011   1.0742473631e+02   1.7557438387e+01    0.2105601    0.1568017  66.12 0.0007494112    1.298    0.229
        20 -10.1896     74.1754    219.3869   1.0932967356e+02   1.8922742196e+01    0.2708009    0.1617593  60.15  0.001409807    1.664    0.399
        21  -9.7563      7.3314    220.6712   1.2321988152e+02   2.6353332087e+01    0.1252707   0.06227978  64.00 0.0007051685    1.716    0.417
        22  -9.7849    136.0238    218.9794   9.5623272857e+01   9.5556660227e+00    0.2133144    0.1584525  66.46 0.0009862161    1.679    0.404
        23  -9.4480     28.6608    219.3426   1.1893201511e+02   2.4502470827e+01    0.1328365   0.06902391  64.28 0.0007049213    1.773    0.436
        24 -10.3976    143.9662    216.8284   9.3551863840e+01   8.6625700576e+00    0.2708254    0.2119134 -67.83   0.00105774    1.599    0.375
        25  -9.4921     39.4699    224.5151   1.1712752385e+02   2.2219025359e+01       0.1231   0.09575249  68.84 0.0001903591    1.047    0.045
        26  -9.5824     61.8382    217.0070   1.1176364949e+02   2.1077273537e+01     0.216188    0.1235802  74.45  0.001050498    1.974    0.493
        27 -10.0347    199.4843    215.5308   8.1698664421e+01  -1.6607840548e-01    0.1320766     0.112766   6.98  6.42378e-05    1.011    0.011
        28  -9.9708    154.8207    215.2957   9.0942932572e+01   7.1499474839e+00    0.2207318    0.1595998  48.77  0.001051104    1.441    0.306
        29 -10.4397    131.7448    213.2147   9.5694699849e+01   1.1389897878e+01    0.3104753    0.1928612 -55.53  0.001188063    1.800    0.444
        30 -10.3121     76.9571    213.0556   1.0801008478e+02   1.9889522734e+01    0.3108488    0.1879825 -78.45   0.00158754    1.819    0.450
        31  -9.2892    106.6738    212.3222   1.0121435274e+02   1.5621933631e+01    0.1424655   0.09699474  65.64 0.0007047978    1.686    0.407
        32 -10.7992    177.4983    210.4918   8.5290579331e+01   4.2472765054e+00    0.2842964    0.2152003  55.02  0.001174863    1.663    0.399
        33 -10.5387    116.8511    210.2122   9.8602747047e+01   1.4440027657e+01    0.3518019    0.2499746  73.85  0.001316567    1.793    0.442
        34 -10.2146    148.1982    209.5597   9.1451355973e+01   9.3557784764e+00    0.2651514    0.2213859  74.42  0.001470612    1.521    0.343
        35 -10.0547    206.7898    208.6351   7.9027206104e+01  -1.8163535251e-01    0.1827864    0.1152891  41.65 0.0007430759    1.693    0.409
        36 -10.4815    139.6805    207.4540   9.3005762882e+01   1.1213740302e+01    0.2737386    0.1755003 -67.27  0.001277684    2.109    0.526
        37 -10.1176    126.7071    208.1436   9.6049066364e+01   1.3251017852e+01       0.2142    0.1765256  89.92   0.00118169    1.460    0.315
        38 -12.1319    173.0325    191.5287   8.2786083274e+01   8.5389955851e+00     0.383988    0.3361805  65.44  0.001190491    1.434    0.303
        39 -13.1046    164.9136    202.2083   8.6515148784e+01   7.9111712381e+00    0.7368532    0.5862715  80.92  0.003805796    1.896    0.473
        40 -13.2379    162.7967    193.8617   8.5466255881e+01   9.9022951213e+00    0.7741845    0.5159474  59.67  0.003365115    2.052    0.513
        41 -13.5110    177.1695    197.6391   8.3042782277e+01   6.6523472109e+00    0.7541521    0.6264693 -59.87  0.004190609    1.511    0.338
        42 -10.4840     99.3271    205.8022   1.0199550490e+02   1.8159324754e+01    0.3724055    0.2302187 -87.83  0.001690005    2.265    0.558
        43  -9.8875      6.3280    206.6656   1.2260793994e+02   2.9401764323e+01    0.1276834   0.06544786  65.06 0.0003922235    1.721    0.419
        44 -11.7423    186.1203    204.6152   8.2445902496e+01   3.8570543743e+00    0.3184052    0.2461071  37.68  0.001437115    1.289    0.224
        45 -10.0477     56.3561    204.9256   1.1174320063e+02   2.4424101908e+01    0.2466812    0.1145569 -80.03  0.001079116    2.438    0.590
        46 -10.2118    198.8183    204.6246   7.9866171886e+01   1.7623089742e+00    0.1876226    0.1185619  43.60 0.0009476111    1.711    0.416
        47 -11.2385    131.0448    202.9901   9.4242012663e+01   1.3587263649e+01    0.3899706    0.2365463 -67.09  0.001758834    2.171    0.539
        48 -10.7718    140.6351    200.5869   9.1649625454e+01   1.2440397614e+01    0.3536414    0.2579657  82.72  0.001678182    2.073    0.518
        49  -9.5669     79.7241    200.7243   1.0588484246e+02   2.2215858800e+01    0.2754329    0.1548533  86.96  0.001171671    2.520    0.603
        50 -12.6120    149.3148    197.4004   8.9126364160e+01   1.1576910303e+01    0.6248674    0.3779759 -64.90  0.002684385    2.348    0.574
        51 -10.7179     88.4773    197.6026   1.0340780632e+02   2.1632494650e+01    0.5370551    0.2361604 -66.97  0.002169188    2.573    0.611
        52 -12.1661    124.7630    197.3376   9.4777774881e+01   1.5845288771e+01    0.4437866    0.4054299 -63.84  0.001940231    1.168    0.144
        53 -11.7389    112.6750    196.3899   9.7476355184e+01   1.8077703104e+01    0.5219114    0.3134099 -66.59  0.002398265    1.944    0.486
        54  -9.9280     13.2590    197.2614   1.2055582807e+02   3.0837203131e+01    0.1965267   0.08209854  88.19 0.0008962222    2.429    0.588
        55 -10.9500    193.8149    196.1463   7.9292742512e+01   4.0717887569e+00    0.1989417    0.1961488  28.02 0.0009080412    1.256    0.204
        56 -10.3670    132.9654    195.4882   9.2551842276e+01   1.4830205065e+01    0.2647952    0.2088955 -78.90  0.001005212    1.577    0.366
        57 -12.4692    186.4582    193.2895   8.0266119484e+01   5.8494745065e+00    0.3957348    0.3129955 -50.48  0.001594519    1.464    0.317
        58 -10.2348     66.2185    193.5123   1.0817325141e+02   2.5738430682e+01    0.4257317    0.2070107 -79.86  0.001785823    2.502    0.600
        59 -13.0807    172.6874    195.9613   8.3692347710e+01   7.7500157295e+00    0.4684313    0.4677335 -74.72  0.002596525    1.188    0.158
        60 -10.4179    102.7680    192.8932   9.9303033688e+01   2.0470673798e+01    0.3205158    0.1898261 -67.79  0.001445187    1.910    0.477
        61  -9.9830     77.8686    191.4042   1.0510806624e+02   2.4609331098e+01    0.4623695    0.1366878 -54.07  0.001622207    3.313    0.698
        62  -9.8361     43.5548    193.0252   1.1344452168e+02   2.8675791339e+01     0.269195       0.1444  84.79  0.001271463    2.084    0.520
        63 -11.7788    204.6803    188.3424   7.5608714802e+01   3.6194872968e+00    0.2606738      0.21359 -67.69  0.001409442    1.813    0.448
        64 -11.1470    200.0774    191.6429   7.7165565921e+01   3.8137221872e+00    0.2371492     0.187268 -43.36  0.001217118    1.376    0.273
        65 -12.2914    139.2308    188.6114   8.9882051527e+01   1.5188611178e+01    0.6297588    0.3225947 -56.17  0.002600618    2.223    0.550
        66 -10.6800    210.4467    189.2311   7.4655718341e+01   2.4995839603e+00    0.1859951    0.1247435 -46.99 0.0009500184    1.678    0.404
        67 -11.2750    192.6434    188.1551   7.7995082589e+01   5.7189263430e+00    0.2720753    0.2246768  68.62  0.001127275    1.748    0.428
        68 -12.1001    156.2192    186.1675   8.5503353047e+01   1.2634578461e+01    0.6525029    0.2503507 -47.81   0.00238776    2.712    0.631
        69 -13.1495    147.7675    178.9978   8.6082969674e+01   1.5689212486e+01    0.8510866    0.4322327 -48.49  0.003515246    2.030    0.507
        70 -11.3459    129.4784    187.8003   9.2043924162e+01   1.7091944629e+01    0.4527059    0.3045591 -58.32  0.002166934    1.618    0.382
        71 -10.9580     86.7815    188.1446   1.0248209806e+02   2.4052661888e+01    0.3491357    0.1882994 -74.75   0.00148197    2.253    0.556
        72 -11.9187    165.5598    185.8320   8.3338054213e+01   1.1002774173e+01    0.4925095    0.3200736 -59.89  0.002241407    1.990    0.497
        73 -12.0578    120.4776    183.6220   9.3481874014e+01   1.9591837557e+01    0.9170203    0.2886316 -56.43   0.00292075    3.578    0.721
        74 -11.5306     94.9630    184.1843   9.9866688127e+01   2.3709561726e+01    0.7318757    0.2961684 -62.56  0.002744888    2.686    0.628
        75 -10.2830    217.4929    187.5042   7.2972100088e+01   1.6377021549e+00    0.1353772    0.1175544  -8.11 -3.186823e-05    1.018    0.017
        76 -11.1334    109.0661    184.8327   9.6484015422e+01   2.1265163664e+01    0.5170142    0.3131206 -76.65  0.002187738    2.269    0.559
        77 -10.0064     54.5374    186.0925   1.1008803895e+02   2.8980639599e+01    0.3259566    0.1572683 -89.93  0.001290442    2.849    0.649
        78  -9.9258     34.3956    187.1966   1.1499604478e+02   3.1044037932e+01    0.1891879    0.1057664 -88.54  0.000951835    1.758    0.431
        79 -11.7216     14.7380    184.9969   1.1931542472e+02   3.3480323352e+01    0.4023679     0.356362  29.41  0.002195684    1.407    0.289
        80 -11.5993    183.0876    183.4744   7.9068113016e+01   8.2884665028e+00    0.3325806    0.1991777 -39.54  0.001552624    1.665    0.399
        81  -9.8796     74.2896    183.4474   1.0490027794e+02   2.6982560766e+01    0.3590266    0.1282611 -70.19  0.001199161    3.530    0.717
        82  -9.3302     66.2905    184.6566   1.0704148130e+02   2.7800188859e+01    0.1439506   0.09511089  71.28  0.000474703    1.654    0.395
        83 -10.4726     83.3551    181.4408   1.0234707743e+02   2.6138743385e+01    0.2752936    0.1752006 -68.05 0.0009569303    1.597    0.374
        84  -9.9943     44.1790    181.7702   1.1210502153e+02   3.1239886749e+01    0.2903051   0.09735652 -76.63  0.001002334    3.541    0.718
        85 -12.4878    174.5328    183.6295   8.0935636693e+01   9.8068703788e+00    0.3997617    0.3747766 -40.34  0.001861537    1.156    0.135
        86 -11.7226    138.2863    178.7744   8.8287657822e+01   1.7483720630e+01    0.4707704    0.3055684 -57.24  0.001607342    1.696    0.410
        87 -11.4280    192.6279    177.7939   7.5935462931e+01   7.6481489425e+00    0.2945327    0.2680647 -64.61  0.001472779    1.375    0.273
        88 -10.9486    204.9159    177.7396   7.3450338812e+01   5.4753207837e+00    0.2573792    0.1888334 -66.12  0.001239767    2.137    0.532
        89 -10.6654    129.2519    176.6885   9.0081551444e+01   1.9590840438e+01    0.3824646    0.2417896 -68.97  0.001631038    2.078    0.519
        90 -11.4802    183.1301    175.8780   7.7532751068e+01   9.7473391292e+00    0.3217074    0.3146815 -57.38  0.001206933    1.193    0.162
        91 -10.2841     88.6082    176.0343   1.0018342940e+02   2.6624128220e+01    0.3159928    0.1347028 -60.08  0.001228256    2.334    0.572
        92 -10.9616     77.4333    175.1678   1.0291154700e+02   2.8508785606e+01    0.4675839    0.3607772 -87.37  0.002059582    1.340    0.254
        93 -10.0470     59.6792    176.2744   1.0759499812e+02   3.0673184127e+01    0.2751664    0.1616317 -89.63  0.001257004    1.993    0.498
        94  -9.8805     12.9665    176.2508   1.1901484685e+02   3.5662857399e+01    0.3453155    0.1525133  74.15  0.001531935    2.600    0.615
        95 -11.7746    159.8900    174.5703   8.2398747886e+01   1.4358748090e+01    0.5156325    0.2885044 -56.22  0.002122551    2.159    0.537
        96 -10.7975    105.5651    174.1010   9.5530566600e+01   2.4337901003e+01    0.4171082    0.2494197 -65.16  0.001831111    1.846    0.458
        97  -9.6208     23.4173    174.2197   1.1635455144e+02   3.5202104974e+01    0.1878079    0.1038315 -89.02 0.0009520385    1.721    0.419
        98 -10.2654      2.9078    172.9465   1.2108768942e+02   3.7245330474e+01    0.4005252    0.1273335  86.88  0.001374239    4.300    0.767
        99 -11.3529    142.2861    171.9091   8.5995800312e+01   1.8247730074e+01    0.3377201    0.2105332 -46.60  0.001129759    1.632    0.387
       100  -9.6320     34.3204    172.9946   1.1356317235e+02   3.4414354337e+01    0.2191256   0.08945704  84.61 0.0007046895    4.261    0.765
       101 -11.9571    177.3309    170.6779   7.7708969971e+01   1.1857162064e+01    0.4230317     0.286934 -55.27  0.001833011    1.733    0.423
       102 -11.4000    134.8577    170.4761   8.7515311196e+01   1.9954618153e+01    0.4368982    0.2711239 -53.00  0.001870607    1.674    0.403
       103 -11.8930    122.2428    167.5924   9.0092896987e+01   2.2932854440e+01    0.7480831    0.4202238 -54.71  0.003168231    1.834    0.455
       104 -11.2349    206.3065    169.5584   7.1498319300e+01   6.7203883754e+00     0.276211    0.2152214 -61.27  0.001428972    1.706    0.414
       105 -12.0927    168.2779    168.1673   7.9184022598e+01   1.4092547264e+01    0.5412171    0.2787529 -50.83  0.002180124    2.122    0.529
       106 -12.0711    149.8652    168.0623   8.3410264595e+01   1.7650863074e+01    0.5804648    0.3168166 -54.42  0.002365761    2.042    0.510
       107  -9.8809     54.8325    168.9639   1.0786590171e+02   3.3059283933e+01    0.3419756    0.1679782  87.02  0.001253636    3.196    0.687
       108 -11.3642    211.2362    167.9425   7.0210421941e+01   6.1364543822e+00    0.3412041    0.2431531 -84.68  0.001417964    3.173    0.685
       109 -10.0593     88.5240    167.7733   9.8851062380e+01   2.8622062943e+01    0.3488941     0.143868 -62.45  0.001282008    2.545    0.607
       110 -11.3543    192.4740    164.9625   7.3303684281e+01   1.0123782513e+01    0.5210899    0.1862143 -46.30  0.001802615    2.920    0.658
       111 -10.2533    185.4872    166.9869   7.5188264420e+01   1.1046790598e+01    0.2255902     0.139736 -42.73   0.00102975    1.591    0.371
       112 -12.4739    139.4090    163.3878   8.4970112925e+01   2.0684327002e+01    0.7647011    0.4219976 -57.80  0.003064762    2.095    0.523
       113  -9.9420    111.6206    166.1904   9.2539412154e+01   2.5158258701e+01    0.4045494    0.1859356 -59.00   0.00151484    2.365    0.577
       114 -10.5173     99.1003    165.3232   9.5642186091e+01   2.7506043269e+01    0.3873893    0.2551024 -69.49  0.001768286    1.678    0.404
       115 -11.6971    159.6171    163.2311   8.0117382203e+01   1.6804251742e+01      0.50006    0.2710267 -52.46  0.002028096    2.026    0.506
       116 -10.3801     79.5415    163.1800   1.0046604895e+02   3.1112708272e+01    0.5182441    0.2690051 -88.07  0.001694932    3.803    0.737
       117  -9.3341     19.3127    165.6496   1.1653429644e+02   3.7620868706e+01    0.1362931   0.08071963  69.29 0.0004754977    1.723    0.420
       118  -9.5838     37.5189    164.0428   1.1173458607e+02   3.6247842707e+01    0.1983287   0.09976636  82.01 0.0008098948    2.604    0.616
       119 -10.5153    213.2323    163.6174   6.8926571655e+01   6.5640743221e+00     0.192661    0.1281075  29.24 0.0009506032    1.623    0.384
       120  -9.8130     69.4988    161.9794   1.0296904774e+02   3.2852066556e+01     0.367312    0.1400923 -66.93  0.001311297    2.796    0.642
       121 -11.4453    205.4960    161.0397   6.9862907102e+01   8.4419871888e+00    0.3775347    0.1324505 -40.92  0.001352402    2.686    0.628
       122 -12.3696    177.7713    159.0225   7.5136137835e+01   1.4124373112e+01    0.5937198    0.3189969 -48.46  0.002462322    1.941    0.485
       123 -10.2455      9.0001    160.4373   1.1860802213e+02   3.9719497923e+01    0.3609993    0.1320969  84.06  0.001275885    3.930    0.746
       124 -12.7755    168.0598    154.9754   7.6400223661e+01   1.6881857557e+01    0.9078223    0.3650745 -40.41  0.003202218    2.534    0.605
       125 -10.3136    128.3794    158.1648   8.6644527237e+01   2.3972755220e+01    0.3815994    0.2694687 -60.93  0.001750505    1.546    0.353
       126 -11.8822    196.6337    156.2954   7.0593820950e+01   1.1005234137e+01    0.4290247    0.2684835 -50.03  0.001962376    1.727    0.421
       127 -10.8057    105.4891    156.5763   9.2301296071e+01   2.8521369433e+01    0.5375142     0.327609 -66.17  0.002286654    1.868    0.465
       128 -11.2527    188.2135    156.5540   7.2374554593e+01   1.2579526779e+01    0.2926043    0.2018468 -41.25  0.001183868    1.403    0.287
       129  -9.9346    218.7605    156.0424   6.6296925153e+01   6.9395483965e+00    0.2007373    0.1650481 -27.69 0.0003858316    1.094    0.086
       130 -11.2269    157.7614    155.1614   7.8807919025e+01   1.8900087630e+01    0.3729669    0.2555309 -49.56  0.001563444    1.495    0.331
       131 -11.0709    119.3734    154.1358   8.8131883966e+01   2.6601062073e+01    0.5567876      0.28866 -55.23  0.002202018    1.995    0.499
       132 -11.7069    151.6141    159.8658   8.1278660380e+01   1.9096425914e+01    0.4681475    0.2936758 -51.49  0.001965923    1.665    0.399
       133 -10.7618    144.6785    154.0064   8.1686708401e+01   2.1757050881e+01    0.3774386    0.3026577 -49.84  0.001540939    1.262    0.208
       134 -10.5155     81.3909    153.4924   9.8288009033e+01   3.3219852065e+01    0.4346864    0.2522749 -72.04  0.001847064    1.965    0.491
       135 -10.2594     49.1098    154.2229   1.0734733491e+02   3.7382046050e+01    0.4000464    0.2181959 -83.82  0.001749763    2.118    0.528
       136 -11.3048    133.2810    151.2500   8.3927431133e+01   2.4621778612e+01    0.6139303    0.3573392 -52.00  0.002563548    1.753    0.429
       137 -10.1139     67.4121    153.0514   1.0209674894e+02   3.5351896156e+01    0.3708945    0.2266832  84.93   0.00157365    2.250    0.556
       138 -11.0743    182.3057    150.1134   7.2193634429e+01   1.5030519794e+01    0.4362155     0.197218 -45.90  0.001657003    2.208    0.547
       139 -12.3510    190.2531    148.9657   7.0273937240e+01   1.3675982397e+01    0.5958622    0.2767668 -44.93  0.002339104    2.114    0.527
       140 -10.5925     92.5466    159.0452   9.6246460896e+01   3.0101830777e+01    0.5221241    0.2685878 -61.68  0.001963939    1.997    0.499
       141 -10.4949    162.4252    149.8538   7.6544242029e+01   1.9099932560e+01    0.3980489    0.2590466 -61.24  0.001452351    1.952    0.488
       142 -10.3339     98.4949    148.8580   9.2668130377e+01   3.1596211855e+01    0.4684259    0.1406918 -53.81  0.001459904    3.170    0.684
       143  -9.7219     90.6743    149.5297   9.4968581692e+01   3.2735088309e+01    0.2774788      0.13404 -57.35  0.001091121    2.013    0.503
       144 -11.7994    199.9955    147.4357   6.7974525161e+01   1.2056927409e+01     0.487165    0.2131644 -37.82  0.001884564    2.199    0.545
       145 -12.1290    196.9432    142.8902   6.7556855548e+01   1.3533079070e+01    0.4108117    0.3498668  37.33 0.0005179519    1.231    0.188
       146 -10.3380     39.2086    147.2533   1.0910577593e+02   4.0211312667e+01    0.3525068    0.1815299  77.37  0.001395861    2.887    0.654
       147 -12.5081    149.2103    141.9487   7.7867560267e+01   2.3520245429e+01     1.016642    0.4295507 -45.74   0.00361427    2.342    0.573
       148 -10.9713     55.6766    143.5592   1.0385102784e+02   3.9253053974e+01    0.8596527    0.3470562 -69.54  0.003190255    2.656    0.624
       149 -10.8649    175.5175    145.5173   7.2618497672e+01   1.7340389323e+01    0.3206963      0.14562 -42.99  0.001157502    2.143    0.533
       150 -11.4202    106.7705    142.4806   8.9053161462e+01   3.1688737632e+01    0.9186574      0.36855 -54.93  0.003193245    2.534    0.605
       151  -9.5402     77.6837    145.5245   9.7868557609e+01   3.5753794459e+01    0.2736756    0.1283781 -59.22  0.001085724    2.024    0.506
       152  -9.8900     13.2629    146.1538   1.1610761675e+02   4.2829810019e+01    0.2448962    0.1314795  57.07  0.001233204    2.063    0.515
       153 -11.3031    165.6583    143.0124   7.4242526101e+01   1.9891450176e+01    0.4692804    0.2830141 -37.86   0.00180526    1.670    0.401
       154 -10.6078    138.2178    143.5179   8.0952870635e+01   2.5407101498e+01    0.3406229    0.2515519 -30.26  0.001558633    1.498    0.332
       155 -11.4205    124.6711    140.7222   8.3818227428e+01   2.8738044986e+01    0.8582928    0.3435217 -54.76  0.002834858    2.792    0.642
       156 -10.5810     87.9394    141.4351   9.4136832568e+01   3.5170306942e+01    0.6955831    0.2085666 -55.41  0.002197102    3.136    0.681
       157 -11.1687    182.0548    140.7456   7.0115571603e+01   1.6972833190e+01     0.436254    0.2165159 -44.95  0.001729252    1.972    0.493
       158 -10.1057      2.5451    141.3730   1.1849439389e+02   4.4741467483e+01    0.3552472    0.1335606  87.35  0.001349091    3.391    0.705
       159 -10.3355     68.2919    137.1673   9.9025809972e+01   3.9191749279e+01     0.572211    0.2437636 -68.17  0.002034292    2.782    0.641
       160 -10.5804     23.2820    138.0220   1.1237111073e+02   4.4010044917e+01    0.4496402    0.2112866  70.65  0.001753976    3.275    0.695
       161  -9.7391    142.5882    148.3672   8.0955437381e+01   2.3435464350e+01    0.3065807    0.1496259 -52.07  0.001140151    2.165    0.538
       162 -11.0073    197.6242    133.1844   6.5202395458e+01   1.5268609213e+01    0.3341277    0.1753781 -31.19  0.001232562    2.064    0.516
       163 -11.0435    172.1407    136.6139   7.1293810250e+01   1.9879796055e+01     0.470303     0.223005 -43.33  0.001795656    2.050    0.512
       164  -9.9362    138.5609    137.2589   7.9415948168e+01   2.6753505072e+01     0.302445    0.1516533 -51.06  0.001134284    2.060    0.515
       165 -10.6423    162.5836    135.3073   7.3138132417e+01   2.2167856625e+01    0.3087867    0.1464121 -47.68  0.001143296    2.136    0.532
       166 -11.0016    179.5798    132.0187   6.8594725153e+01   1.9252850108e+01    0.5182092    0.1432742 -42.08   0.00152229    3.478    0.712
       167 -10.5015    112.7776    131.7243   8.4969477254e+01   3.3143874997e+01    0.5021988     0.250984 -47.84  0.001943982    1.951    0.487
       168 -11.0324    143.2509    129.4076   7.6350595100e+01   2.7535061211e+01    0.6686115    0.2616136 -41.81  0.002232534    2.602    0.616
       169 -11.2444    131.6855    128.7311   7.9143589634e+01   3.0093037670e+01    0.7593368    0.3190273 -47.93  0.002656485    2.363    0.577
       170 -11.0190     82.8815    130.4301   9.3320109181e+01   3.8688561889e+01    0.7543011    0.2737505 -61.84  0.002376595    3.305    0.697
       171 -10.3956     83.5016    123.9770   9.1712660321e+01   4.0167089253e+01    0.4782461    0.2430644 -36.66  0.001798434    2.433    0.589
       172 -10.8222    193.0103    128.8166   6.5086229106e+01   1.7065039557e+01     0.395293    0.1813571 -31.68   0.00142826    2.519    0.603
       173 -11.2482    168.7699    127.9893   6.9973993998e+01   2.2383789604e+01    0.5602638    0.2731723 -42.95  0.002155761    1.994    0.498
       174 -10.9434    152.8498    127.3396   7.3493029550e+01   2.5945995071e+01    0.6596615    0.2509871 -46.40  0.002194918    2.624    0.619
       175 -10.2114     12.8020    129.4639   1.1431430785e+02   4.6927354068e+01    0.3533622    0.1771824  72.91  0.001559395    2.671    0.626
       176 -11.3457     98.5065    124.4849   8.7343543017e+01   3.7497279377e+01    0.9575277    0.3667337 -52.83  0.003287435    2.562    0.610
       177 -10.8388     72.6618    127.2785   9.5739766471e+01   4.1022078634e+01    0.5322974    0.1731775 -60.37  0.001700708    3.199    0.687
       178 -10.5136     59.3632    123.9596   9.9177545249e+01   4.3673876016e+01    0.5533035    0.3125542  82.18  0.001945889    3.567    0.720
       179 -10.7514    117.3456    122.7508   8.1536674565e+01   3.4355247602e+01    0.6686115    0.2748228 -46.09  0.002333564    2.382    0.580
       180 -11.0058     43.7597    122.4793   1.0380408453e+02   4.5890991144e+01    0.6627008    0.3594836  84.85  0.002510118    3.206    0.688
       181 -10.8014     28.2206    121.8612   1.0858110559e+02   4.7565883178e+01    0.6633076     0.302337  78.84  0.001962075    5.688    0.824
       182 -10.5031    179.9612    122.8802   6.6313213234e+01   2.1007198230e+01    0.4784991    0.2755922 -27.90   0.00191176    2.075    0.518
       183 -10.5014    158.5270    119.4593   7.0184941876e+01   2.6387758283e+01    0.4810818    0.2515829 -35.53  0.001842362    2.045    0.511
       184 -10.5448    141.6190    118.5130   7.4031235328e+01   3.0272448235e+01    0.5900004    0.2821434 -55.31  0.002033281    2.608    0.617
       185 -10.3202    141.7971    112.7911   7.2502222162e+01   3.1466606575e+01      0.41645    0.3012044   1.35  0.001743999    2.024    0.506
       186 -10.3967    130.3833    116.1561   7.6322901494e+01   3.3183206245e+01    0.5974182    0.2554868 -39.44  0.002050356    2.494    0.599
       187 -10.2107      3.0082    116.9530   1.1568931352e+02   5.0580778907e+01    0.3974096    0.1693191  81.93  0.001522722    3.616    0.723
       188  -9.7058    186.1512    114.6631   6.3036469872e+01   2.1274167375e+01    0.4409195     0.107695 -36.65  0.001119969    4.747    0.789
       189 -11.1435    108.7033    110.5180   8.0866528811e+01   3.8853741372e+01    0.8798791    0.3193199 -46.40  0.002926207    2.677    0.626
       190 -10.4193     92.4950    112.4959   8.6220195282e+01   4.1400920331e+01     0.404626    0.2175428 -57.43  0.001383802    1.982    0.495
       191 -10.8487     91.8761    106.9714   8.4994439097e+01   4.2794285632e+01    0.7831722    0.3108505 -38.20   0.00253402    3.111    0.679
       192 -10.7293     78.4801    111.1960   9.0282066483e+01   4.4043298270e+01    0.5985603    0.3115764 -71.04  0.002062376    3.196    0.687
       193 -10.4624    122.3729    109.5366   7.6740899687e+01   3.6320245318e+01    0.5782521    0.3068878 -29.37   0.00204459    2.608    0.617
       194 -10.7126     14.1887    110.0533   1.1121648140e+02   5.1537527415e+01    0.4052621    0.2294234 -88.27   0.00199953    2.012    0.503
       195 -10.0887    159.2901    109.5614   6.7466051356e+01   2.8260282498e+01    0.4179444    0.1375293 -36.14  0.001203258    3.585    0.721
       196 -11.0649     66.1145    108.9978   9.3764165983e+01   4.6412417302e+01    0.5865884    0.2616215 -66.33  0.002054286    3.002    0.667
       197  -9.6573    133.3526    107.8223   7.3341224368e+01   3.4364178693e+01     0.233238    0.1426762 -34.37 0.0009378722    1.761    0.432
       198 -11.5841     45.5877    102.2874   9.9165640216e+01   5.0606135588e+01    0.7652468    0.4166476  70.20  0.002559758    4.563    0.781
       199 -11.2415     22.7329    102.3083   1.0706941654e+02   5.2767662144e+01    0.6796228    0.3501339  70.65  0.002596494    3.823    0.738
       200  -9.9606    149.8242    102.0992   6.7687086473e+01   3.1906305052e+01     0.428471   0.09744409 -47.16   0.00100557    5.290    0.811
       201  -9.7943    174.6138    109.9710   6.4217841957e+01   2.4740252330e+01    0.3647558    0.1429617 -40.32  0.001261766    2.473    0.596
       202 -10.2408    128.6771     99.4689   7.2282776648e+01   3.7144339566e+01    0.5520168    0.2811419 -28.72  0.001911248    2.733    0.634
       203  -9.7757     82.0047    100.0136   8.6293483962e+01   4.6081552565e+01    0.3341561    0.1841121 -72.00  0.001106208    3.591    0.722
       204 -10.4916    107.7785     97.9071   7.7702461732e+01   4.1833434779e+01    0.3870834    0.2143124 -54.85  0.001533458    2.054    0.513
       205 -10.3020    108.1755     92.3412   7.5992882904e+01   4.2941976166e+01    0.4261772    0.2742753  16.09  0.001710018    2.270    0.559
       206 -10.6534     95.2807     93.3882   8.0214337375e+01   4.5219856019e+01    0.7521151    0.2732428 -37.16  0.002320874    3.447    0.710
       207 -11.1668     63.7521     95.7870   9.1306973429e+01   4.9847359485e+01    0.5176038    0.3353249 -88.60  0.002074203    2.923    0.658
       208  -9.8865     43.3465     93.1106   9.7862668368e+01   5.3013023325e+01    0.2885427   0.09402388 -51.23  0.001089214    2.491    0.599
       209 -10.0671    139.6683    101.9568   7.0130291324e+01   3.4212902710e+01    0.6192048    0.2234167 -36.89  0.001913499    3.151    0.683
       210 -10.3512      4.8474     91.5715   1.1145505003e+02   5.6478469539e+01     0.232997    0.1403887  71.18  0.001197589    2.313    0.568
       211  -9.7543    124.2375     90.2803   7.0852454371e+01   3.9995784867e+01    0.3743615    0.1975977 -55.44  0.001382781    2.434    0.589
       212 -10.1408    125.4710     85.0391   6.8980005663e+01   4.0765536351e+01    0.4989212    0.3109668   1.54   0.00170364    3.342    0.701
       213 -10.7397     34.6474     89.4514   1.0018258370e+02   5.4753923388e+01    0.4016022    0.2329396 -83.21  0.001726693    2.723    0.633
       214  -9.6946    138.3649     89.1178   6.6852408264e+01   3.7083175449e+01    0.3142257    0.1447305 -32.22  0.001094436    2.586    0.613
       215 -10.6174     86.3394     86.5301   8.1082881874e+01   4.8316360280e+01    0.3110166    0.2393456  78.49  0.001236491    1.977    0.494
       216 -10.2882    104.1784     82.3518   7.4207228781e+01   4.5800827456e+01    0.3961965    0.2294912 -58.82    0.0015593    2.384    0.581
       217 -10.2795    104.3473     77.9732   7.2803547648e+01   4.6632047667e+01    0.4089373    0.2413371 -11.83  0.001436161    3.177    0.685
       218 -10.5159     24.4293     80.6764   1.0201766707e+02   5.7662585219e+01    0.3176236    0.2177857 -88.12  0.001423851    2.017    0.504
       219 -10.7137     48.5380     84.3991   9.3778229794e+01   5.4407208488e+01    0.3603107    0.2367141  72.00  0.001553283    2.901    0.655
       220 -10.2733      7.6129     84.2113   1.0915752094e+02   5.8019107009e+01     0.186146   0.08512515 -55.12 0.0003780268    1.651    0.394
       221 -10.4885     82.1183     72.2602   7.8087027560e+01   5.1986742382e+01    0.2624179     0.191845 -70.21  0.001063978    2.077    0.518
       222  -9.2508    150.3175     96.3358   6.5997380800e+01   3.2944070835e+01    0.1585771    0.1228667   6.14            0    1.698    0.411
       223  -9.8271    128.3552     70.5311   6.3820870618e+01   4.2813121898e+01    0.3379254    0.2201863   4.92  0.001322648    2.589    0.614
       224  -9.8098     95.0000     70.9671   7.3447643141e+01   4.9839171825e+01    0.2408763   0.08116636 -41.75 0.0008027353    2.954    0.661
       225 -10.7667     51.5806     69.7957   8.8451585690e+01   5.7175620815e+01    0.3589899    0.1674864 -59.24  0.001433899    2.741    0.635
       226  -9.7411     74.6007     80.8024   8.3336592498e+01   5.1519615164e+01    0.2032707    0.1335147 -57.14 0.0009459731    1.723    0.420
       227 -10.1090     37.3860     64.1908   9.2431056544e+01   6.0009212970e+01    0.1828776    0.1175803 -60.42 0.0009501898    1.739    0.425
       228 -10.3334     73.1627     59.3388   7.6885118360e+01   5.5984374767e+01    0.3202679    0.1742638 -50.66  0.001411836    2.172    0.540
       229  -9.8269      7.2348     57.2414   1.0342489458e+02   6.3938719611e+01    0.1831991   0.09381329 -72.35 0.0007636994    2.437    0.590
       230  -9.5920    100.4335     54.7165   6.6301438151e+01   5.1604275651e+01    0.1951485    0.1342681 -20.66  0.000945212    1.602    0.376
       231 -10.3284     62.6991     54.2024   7.8948698240e+01   5.8612635671e+01    0.2663751     0.116071 -49.06  0.001077548    2.628    0.619
       232 -10.1754     54.1977     53.6058   8.2064512453e+01   5.9982895217e+01    0.2541045    0.1640933 -74.02 0.0009526626    4.288    0.767
       233  -9.5408     31.0236     51.5203   9.1137989776e+01   6.3194665016e+01    0.1550158    0.1022824  48.88 0.0006130607    2.333    0.571
       234  -9.8108     92.3337     50.6718   6.7345396759e+01   5.3909559435e+01    0.1350267    0.1139404 -82.73 0.0005188879    1.720    0.419
       235  -9.7865     45.4697     49.4858   8.4178858845e+01   6.1913102276e+01    0.1319222    0.1095605 -15.34  3.57683e-05    1.020    0.020
       236  -9.9319      5.4688     42.4838   1.0013668892e+02   6.7004603583e+01    0.2030401    0.1084805 -68.63  0.001034821    2.447    0.591
       237  -9.5048    113.4934     41.7566   5.8164963624e+01   5.0715119385e+01    0.1856861    0.1339039  -8.76 0.0007548032    1.631    0.387
       238  -9.6261     84.0372     39.9647   6.6031449230e+01   5.7177471631e+01    0.2170646    0.1496459  13.73 0.0005277341    1.624    0.384
       239  -9.6939    106.3122     37.3046   5.8465284937e+01   5.2914468887e+01    0.1429968   0.09835695  23.59 0.0002508366    1.616    0.381
       240  -9.0187     26.3336     36.6621   8.8018234762e+01   6.6397946467e+01    0.1065594   0.09903162  72.87 0.0007051863    1.745    0.427
