#   1 NUMBER                 Running object number                                     
#   2 MAG_AUTO               Kron-like elliptical aperture magnitude                    [mag]
#   3 X_IMAGE                Object position along x                                    [pixel]
#   4 Y_IMAGE                Object position along y                                    [pixel]
#   5 X_WORLD                Barycenter position along world x axis                     [deg]
#   6 Y_WORLD                Barycenter position along world y axis                     [deg]
#   7 A_WORLD                Profile RMS along major axis (world units)                 [deg]
#   8 B_WORLD                Profile RMS along minor axis (world units)                 [deg]
#   9 THETA_WORLD            Position angle (CCW/world-x)                               [deg]
#  10 FWHM_WORLD             FWHM assuming a gaussian core                              [deg]
#  11 ELONGATION             A_IMAGE/B_IMAGE                                           
#  12 ELLIPTICITY            1 - B_IMAGE/A_IMAGE                                       
         1 -11.2798     80.6824     23.0264   5.5862867794e+01   6.0253089980e+01    0.6189297     0.230264  41.90 0.0007414007    2.419    0.587
         2  -9.1699     27.7724     21.4157   7.6745650714e+01   6.9198334273e+01    0.4754024    0.2480297 -12.25  0.002350016    2.357    0.576
         3  -8.9271     46.3212     20.6039   6.7539179519e+01   6.6732527371e+01    0.3364902    0.1759597 -34.64  0.001764759    2.000    0.500
         4  -9.1096     17.8587     17.3347   8.0163124420e+01   7.0912762956e+01    0.3272448    0.1837899  36.89  0.001553736    2.190    0.543
         5 -12.1098    236.5278      4.1921   2.7351399566e+01   2.7537629124e+01     1.347824    0.7351652  71.47  0.008177155    1.769    0.435
         6 -11.1950    218.7771      8.1946   2.9359270017e+01   3.0690477187e+01    0.6653641    0.5431705 -45.95  0.004774299    1.322    0.244
         7  -8.2075    147.2864     14.0170   3.8302757841e+01   4.6169881103e+01    0.1736086    0.1539496  76.78  0.000663066    1.033    0.032
         8  -9.8179     31.6519     10.9781   6.9757419778e+01   7.0081534665e+01    0.3281874    0.1803632  19.36 0.0002900469    1.743    0.426
         9  -8.3194     96.9994     11.6292   4.6932029332e+01   5.7955286164e+01    0.2064647     0.158333  25.23 0.0007531909    1.314    0.239
        10  -8.9244     64.7526     13.5343   5.7083870880e+01   6.4370403609e+01    0.2884425    0.1456553  32.19 0.0007185497    1.888    0.470
        11  -7.9859    164.2148     10.2113   3.5014975398e+01   4.2571591154e+01    0.1697583    0.1476563  67.74 0.0003260631    1.138    0.122
        12  -8.9375    125.4673      9.9474   4.0535285597e+01   5.1652652593e+01    0.2465711    0.1591467  63.26 0.0005569263    1.310    0.237
        13 -10.1617     20.8669      8.3371   7.4060004436e+01   7.1800840886e+01    0.3512726    0.2057666  31.86 0.0003975219    1.668    0.401
        14 -10.1502     13.7965      4.2404   7.5940939707e+01   7.3131262325e+01    0.2404331    0.1662059   2.89 0.0002197336    1.130    0.115
        15 -10.1840      8.6362      5.0742   7.9494550366e+01   7.3560440285e+01    0.6264381    0.2534736  15.16  0.003025847    2.866    0.651
        16 -10.0448     78.0423     12.8700   5.2499812911e+01   6.1844362638e+01    0.6548982    0.2016546  53.38  0.002650007    2.741    0.635
        17  -8.3232    156.0093      7.2881   3.5238708015e+01   4.4752075147e+01    0.1917306    0.1358067 -29.17 0.0007544692    1.637    0.389
        18  -7.7122    134.7638      7.2370   3.8170085779e+01   4.9721740618e+01    0.2146831   0.06802447  56.94 0.0008838678    2.450    0.592
        19  -8.8917     41.2003      5.5990   6.2561862674e+01   6.9264101335e+01    0.2589831    0.1654784  10.42  0.001266491    1.476    0.322
        20  -9.9456     85.1143      5.2077   4.7385225348e+01   6.1058489917e+01    0.2664949    0.1898288  48.41 0.0003120082    1.154    0.134
        21  -8.9908     32.1029      5.9763   6.6984025131e+01   7.0599181670e+01    0.1784189    0.1322025   9.45 0.0003170082    1.055    0.052
        22  -9.2009     77.0192      6.1611   4.9985195727e+01   6.2657553122e+01    0.2799861    0.1943544  57.73  0.001689783    1.384    0.278
        23  -9.2878     57.7795      3.1722   5.4795276052e+01   6.6645948247e+01    0.2247519    0.1611819  24.90 0.0003293519    1.173    0.147
        24  -7.6029    176.3610      3.3073   3.1935960641e+01   4.0423876950e+01    0.1227515   0.08079471  48.73 0.0003218802    1.736    0.424
        25  -7.7525    134.3089      3.3121   3.7047163281e+01   5.0153754222e+01    0.1279641    0.0808453  43.24 0.0001908707    1.625    0.384
        26  -7.9079    125.6924      3.4094   3.8408232798e+01   5.2145330432e+01    0.1731728   0.09549113  57.61 0.0004545991    1.490    0.329
        27  -8.3052    110.6566      2.3463   4.0673053717e+01   5.5672581663e+01     0.286731    0.1432305 -47.18  0.001385022    2.620    0.618
        28  -8.1031    155.3014      2.7334   3.4089241571e+01   4.5315433825e+01    0.3506793   0.05800721  64.21  0.001194703    3.825    0.739
        29  -8.4890    105.3433      1.8326   4.1516258742e+01   5.6908412988e+01    0.2174165    0.1503854  69.85 0.0007119697    1.343    0.255
        30  -8.6392     13.7044     10.3152   7.9136507092e+01   7.2340351306e+01    0.1990409    0.1295772  35.44  0.001180285    1.932    0.483
        31  -9.3446    249.7333    113.3650   4.7902126335e+01   9.6851229562e+00    0.2631559    0.1314339 -48.21  0.001151982    1.740    0.425
        32 -10.7010     45.7972    248.9351   1.1482886111e+02   1.5374365922e+01    0.3658319    0.2550859  29.89  0.002281355    1.536    0.349
        33  -8.8427    135.0069    112.4334   6.9494660442e+01   3.3255478263e+01    0.5689726    0.2877003 -59.09  0.001929176    2.774    0.639
        34  -8.9446    133.9959    106.2617   6.8106069148e+01   3.4813416969e+01    0.4495833    0.2646433 -37.05  0.001441559    1.766    0.434
        35  -8.0773     36.4070    113.8378   1.0117344268e+02   4.9156108977e+01    0.2111282    0.1074392 -52.27 0.0005308496    1.668    0.400
        36  -8.5102     50.7802    112.3277   9.5834158212e+01   4.7976866383e+01    0.2590927    0.2012918 -53.96  0.001094546    1.157    0.136
        37  -8.8871      9.2139    109.1911   1.0986352033e+02   5.2447382603e+01    0.2488303    0.2105623  75.60 0.0006848142    1.331    0.248
        38  -9.4069    115.3903    107.0625   7.3435920179e+01   3.8561496688e+01     0.290554    0.2337963  51.80 0.0006665824    1.325    0.245
        39  -8.3495    124.8102    106.4142   7.0606910760e+01   3.6747232749e+01     0.228506    0.1474532  30.63 0.0009468542    1.776    0.437
        40  -8.7120     61.9508    106.0262   9.0449292963e+01   4.8098211463e+01    0.1767284    0.1660829 -26.43 0.0003812147    1.043    0.042
        41  -8.1503    182.0863    105.5044   5.7008965288e+01   2.4360085359e+01    0.2131872    0.1478951  50.86 0.0008700544    1.523    0.344
        42  -8.3224     86.8888    105.3856   8.1775985271e+01   4.4360303528e+01    0.2310101     0.183666  52.12 0.0006374542    1.429    0.300
        43  -8.8583     72.2975    104.9102   8.6560968278e+01   4.6861672889e+01    0.3122104    0.2029562  49.25  0.001159009    1.839    0.456
        44  -9.2129    140.5103     99.0986   6.4488955372e+01   3.4885395948e+01    0.3516479    0.2421982  12.38  0.001417029    2.257    0.557
        45 -10.1500     13.0027     94.6900   1.0607133731e+02   5.5757502342e+01    0.4103487    0.3421522 -70.37  0.002567823    1.174    0.148
        46  -9.1016    249.0040    103.5000   4.5985692392e+01   1.1447286413e+01    0.1722822    0.1287935  60.03  0.001039146    1.608    0.378
        47  -8.2756    238.3290     94.3473   4.5453626071e+01   1.4878813550e+01    0.1255941    0.1011089  -5.46 0.0007049645    1.758    0.431
        48  -9.2477     55.6121     93.0042   8.9436086422e+01   5.2049596410e+01    0.4006515     0.311275  24.40  0.002124849    1.362    0.266
        49  -9.1125      1.4815     91.6733   1.0990507971e+02   5.7109167525e+01    0.3456918    0.1084014 -70.21 0.0006992202    2.752    0.637
        50  -8.8479     43.4162     91.7302   9.3732130939e+01   5.3827338069e+01    0.2482149    0.1640373 -12.42  0.001205062    1.784    0.439
        51  -8.2916     97.9775     88.8596   7.3497453487e+01   4.6006004867e+01    0.3065621    0.1816831  29.81   0.00127968    1.890    0.471
        52  -9.4738    151.2324     86.8094   5.8551459353e+01   3.4870912315e+01    0.4246414    0.3179403  11.67  0.001928482    1.884    0.469
        53  -8.0053     74.9270     86.4396   8.0519942043e+01   5.0673870797e+01    0.1992482     0.123056  57.34 0.0008063337    2.449    0.592
        54  -8.3237     66.1832     83.7671   8.2900522106e+01   5.2638771689e+01    0.2450764    0.2203363 -26.29 0.0006457098    1.024    0.023
        55 -10.6858     37.7964     80.7622   9.3117254234e+01   5.6957522182e+01    0.6881171    0.3420782 -10.23  0.002561385    3.425    0.708
        56  -7.6862    127.5424     82.5032   6.3049788611e+01   4.1066806226e+01    0.1502386    0.1447905  11.91 0.0008086831    1.048    0.046
        57  -8.8410     21.0469     83.9812   1.0072681331e+02   5.7732639740e+01     0.201492    0.1631409 -42.86 0.0004394587    1.027    0.026
        58  -8.1827     97.1281     78.9042   7.0714513398e+01   4.8208657379e+01    0.2193884    0.2039039  84.28  0.000501683    1.295    0.228
        59  -8.7980     88.4190     78.4885   7.3416894995e+01   4.9967684831e+01    0.4946473    0.2427299  23.39  0.001671141    3.287    0.696
        60  -7.4821     64.2908     79.3004   8.2264419261e+01   5.3887930294e+01    0.1456486    0.1031623 -16.59 0.0002286157    1.564    0.361
        61  -8.6756    184.2033     77.8991   4.9694569324e+01   2.8892519097e+01    0.2387176    0.2023642  65.86 0.0007161833    1.198    0.165
        62  -8.9643      8.5290     76.8885   1.0432472486e+02   6.0191463726e+01    0.3239013    0.1424824 -48.79  0.001304591    1.740    0.425
        63  -8.4837     49.6736     76.3324   8.7059740381e+01   5.6556359561e+01    0.1508344    0.1248954 -23.07 0.0008514584    1.094    0.086
        64  -9.0793     55.8002     76.5772   8.4701553943e+01   5.5692573252e+01    0.2607661    0.1792087  42.38  0.001316406    1.694    0.410
        65  -8.9773     23.5986     74.3428   9.7344670429e+01   5.9721624443e+01    0.3779382    0.1455974 -48.74  0.001567935    2.049    0.512
        66  -8.8918     24.0059     69.3042   9.5837305091e+01   6.0793898154e+01    0.5592468    0.2136528  21.44  0.002321458    2.803    0.643
        67  -8.5420     12.7765     74.8608   1.0208324324e+02   6.0394483408e+01    0.3140961    0.1904225  66.39  0.001449028    2.993    0.666
        68 -10.4597    163.8829     70.8531   5.1520982172e+01   3.4755315458e+01    0.5837142    0.4127791 -84.11  0.002746829    1.801    0.445
        69  -8.8581     33.7078     67.3636   9.1052566349e+01   6.0303068843e+01    0.2807029    0.1436566  38.58   0.00130503    2.374    0.579
        70  -8.6340    108.3688     66.2886   6.3261093827e+01   4.8238565829e+01    0.4147901    0.1947002  48.05  0.001662803    2.068    0.517
        71  -9.0828     86.1320     63.3864   6.9213501779e+01   5.3274543339e+01    0.6394883    0.2234122  41.41  0.002286362    2.800    0.643
        72  -8.7232     75.6200     74.2563   7.6501175629e+01   5.3110388150e+01     0.372452    0.1687818  38.28  0.001381112    2.223    0.550
        73  -8.1341    129.2905     68.9744   5.8525071489e+01   4.3126095792e+01    0.3176525    0.1715364  30.40  0.001174075    2.712    0.631
        74  -9.1049     25.6163     62.6747   9.3239262750e+01   6.2063573674e+01    0.2443166    0.2091899  41.43 0.0007853473    1.516    0.340
        75  -7.7640    148.6409     62.7337   5.2273357962e+01   3.9655794128e+01    0.1462713    0.1079762  30.39 0.0005512133    1.638    0.389
        76 -10.5051     62.3879     60.8772   7.6984225358e+01   5.7873634163e+01    0.5082693    0.2353535  31.24 0.0002920147    2.223    0.550
        77  -8.6989     11.5511     61.2444   9.9262029447e+01   6.3450254865e+01    0.2331187    0.1131837 -63.44 0.0007729323    2.067    0.516
        78  -9.2793      3.3498     60.3422   1.0282205747e+02   6.4116330260e+01     0.435538    0.2102564  43.64  0.002016885    3.292    0.696
        79  -8.6479     19.6890     60.8624   9.5407667747e+01   6.2943203128e+01    0.2149345    0.1518822 -12.33 0.0006676557    1.367    0.268
        80  -9.4030    182.9004     58.3762   4.4947122074e+01   3.2301010566e+01    0.3723545    0.2778572 -42.30  0.001733101    1.323    0.244
        81 -10.6120    178.6270     54.3456   4.4573963210e+01   3.3882849344e+01    0.7200962    0.3668403  72.53  0.002361159    2.215    0.549
        82  -8.6106     44.7526     59.6580   8.3815777028e+01   6.0605387743e+01    0.2689704    0.2026978  54.60  0.001442273    1.987    0.497
        83  -9.0516     36.2486     59.0225   8.7325023643e+01   6.1740436802e+01    0.2808103     0.149684  -7.03  0.001198307    2.668    0.625
        84  -7.8009    110.8703     58.3541   5.9948867018e+01   4.9029584424e+01    0.2137852    0.1203103  39.73 0.0005499016    1.781    0.438
        85  -7.9043     49.5498     58.4887   8.1373616341e+01   6.0202105063e+01    0.1337218    0.1178759 -13.62 4.880566e-05    1.056    0.053
        86  -9.5704     99.6026     54.7679   6.1962280498e+01   5.2027312657e+01    0.3534971    0.2881825 -18.76 0.0006592604    1.283    0.221
        87 -10.7239     75.5483     49.9955   6.8109411912e+01   5.7538496845e+01    0.4710607    0.3180422  33.65 0.0004310874    1.400    0.286
        88  -8.3406    118.8280     50.8704   5.5388650054e+01   4.8408739463e+01    0.2166434    0.1784747  29.37 0.0004831075    1.248    0.198
        89  -8.5802    107.0304     48.3455   5.7622597822e+01   5.1415016715e+01    0.3140196    0.1995789  26.84  0.001132828    1.867    0.464
        90  -9.0389     53.8194     46.9312   7.5364915021e+01   6.1673932479e+01    0.4238759    0.1269783 -35.46  0.001440296    3.788    0.736
        91  -9.2878     57.1774     41.4771   7.1853238162e+01   6.2046767273e+01     0.501754    0.2552615  -5.06  0.001573798    5.187    0.807
        92  -8.9722     45.6136     48.3811   7.9429395012e+01   6.2591753747e+01    0.2916833    0.1948677   6.34 0.0008651743    1.557    0.358
        93  -9.1744      2.8231     44.9879   9.8930773454e+01   6.7297026932e+01    0.2858022    0.1557622 -46.24  0.001662099    1.420    0.296
        94  -8.9498     13.6652     45.2950   9.3509531074e+01   6.6529587703e+01    0.1849633    0.1758244  87.57 0.0007725285    1.550    0.355
        95  -7.9449    184.9425     47.0000   4.1769762535e+01   3.3463412119e+01    0.2067652   0.07187371  63.99 0.0003811088    2.781    0.640
        96  -8.6144     81.4142     43.8018   6.3756554779e+01   5.7395740707e+01    0.2427972    0.1726452 -10.29 0.0003670905    1.560    0.359
        97 -10.6072     83.0795     39.7028   6.1650337753e+01   5.7662701101e+01    0.4425254    0.2364218  37.87 0.0002302854    1.765    0.433
        98  -9.0500     66.0097     42.8313   6.8902436227e+01   6.0368976048e+01    0.3555386    0.2124207 -50.38  0.001693342    2.298    0.565
        99  -8.5203     98.8105     41.8531   5.7636798174e+01   5.4121271811e+01    0.3902139    0.1870787  56.64  0.001649048    2.200    0.546
       100  -9.0241     31.3745     42.8698   8.3895763216e+01   6.5322174620e+01    0.5428067    0.1587311  36.38  0.002057824    3.849    0.740
       101  -8.6218    120.6429     40.9623   5.1685585871e+01   4.9381154303e+01    0.5213928    0.1339894  48.28  0.001682245    3.485    0.713
       102  -8.9100    185.5884     35.8003   3.8890856452e+01   3.4789139980e+01    0.3112879    0.2281722  58.85  0.001262435    1.381    0.276
       103  -9.2090     10.3426     47.1240   9.5769451304e+01   6.6413460036e+01    0.3190746     0.189881  -7.37  0.001144972    1.690    0.408
       104  -7.9003    224.5910     39.4805   3.5375831717e+01   2.5794799157e+01    0.1228686    0.1015374 -67.11 7.192999e-05    1.028    0.028
       105  -9.1690    203.6268     38.3964   3.7342630246e+01   3.0405163312e+01     0.214081    0.1966895 -83.88 0.0005255842    1.138    0.121
       106  -8.2159    105.0800     36.9001   5.4147651923e+01   5.3420757407e+01    0.2254641    0.1496385  26.05 0.0007959469    1.708    0.415
       107  -8.9738     67.7762     37.3884   6.6084426507e+01   6.0873059664e+01    0.2258241    0.1618092  17.46 0.0009346276    1.362    0.266
       108  -9.2271     71.4571     34.8676   6.3730878135e+01   6.0559853145e+01    0.3158804    0.1665669  39.95  0.001349322    1.728    0.421
       109  -9.4976     37.4663     35.8184   7.8219375145e+01   6.5788580118e+01    0.4263806    0.2268399   8.48  0.001987447    2.420    0.587
       110  -8.4392     93.3227     42.4970   5.9480442297e+01   5.5189145451e+01    0.4278946    0.1953089  30.18  0.001555984    3.160    0.684
       111  -8.7616     46.6121     36.1100   7.4165988473e+01   6.4493690249e+01    0.2153934    0.1644834  32.59  0.001310292    1.364    0.267
       112  -8.9533     19.0096     34.0631   8.6712455601e+01   6.8130214873e+01    0.3663671    0.2773645 -64.70  0.002217785    2.070    0.517
       113  -8.7856     21.9384     31.8295   8.4291376750e+01   6.8224688328e+01    0.2148471    0.1525353  15.33 0.0003739099    1.343    0.256
       114  -9.3018     12.4482     34.3967   9.0319200343e+01   6.8640312449e+01     0.300942    0.2041578  49.84  0.001491052    2.676    0.626
       115  -9.8414      6.3544     34.0135   9.3477840996e+01   6.9159510187e+01    0.2914145    0.2335817  -5.47   0.00205896    1.190    0.159
       116  -8.4721    177.8569     34.7742   3.9646353813e+01   3.6700520536e+01    0.1868993    0.1666492  64.97 0.0004741341    1.167    0.143
       117  -8.5115     55.9759     35.4768   6.9917461519e+01   6.3156697685e+01    0.1855541    0.1157594  34.49 0.0004251736    1.498    0.332
       118  -7.5189    236.7399     34.7073   3.3277512778e+01   2.3956957810e+01   0.09631743    0.0942113  20.73            0    1.497    0.332
       119  -9.9200    197.1432     32.4383   3.6692503459e+01   3.2594320771e+01    0.2358859    0.2342843 -15.58 0.0004497219    1.304    0.233
       120  -8.7078     96.3034     32.9007   5.5079752114e+01   5.5834676092e+01    0.2421313    0.1687823  42.17 0.0003550549    1.280    0.219
       121  -9.2903    211.8588     30.5200   3.4697974817e+01   2.9609991771e+01    0.2503464    0.1966136  73.58 0.0006570498    1.263    0.208
       122  -9.5414    179.5603     30.4801   3.8331310942e+01   3.6829368490e+01    0.2299749    0.1995898  54.50 0.0005408613    1.276    0.216
       123  -9.1880     71.1520     29.8670   6.1809805593e+01   6.1283192504e+01    0.2622756    0.1806984  38.92 0.0007866598    1.301    0.232
       124  -9.6513     70.6273     26.1686   6.0465493780e+01   6.1846502313e+01    0.2387467    0.2315256  17.90  0.000671715    1.266    0.210
       125  -8.4648    191.1767     28.0715   3.6336013834e+01   3.4461750239e+01    0.2494241    0.1469478 -56.39  0.001198943    1.650    0.394
       126  -8.9761     42.0659     27.9460   7.2739767793e+01   6.6370004980e+01     0.188491    0.1515062   3.72            0    1.013    0.013
       127  -9.1274    174.0061     26.3939   3.8003996897e+01   3.8595678715e+01    0.2744389    0.2117627  38.28  0.001276542    1.612    0.380
       128  -8.8662     62.5988     26.7098   6.3615749013e+01   6.3245256024e+01    0.3716083    0.1478617  41.88  0.001577828    2.256    0.557
       129 -10.5270     31.8567    246.3012   1.1742180356e+02   1.7490917298e+01    0.3634944    0.1738875 -67.70  0.001983928    2.117    0.528
       130  -9.8567    204.7534     23.8180   3.3913881332e+01   3.1947288458e+01     0.223144     0.217229 -65.96 0.0006093605    1.296    0.228
       131  -9.1629      3.3388     24.5840   9.1639087080e+01   7.1022839108e+01    0.2073866   0.09675678 -33.79  0.000741285    1.732    0.423
       132 -10.6157     36.3664    240.7282   1.1614213669e+02   1.8133816180e+01    0.3332511    0.1719801 -71.82  0.001831442    1.917    0.478
       133  -9.2694    128.9064     22.0585   4.3791893527e+01   4.9689492672e+01    0.2045443    0.1779102  57.63 0.0003019085    1.030    0.029
       134  -9.7869     23.5227    247.2630   1.1910643751e+02   1.8192319944e+01    0.2179509    0.1448515  16.63   0.00130201    2.151    0.535
       135  -7.8632    136.9650     22.7855   4.2559830105e+01   4.7719519388e+01    0.1770503   0.09466704  63.19 0.0002539373    1.637    0.389
       136  -8.8033     92.3830     20.4358   5.1456831387e+01   5.8100401086e+01    0.2548743    0.1744426  38.09 0.0006852385    1.307    0.235
       137  -9.3533      8.5460     19.8053   8.6611872317e+01   7.1414370418e+01    0.3299519    0.2110671   8.59  0.001446681    1.422    0.297
       138 -10.2880    188.4435    239.1102   8.3312297363e+01  -2.7847995590e+00    0.3342458    0.2940077  84.72  0.001275291    1.942    0.485
       139  -8.4892     13.1980     17.6329   8.2940564131e+01   7.1335321910e+01    0.2363303    0.1351079  10.61  0.001164155    1.635    0.388
       140  -9.0508    188.0866    233.8412   8.2526545804e+01  -1.8663554163e+00    0.2044566    0.1747032   3.27 0.0009159941    1.042    0.040
       141  -7.7669    208.7542    233.7444   7.8388318505e+01  -4.7234563331e+00    0.1825386    0.1010632 -49.71 0.0008951887    2.429    0.588
       142  -8.3422    127.5191     16.4660   4.2261279577e+01   5.0575122768e+01    0.1300631    0.1121776  61.08 0.0001629655    1.010    0.009
       143  -8.2124    247.4962    226.5112   7.0031015018e+01  -8.5285350172e+00    0.1205313   0.09232444 -11.00 0.0001534216    1.033    0.032
       144 -11.6359     40.5204    219.1299   1.1358436091e+02   2.2343569315e+01     1.045995    0.5615937  57.73  0.002436274    1.760    0.432
       145  -9.4447     30.4846    212.1071   1.1523767015e+02   2.5044378928e+01    0.3205232    0.2419467 -29.57  0.001355079    1.944    0.486
       146  -7.7987    188.4906    225.4452   8.1036543462e+01  -5.0017958571e-01    0.1335404     0.112525   3.33 0.0001162401    1.011    0.010
       147  -8.2943    178.2674    224.1237   8.2946666776e+01   1.2592673964e+00    0.1969064    0.1592545  -4.84 0.0004157885    1.165    0.142
       148  -7.7692    206.1366    222.1100   7.6900576251e+01  -2.4845819164e+00    0.1591086    0.1473343 -21.36 0.0004839507    1.302    0.232
       149 -10.8294     54.6947    195.3964   1.0789053896e+02   2.6242003691e+01    0.6702312    0.5566877  82.21  0.003924731    1.117    0.105
       150  -7.9294    192.6922    196.3587   7.4903363187e+01   4.1220115885e+00    0.1307672    0.1142967 -86.42 0.0007041181    1.732    0.423
       151  -8.9342     29.1749    198.4579   1.1439085925e+02   2.8381518747e+01    0.2052206    0.1690176 -58.65 0.0006845803    1.330    0.248
       152  -7.7596    190.6621    190.3243   7.4160142371e+01   5.6070686746e+00    0.1335369    0.1159689  85.18 0.0007051195    1.721    0.419
       153  -8.1128     32.0999    182.8636   1.1220188666e+02   3.1886990135e+01    0.1632862    0.1447275 -55.11            0    1.249    0.199
       154  -8.3032    175.2101    150.7505   6.9192388642e+01   1.6503219580e+01    0.2145074    0.2018718 -56.93 0.0005570182    1.138    0.121
       155  -7.9181    107.1838    151.5986   8.6572161530e+01   2.9420594727e+01    0.2177964    0.1517922  21.48 0.0007576382    1.675    0.403
       156  -8.0208    181.4390    148.0053   6.7225625488e+01   1.5864779495e+01    0.2266624    0.1400162 -41.72 0.0003719389    1.519    0.342
       157  -8.2712    119.2811    147.3914   8.2297398068e+01   2.8246374421e+01    0.2590512    0.1927745 -75.33 0.0005983813    1.681    0.405
       158  -8.7997    189.5135     15.5464   3.3542511446e+01   3.6242672507e+01    0.2190692    0.1816249 -84.93 0.0007887981    1.004    0.004
       159  -7.4944    133.6532    147.6968   7.8513288799e+01   2.5412374206e+01    0.1631467    0.1243734  -7.50 0.0007040221    1.691    0.408
       160  -9.3861     67.1264    144.5227   9.6956337914e+01   3.7612718754e+01    0.4892551    0.3400487 -88.53  0.002231617    1.751    0.429
       161  -7.6991     34.3328    144.6985   1.0697296937e+02   4.1422647840e+01    0.1433169   0.09818087  66.97 0.0007034607    1.654    0.395
       162  -7.9726    133.6690    139.3288   7.6576981457e+01   2.7385604543e+01    0.1621755    0.1275315  84.72  0.000705163    1.715    0.417
       163  -8.0554     75.7343    133.9596   9.2202520128e+01   3.9104204483e+01    0.2090961    0.1827661 -57.45 0.0003567743    1.082    0.076
       164  -7.5512    153.6579    124.6660   6.7975032423e+01   2.6578878585e+01    0.1632831    0.1244561  -2.62 0.0007050829    1.757    0.431
       165  -8.0036      6.1913    123.1934   1.1279566714e+02   4.9132212556e+01    0.1782575    0.1397667  77.94 0.0009965905    1.344    0.256
       166  -8.9560     67.8439    115.0869   9.0584148776e+01   4.5040538337e+01    0.2805806    0.2140967  20.91 0.0004862883    1.429    0.300
