#   1 NUMBER                 Running object number                                     
#   2 MAG_AUTO               Kron-like elliptical aperture magnitude                    [mag]
#   3 X_IMAGE                Object position along x                                    [pixel]
#   4 Y_IMAGE                Object position along y                                    [pixel]
#   5 X_WORLD                Barycenter position along world x axis                     [deg]
#   6 Y_WORLD                Barycenter position along world y axis                     [deg]
#   7 A_WORLD                Profile RMS along major axis (world units)                 [deg]
#   8 B_WORLD                Profile RMS along minor axis (world units)                 [deg]
#   9 THETA_WORLD            Position angle (CCW/world-x)                               [deg]
#  10 FWHM_WORLD             FWHM assuming a gaussian core                              [deg]
#  11 ELONGATION             A_IMAGE/B_IMAGE                                           
#  12 ELLIPTICITY            1 - B_IMAGE/A_IMAGE                                       
         1 -13.5662      2.2813     13.3525   1.2239003451e+02   7.2641335165e+01     3.954569    0.3586395 -55.15  0.009570863   10.675    0.906
         2 -13.4901      2.1691      3.7891   1.1819401064e+02   7.4235283706e+01     1.597698    0.9618064  34.42   0.01070736    2.310    0.567
         3 -14.3987    198.2420     16.5264   6.6266970723e+01   3.3745566949e+01     2.663421     1.651322  30.30   0.01014133    2.271    0.560
         4 -13.8560    203.4667      9.4162   6.3718389482e+01   3.3172984615e+01     1.557813    0.7666506  52.57  0.001450299    2.127    0.530
         5  -9.9458     94.4099    216.5679   1.3414987019e+02   1.8832204023e+01    0.2542256    0.1591905  69.69 0.0009120952    1.554    0.356
         6 -10.9638    248.9131    249.4410   1.1105995659e+02  -1.0229218373e+01    0.2507596    0.1657676  18.79  0.001791923    1.189    0.159
         7 -11.6596    140.2291    250.2165   1.2947565743e+02   6.1799286837e+00    0.3824626    0.1690244  37.37  0.001977719    2.051    0.512
         8 -12.5172    106.2347    246.9399   1.3504294148e+02   1.1850119661e+01    0.4404676    0.2678058  57.74  0.002171879    1.340    0.254
         9 -12.1790     98.6867    248.6911   1.3650300544e+02   1.2674129102e+01    0.4854166    0.2175706  54.12  0.001971602    1.815    0.449
        10 -11.4993    101.1455    246.1143   1.3584710721e+02   1.2728861942e+01    0.2912852    0.1871361  68.93 0.0004698541    1.460    0.315
        11 -16.0825      5.0978    239.1946   1.5122039002e+02   2.5713272838e+01     10.86922     1.072886 -75.57   0.03205111    6.726    0.851
        12 -15.5767     54.7306    217.2621   1.4163260893e+02   2.4186602966e+01     5.852679     2.719062  44.51   0.03339279    1.847    0.459
        13 -11.9263    120.2584    238.3184   1.3170128163e+02   1.1101359824e+01    0.4024787    0.2274278  85.48  0.002007287    2.903    0.655
        14 -10.6278    193.1882    195.3185   1.1183808082e+02   5.5119741199e+00    0.7074155    0.3549696 -62.30   0.00212169    6.571    0.848
        15 -11.6410     70.4537    195.2719   1.3660428335e+02   2.6456737514e+01    0.3642324    0.2455189 -47.59  0.002087487    2.071    0.517
        16 -11.6792     75.1338    188.3009   1.3487804581e+02   2.7246199649e+01    0.2732598    0.2163953 -61.52 0.0005459429    1.424    0.298
        17  -9.5335    113.3951    193.2158   1.2750700723e+02   2.0300043892e+01    0.2441122    0.1563102  11.61 0.0009479459    3.960    0.747
        18  -9.4817    125.6478    185.0238   1.2372465009e+02   1.9816880228e+01    0.2687504    0.1732273  17.68  0.001155531    2.806    0.644
        19 -11.1210     83.6445    176.0783   1.3154249957e+02   2.8607961351e+01    0.2397499    0.2003947 -86.18 0.0003860462    1.097    0.088
        20 -13.2183     71.3246    173.6748   1.3395405488e+02   3.0914113450e+01    0.4618148     0.274306 -46.49  0.001659905    2.243    0.554
        21 -11.1115    126.2826    174.3537   1.2186474665e+02   2.1866588735e+01    0.4808099    0.1779878  40.90  0.001812233    2.626    0.619
        22 -12.5753     88.5631    166.3753   1.2907801689e+02   2.9981258315e+01     1.835751     0.676336  56.61  0.006254899    3.761    0.734
        23 -12.8810     67.2874    144.0748   1.3081130219e+02   3.8171360915e+01    0.8748764    0.5354286  79.01  0.003789287    1.911    0.477
        24 -12.7127     58.2730    133.0807   1.3140259237e+02   4.1922185858e+01     2.538049    0.7488959 -74.04  0.005438451    9.376    0.893
        25 -10.1446    101.9985    150.9851   1.2341143286e+02   3.1237235064e+01    0.2973859    0.2686961 -33.87 0.0008515195    1.367    0.269
        26  -9.5652    104.4599    147.0270   1.2209411519e+02   3.1708013411e+01    0.2839876    0.2210784 -19.87  0.001406456    1.937    0.484
        27 -12.0715     90.8752    150.3217   1.2599382814e+02   3.3229865305e+01     0.265151    0.2488292 -48.47 0.0004795546    1.264    0.209
        28 -11.9288     45.6920    148.1914   1.3670100386e+02   3.9911000316e+01    0.3760704    0.2456569 -48.99  0.002114268    1.789    0.441
        29  -9.2332    134.3540    148.2269   1.1518725216e+02   2.5857115152e+01    0.2073393    0.1354842 -61.06 0.0009392575    1.652    0.395
        30  -8.7815    192.2476    144.3213   1.0176946100e+02   1.4475747898e+01    0.1433742    0.1129515  -1.06 0.0003071359    1.530    0.346
        31 -10.0207    111.9799    136.4743   1.1816540396e+02   3.2754224418e+01    0.3288192    0.2569534   0.38  0.001252379    1.976    0.494
        32 -10.6379     99.6535    133.5165   1.2068562055e+02   3.5634665855e+01    0.2840142      0.23206 -32.78  0.001070335    1.503    0.335
        33 -14.1615     11.1773    207.1206   1.4876777619e+02   3.0971839797e+01     1.605248     1.192234  14.39   0.01120223    2.496    0.599
        34 -11.1492     43.8252    127.1270   1.3431004552e+02   4.5012848587e+01    0.2331394    0.1778853  85.49 0.0006927175    1.226    0.185
        35  -9.4336    108.5120    123.4978   1.1625429875e+02   3.6352886984e+01    0.1470669     0.138475 -74.62 0.0001541529    1.020    0.020
        36 -11.4882     49.9206    129.9180   1.3310994898e+02   4.3673891990e+01    0.2765502    0.2311029  71.41 0.0007403109    1.185    0.156
        37 -11.1396    168.2701    113.4273   9.9300746944e+01   2.5809648038e+01       0.3791    0.3148869 -79.75 0.0008207503    1.416    0.294
        38 -14.5193     47.8852    230.6057   1.4381496010e+02   2.2566125345e+01      2.73097    0.8310851  59.79  0.002011519    3.261    0.693
        39  -9.1679    155.3177     76.3076   9.1722424560e+01   3.6091229316e+01    0.1577643    0.1227337  16.10 0.0005892778    1.634    0.388
        40 -12.0706    128.4512    244.5627   1.3091791907e+02   8.8506565196e+00    0.2676094    0.2390093 -33.18  0.001975169    1.590    0.371
        41 -11.8329     35.0242    229.9004   1.4595626015e+02   2.4202869227e+01    0.2718352    0.1704377  73.47   0.00100722    1.200    0.167
        42 -10.6041    144.1704    243.1521   1.2797966207e+02   6.5900329441e+00    0.1618109    0.1176324  60.90 0.0004910312    1.330    0.248
