#   1 NUMBER                 Running object number                                     
#   2 MAG_AUTO               Kron-like elliptical aperture magnitude                    [mag]
#   3 X_IMAGE                Object position along x                                    [pixel]
#   4 Y_IMAGE                Object position along y                                    [pixel]
#   5 X_WORLD                Barycenter position along world x axis                     [deg]
#   6 Y_WORLD                Barycenter position along world y axis                     [deg]
#   7 A_WORLD                Profile RMS along major axis (world units)                 [deg]
#   8 B_WORLD                Profile RMS along minor axis (world units)                 [deg]
#   9 THETA_WORLD            Position angle (CCW/world-x)                               [deg]
#  10 FWHM_WORLD             FWHM assuming a gaussian core                              [deg]
#  11 ELONGATION             A_IMAGE/B_IMAGE                                           
#  12 ELLIPTICITY            1 - B_IMAGE/A_IMAGE                                       
         1 -12.5362     60.4413     44.6533   1.0136395792e+02   5.9915496102e+01    0.9267026    0.4478112 -38.55  0.004637229    1.965    0.491
         2 -13.2386    120.6857     39.2208   8.1526269165e+01   4.9545319870e+01    0.9243619     0.737437  89.16  0.002826929    1.652    0.395
         3 -10.9702    162.2212     32.5839   7.1134605486e+01   4.0744245218e+01    0.5809403    0.2952589  37.37  0.002410488    2.650    0.623
         4 -11.8222    105.9979     20.1174   7.8623715465e+01   5.4903361479e+01    0.4013766    0.2259767 -21.55  0.000440388    1.978    0.495
         5 -11.9344     22.6825     11.1614   1.0322146649e+02   6.9225438094e+01    0.4960369    0.2815377   3.48  0.002589283    1.754    0.430
         6 -11.7346    177.8829     22.0867   6.5915223519e+01   3.8212598390e+01    0.8333151    0.4276314 -13.25  0.003468608    3.379    0.704
         7 -11.4298    154.2099     25.3113   7.0436703693e+01   4.3504811739e+01    0.5147622    0.3613749  50.22   0.00285551    1.328    0.247
         8 -11.6899    222.8939     21.3176   6.0417199554e+01   2.7773107705e+01    0.3990972    0.2339228 -75.02  0.002118318    1.696    0.410
         9 -11.7428     90.4523     19.7899   8.2532428245e+01   5.8052504801e+01    0.4877995    0.4109512  -1.84  0.002644869    1.178    0.151
        10 -11.4838     86.0555     14.1534   8.1639101007e+01   5.9462088259e+01    0.4623888    0.2751429  -2.37  0.001959868    1.974    0.493
        11 -11.1930     47.1052     18.6611   9.6302763633e+01   6.5367815432e+01    0.3136136    0.2497955   9.81  0.001441428    1.081    0.075
        12 -12.2779     49.0121     12.9775   9.3198187361e+01   6.5759628039e+01    0.8772383      0.34565  43.90  0.004363391    2.647    0.622
        13 -10.9944     42.0799     14.2113   9.6387970850e+01   6.6570118546e+01    0.3373068    0.1439136  34.87   0.00142603    2.198    0.545
        14 -11.1191     38.7124     22.0195   1.0098492219e+02   6.6030607256e+01    0.3363494     0.171063 -31.20  0.001385551    1.778    0.438
        15 -11.7117     35.5532     19.2226   1.0112568313e+02   6.6773929947e+01    0.5547565    0.2047516 -29.30  0.002659647    2.690    0.628
        16 -12.4520     69.4436     18.3654   8.8281460560e+01   6.1995253458e+01    0.6415536    0.4033712  40.17  0.003862692    1.448    0.309
        17 -11.7421    245.0760     15.8070   5.7268127890e+01   2.3586188241e+01    0.2864069    0.2621145 -87.00  0.002069272    1.307    0.235
        18 -12.6511    237.9230     14.6690   5.7645405337e+01   2.5250710661e+01    0.6527705     0.530628  24.35  0.004083695    2.108    0.526
        19 -12.0328    236.5789      9.7938   5.6787598878e+01   2.6106446848e+01    0.4528334    0.2234363 -45.72  0.002224049    1.836    0.455
        20 -12.2454    246.2151      6.6093   5.5407064959e+01   2.4420375232e+01    0.5764529    0.3033694  77.97   0.00331841    1.677    0.404
        21 -11.9169    241.5734      3.8558   5.5232606743e+01   2.5706018277e+01    0.4893979    0.1967678  67.71  0.002491323    2.226    0.551
        22 -10.3849    207.3041     18.4900   6.1421265931e+01   3.1672094294e+01    0.4242557     0.148744 -48.92  0.001757339    2.849    0.649
        23 -11.2503    165.6790     17.2378   6.6377515793e+01   4.1649101171e+01    0.3581037    0.2365918  54.21 0.0006310178    1.392    0.281
        24 -10.3575    191.8190     16.3052   6.2677033254e+01   3.5540506238e+01    0.2571236    0.1874514 -16.63  0.001470282    1.861    0.463
        25 -10.6906    198.9855      5.7748   5.9409369665e+01   3.4974346182e+01    0.2391728    0.1053856  70.49 0.0006797514    1.915    0.478
        26 -11.9886    192.4664      7.5040   6.0506038628e+01   3.6313880395e+01    0.6680529    0.4090331  24.32  0.003201508    3.017    0.669
        27 -11.8714    107.7088      2.0198   7.1943504237e+01   5.6172960562e+01     1.158025    0.2340417  62.00   0.00364503    4.881    0.795
        28 -11.7420    120.0529      7.3058   7.1193955611e+01   5.3093693887e+01    0.5307911    0.3117348  78.45   0.00219588    2.129    0.530
        29 -10.2692    115.2049     16.2459   7.5169427096e+01   5.3337721928e+01    0.3584916    0.1285301 -39.18  0.001464701    3.331    0.700
        30 -10.3665    140.6778     12.3815   6.8974182389e+01   4.7998277392e+01     0.246598     0.188674 -10.44 0.0009135744    1.581    0.367
        31 -12.0783     16.6616     13.8967   1.0710868470e+02   6.9467150500e+01    0.3887684    0.2133512 -20.12 0.0003727643    1.581    0.368
        32 -12.3060    104.9510     13.2024   7.6453900116e+01   5.5798474727e+01    0.4146552     0.301797  -9.99  0.002534972    1.513    0.339
        33 -11.1081    222.9694     11.4476   5.8313044402e+01   2.8907194880e+01    0.3176893    0.1975782  72.35 0.0009929518    1.427    0.299
        34 -11.6344    211.4997     10.1853   5.9133569211e+01   3.1636176903e+01    0.3559576    0.3007248  16.11  0.001339733    1.801    0.445
        35 -10.4613    157.5724     10.4992   6.5733008935e+01   4.4236399063e+01    0.3033225    0.1365893 -33.93  0.001441264    2.412    0.585
        36 -10.0762     31.8920     12.1036   9.9637410560e+01   6.8089461260e+01    0.1524611    0.1286133  -2.36 0.0004621912    1.267    0.211
        37 -11.0348     65.9641     10.5039   8.6239734302e+01   6.3394266055e+01     0.252191     0.178674  36.25 0.0008687662    1.244    0.196
        38 -10.2895      4.5909     10.2613   1.1127440489e+02   7.0971913332e+01    0.2961212    0.1183693 -23.13  0.001547096    2.658    0.624
        39  -9.8359    168.9007     10.0789   6.4020047530e+01   4.1605064086e+01    0.2095881    0.1316326  43.22  0.001122489    1.758    0.431
        40 -10.6019     87.1962      7.2407   7.8706334623e+01   5.9881720149e+01    0.5174524    0.2352961  49.88  0.002308664    1.840    0.456
        41  -9.8940    152.3033      7.3039   6.5628229106e+01   4.5765170919e+01     0.366401    0.1171831  47.93  0.001287088    3.037    0.671
        42 -10.2484      1.2673      7.3244   1.1166949904e+02   7.1613289612e+01    0.1528222   0.07182486 -40.31 0.0001954251    1.816    0.449
        43 -11.3105     77.1023      5.1593   8.0678548083e+01   6.1945950937e+01    0.4274328    0.2465643 -16.41  0.002175446    1.834    0.455
        44 -10.4857     62.9988      6.2417   8.5440963848e+01   6.4292554974e+01    0.2153291    0.1485287   2.35  0.001011917    1.354    0.262
        45 -11.6487    186.0191      9.0789   6.1615440501e+01   3.7665137999e+01    0.6771009    0.3062919 -77.39  0.002590753    3.510    0.715
        46 -10.1730    162.9946      5.5601   6.3623177193e+01   4.3419653617e+01    0.2161961    0.1727409  22.63 0.0009286275    1.578    0.366
        47 -10.8474     42.3298      3.4318   9.1575930547e+01   6.7697705932e+01    0.3909952    0.1927605   0.48  0.001979093    2.712    0.631
        48 -10.1362    174.9473      4.6447   6.1843849185e+01   4.0696427413e+01    0.2217686    0.1596331  68.33 0.0009926611    1.173    0.148
        49 -11.7256    225.1832      2.1337   5.6193715266e+01   2.9430619596e+01    0.5994384    0.2423416  88.81  0.002392171    2.718    0.632
        50 -11.0249    218.8507      2.6998   5.6849838816e+01   3.0773849358e+01    0.2907016     0.221964 -85.64  0.001587788    1.044    0.042
        51 -11.1341    157.6573      2.6687   6.3575036380e+01   4.4923371221e+01    0.3020996    0.2312521  87.18  0.001120017    1.246    0.198
        52 -10.6318    141.7757      3.7026   6.6221033292e+01   4.8512812878e+01    0.3320355    0.1874322  66.66  0.001780847    1.515    0.340
        53 -12.1427    134.0016      2.5875   6.7159761981e+01   5.0374632839e+01     0.327582    0.2275213  63.92 0.0004865117    1.220    0.181
        54 -10.6766     71.8331      3.3020   8.1470754436e+01   6.3047261714e+01    0.2338152     0.184552  28.94  0.001638153    1.040    0.039
        55 -11.3443    204.5066      2.1689   5.8049018989e+01   3.4067425322e+01     0.419659    0.1877385  83.03  0.001143967    2.154    0.536
        56 -12.9196     18.8412     22.9624   1.0979410034e+02   6.8014222638e+01    0.7061247    0.5424746  44.62  0.002633626    2.221    0.550
        57 -11.2520      2.8170      1.8406   1.0849582922e+02   7.2201702827e+01    0.3369618    0.1498164  13.43  0.002043366    2.317    0.568
        58 -10.3970    182.6782      1.7318   6.0215896255e+01   3.9156642738e+01    0.2147217    0.1514275 -87.95  0.001290797    1.291    0.225
        59 -11.5110     14.0164      9.5036   1.0645852755e+02   7.0281579049e+01    0.3651861    0.2260578  20.93  0.002605593    1.568    0.362
        60  -9.2216    162.6645      1.2585   6.2523572995e+01   4.3876220667e+01    0.1248309   0.08459705 -80.02 0.0001848799    1.574    0.365
        61 -12.5892    130.5199     13.9792   7.1302444885e+01   5.0167276518e+01     1.207529    0.5252331  74.17  0.004687435    3.204    0.688
        62 -12.3198      7.2080     88.8435   1.3266029099e+02   5.6705780820e+01    0.4427976    0.3799775 -47.52 0.0009474431    1.121    0.108
        63 -11.5369     44.4815     85.4110   1.1948249765e+02   5.4354374031e+01    0.3982583    0.3906607  37.28  0.002081054    1.240    0.194
        64 -11.4217     37.3987     85.8976   1.2199168021e+02   5.4980318198e+01    0.4980601    0.2518297  27.51  0.001419126    2.256    0.557
        65 -12.2797     18.7582    106.2582   1.3221189889e+02   5.2106899582e+01    0.2616435    0.2117741 -55.94 0.0002706151    1.034    0.033
        66 -11.2954     21.4980    114.2127   1.3276756973e+02   5.0088561390e+01     0.315605    0.2275942 -17.65  0.001009525    1.738    0.425
        67 -11.4150     28.3821    113.1148   1.3055442037e+02   4.9766455986e+01    0.3700228    0.2590233  18.33  0.002160133    1.772    0.436
        68 -12.4668     25.6754    107.6046   1.3036307784e+02   5.1255336348e+01     1.039254    0.5023288 -25.71  0.004465791    3.253    0.693
        69 -12.6640     18.5255     90.1537   1.2923066025e+02   5.5676202477e+01    0.5774996    0.2811289 -37.96 0.0003874665    1.977    0.494
        70  -9.9978    126.8303    113.9023   1.0213582186e+02   3.4772321872e+01    0.2260426    0.2076889 -12.66 0.0003066301    1.187    0.158
        71  -9.6831     88.2555    114.4606   1.1299753377e+02   4.1920360454e+01    0.2069364    0.1365195  51.34 0.0006196735    1.747    0.427
        72 -10.7740     67.0244    112.1750   1.1874649796e+02   4.5664923413e+01     0.462478    0.2433023 -62.18  0.002020352    1.946    0.486
        73 -10.9565    107.8739    112.5753   1.0692725458e+02   3.8859089125e+01    0.2960545    0.2046881 -88.05  0.001204579    2.349    0.574
        74 -11.5227      2.3949    112.1355   1.3793126790e+02   5.1876167341e+01    0.3788586    0.1973918 -65.00 0.0008796193    1.434    0.303
        75 -10.6421      5.7754    108.6255   1.3644530306e+02   5.2458616158e+01    0.2173653    0.1662283  52.21 0.0005025391    1.622    0.383
        76 -11.8049      3.7228    104.9798   1.3648467943e+02   5.3392772927e+01    0.3628904    0.3028251  -7.96  0.001530573    1.489    0.328
        77 -11.3954    170.6406    110.0028   9.0579425571e+01   2.5794602727e+01    0.4761382    0.4206761  32.57  0.001477536    1.245    0.196
        78 -10.8310    175.8092    106.4625   8.8564354065e+01   2.5303799435e+01    0.2804757    0.2715575  67.22 0.0006131163    1.052    0.049
        79  -9.9882     48.9075    112.1503   1.2421326804e+02   4.7937294903e+01    0.2031002    0.1766567 -89.13    0.0012309    1.277    0.217
        80 -12.3564     20.1022     95.4164   1.2977544301e+02   5.4415391378e+01    0.5364293     0.353781  -7.44  0.001871119    1.912    0.477
        81 -11.0564     78.2394    108.0681   1.1439497580e+02   4.4978012122e+01    0.4367023    0.3263071   6.45  0.002149107    1.707    0.414
        82 -10.5452    157.8064    106.0086   9.2410926938e+01   2.9597650369e+01    0.3308482    0.2542919 -23.22    0.0012113    1.542    0.351
        83 -11.1925    181.9828    103.6073   8.6558168259e+01   2.4420329963e+01    0.7617726     0.414775 -61.59  0.002752029    2.580    0.612
        84 -10.5035    143.4476    105.9833   9.5817261539e+01   3.2876624869e+01     0.314549    0.2757116  59.54  0.001188073    1.171    0.146
        85 -11.5458    145.7850    100.1931   9.3687508881e+01   3.3549088345e+01    0.5684779    0.3464768 -23.52  0.002192333    2.324    0.570
        86 -11.2666     85.7381    104.7360   1.1130794304e+02   4.4540463035e+01    0.3775553    0.2052246 -42.70  0.001203173    1.764    0.433
        87 -10.5912     51.8717     98.7402   1.2031672329e+02   5.0637862629e+01    0.5019972    0.1143495 -48.94  0.001643886    3.471    0.712
        88 -11.8841    244.5217    101.6421   7.5355941307e+01   1.0797150025e+01    0.3762287    0.3211946  82.67  0.000812005    1.256    0.204
        89 -10.6114    194.8109    101.4934   8.3518039654e+01   2.1820525549e+01    0.3009459    0.2792639 -52.03  0.001149275    1.053    0.051
        90 -10.7203     48.0915    103.1569   1.2252552159e+02   5.0082844787e+01    0.2124212    0.1822869 -45.77 0.0003617665    1.030    0.029
        91  -9.4825    136.6506    100.6819   9.6075042420e+01   3.5496184194e+01    0.1593455    0.1235795   5.87 0.0006833515    1.734    0.423
        92 -10.4936     67.2955     99.6265   1.1565533596e+02   4.8467330240e+01    0.3862915    0.2212869  49.01  0.001766253    2.211    0.548
        93 -10.7581     68.4824     95.7526   1.1429433913e+02   4.9150917052e+01    0.3300799    0.2530232 -16.87 0.0009952493    1.463    0.317
        94 -10.1455    209.9194     97.6501   7.9864461264e+01   1.9046021823e+01    0.2620927    0.2052588 -31.88  0.001322584    1.368    0.269
        95 -10.0995     57.5073     97.9716   1.1833688684e+02   5.0125112576e+01    0.2105804    0.1203532 -54.24 0.0007300212    1.563    0.360
        96  -9.7932     77.8699     97.0845   1.1170662019e+02   4.7475631043e+01    0.1956236     0.180315 -65.11 0.0002955946    1.173    0.147
        97 -12.3861      9.8413     97.4445   1.3338764179e+02   5.4681743661e+01    0.6228127    0.5719451  65.05  0.004595914    1.351    0.260
        98 -11.0079    126.3304     93.1369   9.6633904674e+01   3.9287142753e+01    0.3466451    0.2646025  39.71 0.0008462298    1.337    0.252
        99 -11.2227     81.5648     92.8024   1.0941007526e+02   4.7814417199e+01    0.4826241    0.3836641  74.12  0.002079454    1.755    0.430
       100 -11.3343    236.5224     92.2877   7.4438738499e+01   1.4106593082e+01    0.3903458    0.2788562 -78.47  0.001588095    1.595    0.373
       101 -10.9667    117.3868     93.0848   9.9015708854e+01   4.1174165054e+01    0.3476693    0.2127798  40.02  0.001527231    1.685    0.406
       102 -10.9348    102.2340     90.2488   1.0247900000e+02   4.4739654229e+01    0.4451406    0.3337756 -16.16  0.001333574    1.583    0.368
       103 -11.1464     89.3279     90.0930   1.0627309942e+02   4.7095491614e+01    0.3759156     0.265708 -42.97  0.001113369    1.335    0.251
       104 -10.0802     92.8907     85.7669   1.0395342478e+02   4.7359005145e+01    0.2126962    0.1837476 -10.04 0.0004850691    1.192    0.161
       105 -10.9124    184.0910     86.3018   8.1692019637e+01   2.7198465820e+01    0.6883092    0.3042578 -44.32  0.002601891    2.217    0.549
       106 -10.8775    152.4496     91.8889   8.9841302411e+01   3.3670353353e+01    0.3484873    0.2994989  54.62  0.001396073    1.158    0.137
       107  -9.9421    212.4945     87.4654   7.6992099717e+01   2.0294367448e+01    0.1453263    0.1345509 -68.61  8.46464e-05    1.029    0.028
       108 -10.9332    113.2193     84.7476   9.7758730827e+01   4.3690224456e+01    0.5387099     0.249093 -37.52  0.001904562    2.246    0.555
       109 -11.1300     66.7031     81.8022   1.1108390203e+02   5.2338031881e+01    0.4326532    0.3057472  20.01  0.002335594    1.567    0.362
       110 -11.6276     79.3229     82.7091   1.0726443211e+02   5.0259371637e+01    0.5304567    0.4712417  85.44  0.001952457    1.477    0.323
       111 -11.5303     73.8187     77.7015   1.0756318045e+02   5.2113027170e+01     0.582176    0.4252953  -2.11  0.003075357    1.608    0.378
       112 -10.8493    165.5606     83.0494   8.4530234528e+01   3.2234980253e+01    0.3705232     0.321364 -52.63  0.001500167    1.156    0.135
       113 -10.5414    127.0167     83.5169   9.3691674724e+01   4.1027915023e+01     0.229868    0.1456595  48.10  0.001027082    1.575    0.365
       114 -10.1969    108.6852     80.8997   9.7890451150e+01   4.5344340899e+01    0.3320949    0.2542456  -0.92  0.001555597    1.607    0.378
       115 -11.4845     52.8636     76.3244   1.1419052782e+02   5.5260615947e+01    0.5116891    0.2920608 -51.59  0.002193797    1.639    0.390
       116 -12.3018    241.1632     76.4996   7.0315638616e+01   1.5779652594e+01      0.71895    0.3479635  72.19  0.002993439    2.569    0.611
       117 -11.9026      2.0190     71.4420   1.3094840544e+02   6.0612858303e+01    0.5220822    0.1550492 -61.13  0.002373555    2.565    0.610
       118 -11.3877     14.2015     66.3339   1.2536770951e+02   6.0898498500e+01    0.2813126    0.2238398 -61.52 0.0008331633    1.315    0.239
       119 -12.4871      9.9345     62.2440   1.2593522240e+02   6.1976096384e+01    0.6218262    0.4145004  -2.78  0.004112801    1.657    0.396
       120 -10.6340     94.3868     76.3231   1.0068760232e+02   4.8936607837e+01    0.3944297    0.2606254  45.09  0.001481662    1.595    0.373
       121 -11.2338     58.5142     78.2913   1.1281954158e+02   5.4155966292e+01    0.2555653    0.2353499   2.15  0.000737523    1.138    0.122
       122  -9.8658    104.4940     75.9396   9.7589352050e+01   4.7105120277e+01     0.224632    0.1379026 -40.25 0.0009541853    1.608    0.378
       123 -11.6791     85.8481     73.7146   1.0251178917e+02   5.0934288382e+01    0.4834039    0.4459879  20.58  0.002496316    1.107    0.097
       124 -12.0610     78.9298     67.5712   1.0279329283e+02   5.3224234935e+01     1.895662    0.7586975 -51.99  0.006896779    3.351    0.702
       125 -10.4036    184.1425     60.8634   7.5051482800e+01   3.1492630506e+01    0.3019421    0.2271588  86.39  0.001536197    1.407    0.289
       126 -12.6568    186.0331     69.3464   7.6934031864e+01   2.9673039669e+01    0.9921008     0.656393 -61.83  0.004617454    1.685    0.406
       127 -10.2934    230.4969     73.3702   7.1036286725e+01   1.8616709233e+01    0.3021763    0.2081168 -75.23  0.001179565    1.555    0.357
       128 -11.3526     33.2730     71.7751   1.1982979168e+02   5.8279040313e+01      0.43491    0.2446824  26.04  0.002413407    2.004    0.501
       129 -10.1846     38.4785     73.5014   1.1843806707e+02   5.7427342368e+01    0.2119498    0.1751829 -38.55 0.0006890353    1.040    0.038
       130 -11.1214     41.8301     71.0037   1.1655547862e+02   5.7574229106e+01    0.4035155     0.249246 -43.68   0.00173895    1.364    0.267
       131  -9.7535     60.8083     72.8562   1.1046036285e+02   5.4926012259e+01    0.1593563    0.1559511  68.67 0.0004020735    1.302    0.232
       132 -11.4125    161.9102     70.4959   8.1827648184e+01   3.5312866957e+01    0.4536784    0.3378694  81.22  0.001490711    1.556    0.357
       133 -11.2965    143.6093     83.3871   8.9530479243e+01   3.7337521777e+01    0.4645703      0.33664 -21.49  0.001543426    1.662    0.398
       134 -10.4872     21.8913     72.0495   1.2399023853e+02   5.9200946625e+01    0.3345026    0.1390777  34.54  0.001593452    2.929    0.659
       135 -11.9982    122.4310     68.2016   9.0294507447e+01   4.4795840015e+01    0.5696133    0.3696965  51.22  0.002153569    1.535    0.348
       136 -10.4934    240.0116     69.0156   6.8830986711e+01   1.7235627804e+01    0.2344696    0.1418884 -67.22  0.001136726    1.770    0.435
       137 -10.7811    172.1450     67.9335   7.9098017445e+01   3.3269514864e+01    0.3708201    0.3049814 -61.97  0.001453604    1.255    0.203
       138 -12.2151    219.5276     66.2704   7.0922285039e+01   2.2240965848e+01    0.7359473    0.3332006  63.53  0.002922096    2.245    0.554
       139 -11.0152    209.4040     67.6470   7.2713859880e+01   2.4370365452e+01    0.4540578    0.2172256  48.76  0.001671295    2.363    0.577
       140 -12.0568     74.5125     49.4695   9.8223903958e+01   5.7009472899e+01    0.5298393    0.4849615  54.91  0.001592612    1.432    0.302
       141  -9.7786     25.6431     65.2676   1.2085670496e+02   6.0235816978e+01    0.1643743   0.08817302 -44.95 0.0004194228    1.482    0.325
       142  -9.9790     21.0145     65.0053   1.2250441907e+02   6.0661405939e+01    0.1823416    0.1395928 -36.12 0.0008762515    1.042    0.041
       143  -9.8666    204.3606     63.9523   7.2579321089e+01   2.6150700577e+01    0.1872418    0.1684897 -54.15  0.000342493    1.121    0.108
       144 -10.1233    198.1887     63.2664   7.3364318473e+01   2.7729187978e+01    0.2965046    0.1599027 -58.85   0.00123547    2.157    0.536
       145 -10.9113     58.1826     61.8708   1.0798795934e+02   5.7335499024e+01     0.361483    0.2723688 -59.83  0.001404968    1.731    0.422
       146 -11.0136    159.2533     61.6796   7.9891066616e+01   3.7390895751e+01    0.4621316    0.2691325  47.70  0.002069339    1.695    0.410
       147 -10.6998     87.5996     56.9468   9.6576063889e+01   5.3581609713e+01    0.4133437    0.2002196 -42.92  0.001254705    2.146    0.534
       148 -11.1498     91.6906     62.4673   9.7137507251e+01   5.1921931489e+01    0.3398636    0.3153027 -54.53  0.001179014    1.282    0.220
       149 -10.7690     91.3474     58.0487   9.5790866157e+01   5.2724387594e+01    0.3347914    0.2713376  54.51  0.001014561    1.454    0.312
       150 -10.3442    113.3220     61.1235   9.0489062383e+01   4.7913726743e+01    0.3387808    0.2231633 -38.76  0.001674057    1.560    0.359
       151 -10.1723     98.6141     62.3115   9.5014448016e+01   5.0656871720e+01    0.2576488    0.1715226  38.35  0.001027285    1.476    0.322
       152 -11.9597     13.7294     74.5942   1.2750472308e+02   5.9275978961e+01    0.4304276    0.2980453 -52.49  0.001803411    1.151    0.131
       153 -12.3028     49.1405     59.9314   1.1060842117e+02   5.8836506268e+01    0.6607192    0.5051708  69.50  0.002257787    2.449    0.592
       154 -11.1811     40.0312     55.6877   1.1263626978e+02   6.0641696326e+01    0.3554118    0.2953879 -86.39   0.00218428    2.055    0.513
       155 -11.7644     45.8779     48.9854   1.0822813099e+02   6.1135921946e+01    0.4144957    0.3075194 -12.98  0.001343034    1.221    0.181
       156 -12.1326     41.7188     45.4264   1.0859307073e+02   6.2213713783e+01    0.3214045    0.2399414  28.12 0.0003207717    1.466    0.318
       157 -11.4176    122.6446     59.0442   8.7394654553e+01   4.6259928689e+01    0.3968295     0.370063  76.48  0.001513572    1.195    0.163
       158 -10.8459    117.9739     56.0239   8.7633325756e+01   4.7741981530e+01    0.3388241    0.2816896  74.09  0.001085678    1.454    0.312
       159 -10.1006     26.0063     59.9976   1.1925139614e+02   6.1210705674e+01    0.9627616    0.4713831  50.84  0.003735965    5.335    0.813
       160 -11.3676     25.3452     55.3344   1.1814444358e+02   6.2132385519e+01    0.4385058    0.2589935  10.78  0.002016378    1.891    0.471
       161 -11.2804    136.7395     55.9384   8.3039359219e+01   4.3583983678e+01    0.5855206    0.4417281  16.42  0.002755561    1.638    0.390
       162 -10.4761    145.2975     52.1387   8.0009356191e+01   4.2162385085e+01    0.3498852    0.2891211  21.08  0.001586028    1.384    0.278
       163 -11.6342    145.8768     46.0087   7.8063380463e+01   4.2897926849e+01    0.5165574    0.3233739 -26.94  0.002168471    1.811    0.448
       164 -10.9187    218.5755     56.9366   6.8887859098e+01   2.3911622816e+01    0.4613507    0.1994887  73.20    0.0017843    2.782    0.641
       165 -11.2881    157.4822     56.5285   7.8782168846e+01   3.8613568987e+01    0.6518829    0.2718357  56.48  0.001911018    2.238    0.553
       166 -11.6659    156.0248     52.7494   7.7989750157e+01   3.9526850128e+01    0.5914025    0.5055869 -67.28  0.003196187    1.258    0.205
       167  -9.1628     34.6870     57.2908   1.1515573644e+02   6.0907444454e+01    0.1036565   0.09658241  86.36 0.0007001936    1.589    0.371
       168  -9.3360    134.3063     77.2914   9.0020421259e+01   4.0574382546e+01    0.1480895    0.1158457  14.14  0.000263419    1.577    0.366
       169 -10.7041    192.1482     65.6380   7.4937536124e+01   2.8801326613e+01    0.4222181    0.2629054 -87.81  0.001807822    2.147    0.534
       170 -10.0329     67.1036     54.8999   1.0258969461e+02   5.7285106175e+01    0.1839672    0.1737457 -30.21 0.0006361278    1.252    0.201
       171 -10.2348    142.3301    249.3314   1.2443322025e+02   2.3833596606e+00    0.1244001   0.09802449   8.21 0.0007051888    1.719    0.418
       172 -10.9094     60.6686     36.9018   9.8454794747e+01   6.1037841486e+01    0.2793427    0.1879152 -29.07   0.00113565    1.394    0.282
       173 -11.0048     29.2831     52.6316   1.1579280528e+02   6.2268083362e+01    0.4475879    0.1787314  31.11  0.002210259    2.767    0.639
       174 -11.0413    100.6106     43.2269   8.8065758008e+01   5.3205770509e+01     0.721304    0.2600248  48.85  0.002850607    2.622    0.619
       175  99.0000     93.9517     41.2645   8.9284292822e+01   5.4773428298e+01      2.30139    0.3258583  50.10  0.005245378    8.370    0.881
       176 -11.2100    113.1430     50.0181   8.6949020226e+01   4.9673223901e+01    0.7103515    0.4191169  24.68  0.003135351    2.221    0.550
       177 -12.4947    117.6173     42.8634   8.3463048586e+01   4.9729332019e+01    0.6728107     0.468759  78.89  0.003058021    2.082    0.520
       178  -9.4382    199.3192    244.6732   1.1259352259e+02  -6.3584228253e+00    0.1185264   0.09824762  65.78 0.0007046591    1.681    0.405
       179 -11.1892    240.1322     50.3037   6.4789786688e+01   2.0064864740e+01    0.3089896    0.2304329  75.31 0.0008995762    1.311    0.237
       180 -10.7102    246.7268     46.8751   6.3361103523e+01   1.9142373946e+01     0.251595    0.1566246  51.92  0.001341248    1.995    0.499
       181 -11.1271    202.4008     46.8253   6.8693880125e+01   2.9189313306e+01    0.4090639    0.2741515 -24.83   0.00205629    1.886    0.470
       182 -11.6118    173.9769     47.7223   7.3295409357e+01   3.5914177918e+01    0.6198535    0.3601329  65.93  0.002735833    1.649    0.393
       183 -10.6646    176.6504     43.1119   7.1617291211e+01   3.5904149533e+01     0.296189    0.2374818  89.57  0.001118075    1.238    0.192
       184 -10.1894     25.9976     48.0211   1.1563310594e+02   6.3380468049e+01    0.1807685    0.1343454 -24.53 0.0003550965    1.091    0.083
       185 -10.7803     21.0005     47.6148   1.1750522708e+02   6.3880929957e+01    0.2857979     0.230591 -29.32  0.001407528    1.073    0.068
       186 -10.2804      2.1693     48.4701   1.2536365775e+02   6.5018530034e+01    0.1762582    0.1702734   2.05  0.001448538    1.410    0.291
       187 -10.2232     51.9597     47.7965   1.0555056652e+02   6.0574479841e+01    0.2351649    0.1449326 -21.09  0.001294978    1.625    0.385
       188 -10.3257     13.6723     46.6987   1.2018909212e+02   6.4606716274e+01    0.3663341    0.1079343 -33.65  0.001426483    3.876    0.742
       189 -10.6754    194.4475     46.3701   6.9715721993e+01   3.1154028371e+01    0.5101535    0.2402458  86.23  0.001712834    3.763    0.734
       190 -11.1375     72.3739     46.1753   9.7780299764e+01   5.7864572596e+01    0.2741136    0.1989988 -35.51  0.001294178    1.382    0.277
       191  -9.5384     29.3139     46.3223   1.1376121846e+02   6.3366537009e+01    0.1247609   0.07327238 -21.40 0.0007040324    1.658    0.397
       192  -9.5556    132.4716     45.4729   8.0785144843e+01   4.6077210769e+01    0.1384697    0.1274306  43.37 3.073799e-05    1.012    0.012
       193 -10.4834    162.2803     43.7137   7.4240104823e+01   3.9298585967e+01    0.3446629    0.1849583  64.29  0.001546434    1.783    0.439
       194 -11.6279    155.8877     41.8101   7.4872651117e+01   4.1089066757e+01    0.3722162    0.3347119 -86.05  0.001042369    1.139    0.122
       195 -10.9360    153.2670     35.9414   7.3665548844e+01   4.2471014957e+01    0.2564186     0.226789  72.96 0.0003807674    1.068    0.064
       196 -11.0528     33.2691     42.4969   1.1089423758e+02   6.3614283860e+01     0.395713    0.3297455 -43.59  0.002730427    1.393    0.282
       197 -10.2938      4.4467     44.2519   1.2324904640e+02   6.5644509717e+01    0.2776707    0.1474934 -12.43   0.00166367    2.034    0.508
       198  -9.8151    139.4075     43.6819   7.8714140555e+01   4.4727611819e+01    0.2541729    0.1174971  55.69  0.001070447    1.971    0.493
       199 -10.0861    188.9844     42.0142   6.9422891320e+01   3.3070851926e+01     0.214216    0.1476637 -70.65 0.0003428962    1.564    0.361
       200 -10.0327     18.0143     41.9851   1.1693064883e+02   6.5093969390e+01    0.2504062    0.1281107   0.38  0.001349528    2.406    0.584
       201 -10.6495    133.3556     37.6317   7.8143482457e+01   4.6912626074e+01    0.4685014    0.2843723 -53.43    0.0022091    2.130    0.531
       202 -10.7015    231.1833     39.6706   6.3500680512e+01   2.3542164939e+01    0.2855249    0.1792374 -51.15  0.001078577    1.441    0.306
       203 -10.9130    226.1486     36.7216   6.3413946134e+01   2.5072127780e+01    0.3636195    0.2025557  75.48  0.001346837    1.723    0.420
       204  -9.7493    184.6183     39.7827   6.9502928971e+01   3.4423667510e+01    0.1967799    0.1157677 -47.91 0.0009462463    1.743    0.426
       205 -10.8333     81.2521     39.5109   9.2506609880e+01   5.7343366641e+01    0.4242772    0.3041956  65.33  0.001489154    2.186    0.543
       206 -11.0596     77.8276     34.2941   9.1686813417e+01   5.8645676157e+01    0.3592538    0.2146089  38.13  0.001105804    1.558    0.358
       207 -10.6299     81.9080     31.7298   8.9459018034e+01   5.8259531929e+01    0.3377791    0.2733619 -54.48  0.002039188    1.764    0.433
       208 -10.3386    218.2119     39.0393   6.4838092371e+01   2.6567892797e+01    0.2307472    0.1763183  81.04 0.0007584577    1.189    0.159
       209 -11.0504    176.6095     37.1191   7.0033844759e+01   3.6707393967e+01    0.2967303    0.2534125 -17.89  0.001428243    1.428    0.299
       210 -10.9448     22.4165     36.5596   1.1326955959e+02   6.5619377249e+01    0.3033172    0.1978886  35.07  0.001376143    1.974    0.493
       211 -11.3790      4.3683     35.9785   1.2077303179e+02   6.7075846675e+01    0.2582398    0.1891046 -19.20 0.0005472936    1.155    0.134
       212 -10.2708      6.7198     30.7941   1.1804099162e+02   6.7775525446e+01    0.2921009    0.1470875  -6.75  0.001691789    2.238    0.553
       213 -10.9575    205.8101     36.9327   6.5872605025e+01   2.9739284521e+01    0.3432716    0.1979253  70.53  0.001021104    1.611    0.379
       214 -10.4808    198.0463     35.0077   6.6417273870e+01   3.1829430946e+01    0.1645043    0.1438675 -85.76 0.0008251825    1.020    0.020
       215 -10.5302    172.4108     33.2500   6.9660699813e+01   3.8210232119e+01    0.1977754    0.1517793 -78.29  0.001062704    1.370    0.270
       216 -10.8136    127.4844    242.0076   1.2639343328e+02   6.1972123530e+00    0.1831047    0.1286823 -59.00   0.00103827    1.609    0.378
       217 -10.9495    164.2345     27.6175   6.9427679021e+01   4.0851827364e+01    0.2401196    0.2125001  72.67 0.0006904908    1.003    0.003
       218 -11.9795    105.6921     32.9979   8.3172781120e+01   5.3515717472e+01     1.004577    0.5028512  13.12   0.00319213    5.203    0.808
       219  -9.5668     15.4131    233.7771   1.4673029386e+02   2.3669628059e+01      0.15199   0.08397706 -70.25 0.0009450793    1.688    0.408
       220 -11.7909    115.5415     24.5057   7.7866786961e+01   5.2416911669e+01    0.4915194     0.209302  48.27  0.001477667    2.012    0.503
       221 -11.4404    110.1990     23.3882   7.8741888225e+01   5.3678637622e+01    0.3406684     0.235454  54.00  0.001329342    1.326    0.246
       222 -10.9895     69.7125     32.3839   9.3627602652e+01   6.0257288670e+01    0.3934888    0.2282287  36.91 0.0008850419    1.619    0.382
       223 -10.5600    221.8133     32.1585   6.2890413507e+01   2.6658146975e+01    0.2971853    0.2309604 -27.47  0.001212368    1.622    0.383
       224 -11.0956    211.4623     31.3121   6.3875519378e+01   2.9148423835e+01    0.3992512    0.2536054 -46.76  0.001729763    1.525    0.344
       225 -11.6490    140.5078     29.7073   7.4233317491e+01   4.6224916161e+01    0.6179386    0.2776009 -40.77  0.002705055    2.464    0.594
       226 -10.6533    133.2635     23.7048   7.3811898266e+01   4.8563464451e+01    0.3335749     0.267684 -79.74  0.001847814    1.509    0.337
       227 -11.1133    143.0329     24.3308   7.2131687207e+01   4.6242134403e+01    0.4489826    0.2676943  70.79  0.002237256    1.698    0.411
       228 -11.6522    139.8107     20.6148   7.1607201403e+01   4.7385856823e+01    0.5723131    0.2596915  51.99   0.00239069    1.882    0.469
       229 -10.7365    240.2912     31.6609   6.0874397603e+01   2.2617059996e+01    0.2750672    0.1916675 -41.90  0.001642021    1.455    0.313
       230  -9.6837    216.9719     31.9712   6.3389606253e+01   2.7789902624e+01    0.1595348    0.1333785 -83.85 0.0003827577    1.010    0.010
       231 -10.8058    189.4427     28.7710   6.6030683370e+01   3.4665371060e+01    0.4926378    0.2703749 -26.94  0.002362914    2.221    0.550
       232  -9.5336    182.5020     32.4154   6.7920337114e+01   3.5881836290e+01    0.1352607    0.1179326  77.91 0.0001712936    1.027    0.026
       233 -11.4151     56.4536     31.0071   9.7739779336e+01   6.2473526128e+01    0.3089574    0.2207171  38.24 -2.800446e-05    1.515    0.340
       234 -12.0144     48.0143     30.3217   1.0062456633e+02   6.3731053295e+01    0.5890885    0.2635236  28.42  0.002376787    2.300    0.565
       235 -11.8865     26.4934     27.6506   1.0828731658e+02   6.6604875326e+01    0.4426995    0.3560671  18.22  0.002707318    1.380    0.275
       236  -9.4877      9.2970    227.3154   1.4736891212e+02   2.5616003347e+01   0.09978101   0.07623215 -64.32 0.0002349403    1.606    0.378
       237 -11.0679    198.0811     28.8260   6.4919865383e+01   3.2602627039e+01    0.3803402    0.2335986  56.93  0.001922213    1.590    0.371
       238 -10.4191    199.4921     24.9507   6.3819845227e+01   3.2740017206e+01    0.2819584    0.1707677  68.56  0.001122203    1.469    0.319
       239 -11.8165    182.2369     25.3958   6.6161195146e+01   3.6791891375e+01    0.5492237    0.2688539  47.60  0.002062576    2.244    0.554
       240 -10.0401      4.5595    205.2214   1.4674980688e+02   3.0704320521e+01     0.165203   0.08188438 -68.67 0.0009572231    1.723    0.420
       241 -11.0610    121.9570     30.0000   7.8221560472e+01   5.0399484212e+01    0.3213412    0.1754694  58.90  0.001426754    1.740    0.425
       242 -11.6189    125.0043     26.7866   7.6504243622e+01   5.0089525536e+01    0.3934867    0.3374403 -83.93  0.001403264    1.403    0.287
       243  -9.7080     99.9718     30.4854   8.3806602465e+01   5.4981431986e+01    0.1964771    0.1158153  48.37 0.0008258456    1.547    0.353
       244 -10.3918    230.1440     27.5114   6.1010782379e+01   2.5381676272e+01     0.289573    0.1571406 -49.13  0.001530938    1.675    0.403
       245 -10.3943    233.6874    197.0189   9.7431608667e+01  -4.3311468984e+00     0.195163    0.1607129 -24.40 0.0007225937    1.119    0.107
       246 -10.4512    154.7203     19.3800   6.8661818660e+01   4.4025069181e+01    0.2530056    0.1958775 -89.50  0.001089459    1.348    0.258
       247  -9.9805     98.2257     26.8735   8.2993762960e+01   5.5752860447e+01    0.1759796    0.1716171  43.28  0.001184497    1.218    0.179
       248 -10.3545    250.3463     24.7288   5.8564722501e+01   2.1372722565e+01    0.2213358    0.1157057 -50.60  0.000671842    1.635    0.388
       249 -11.3328    214.3517     24.0960   6.1917139494e+01   2.9380880310e+01    0.3521928    0.2950546  75.10  0.001387478    1.169    0.144
       250  -9.9333     59.9969     24.4969   9.3923130535e+01   6.2793062213e+01    0.1875896    0.1345084 -21.92 0.0005726156    1.321    0.243
       251  -9.9423     17.0573    192.5048   1.4334319691e+02   3.2305722168e+01    0.1792436    0.1275054 -85.36 0.0003284767    1.094    0.086
       252  -9.8742     80.6279     19.3585   8.5187683133e+01   5.9934796680e+01    0.3041247   0.08983375  45.39  0.001236212    2.874    0.652
       253  -9.9043    169.4436    191.5540   1.0931903093e+02   8.5565400406e+00    0.1444536    0.1392264  30.12 7.674476e-05    1.014    0.014
       254 -12.1937      4.4950    184.5443   1.4521276738e+02   3.5239276679e+01    0.5662797    0.3255194  89.65  0.003425836    1.412    0.292
       255 -10.3980    249.8831    180.1172   9.1171449439e+01  -4.1672978553e+00    0.2600097    0.1660348 -30.91  0.001369789    1.422    0.297
       256 -10.3409    213.3409    181.3162   9.8144427308e+01   2.0889719206e+00    0.1483652    0.1082832   0.58 0.0004309147    1.708    0.414
       257 -10.4021    247.7997    173.8856   9.0266777036e+01  -2.7526473871e+00     0.334699    0.1677512  25.72  0.001337386    3.048    0.672
       258  -9.6433    198.2002    167.7760   9.8330278080e+01   7.6838050596e+00    0.2038184    0.1721544  -4.90 0.0005904503    1.322    0.243
       259 -11.6301      9.6579    165.8715   1.4246181346e+02   3.9038361155e+01     0.482887    0.2840432 -57.80  0.002860188    1.594    0.373
       260 -10.6524    246.0166     21.7239   5.8348903808e+01   2.2663072308e+01    0.1762359    0.1352246 -81.96 0.0007617203    1.068    0.064
       261 -10.7666    159.6970     29.8422   7.0792203468e+01   4.1677589830e+01    0.3768774    0.2726414  33.04   0.00135428    1.630    0.387
       262 -11.9505     13.1958    157.3162   1.4077723424e+02   4.0723232377e+01    0.4296627    0.2865954  76.46  0.001281814    1.464    0.317
       263 -10.1998     19.0848    165.1511   1.4026715581e+02   3.8383699811e+01    0.1907901    0.1476796 -62.82 0.0009153032    1.251    0.201
       264 -10.1406    205.0837    163.3531   9.5981482190e+01   7.1793070951e+00    0.2445389     0.200535 -27.13 0.0006861211    1.230    0.187
       265  -9.8978    188.6164    164.1956   9.9550944727e+01   1.0379201939e+01    0.2186968    0.1393261 -33.60 0.0006089659    1.683    0.406
       266  -9.6317    223.6650    156.7029   9.0958708159e+01   4.7817238852e+00    0.1457119    0.1111251   0.62 0.0004158897    1.649    0.394
       267 -10.7887    104.7707    154.2190   1.1726149382e+02   2.9578397774e+01    0.4368979     0.182352 -61.52  0.001501568    2.702    0.630
       268 -10.5924     31.2433    154.1689   1.3607732136e+02   3.9817886938e+01    0.3178497    0.2132068  68.33  0.001795453    1.596    0.374
       269  -9.4092      1.4830     20.5627   1.1680229160e+02   6.9716551943e+01    0.1069745   0.07620078 -23.66 0.0002805895    1.007    0.007
       270 -11.1875     30.5230    149.1495   1.3558889742e+02   4.1085247244e+01    0.3004438    0.1972408 -84.94 0.0005759084    1.425    0.298
       271 -11.6353     46.9391    146.2955   1.3095925796e+02   4.0032797894e+01    0.7063525    0.2554182 -65.19  0.002807012    2.415    0.586
       272 -10.4419    186.4667     15.0334   6.3016538499e+01   3.6942185541e+01    0.2503195    0.1593291  62.59 0.0006937862    1.397    0.284
       273 -10.2197    215.3181    152.6483   9.1637398889e+01   7.2247904733e+00    0.1504598    0.1156671 -74.91  0.000704735    1.740    0.425
       274 -11.0613     62.0466    149.6791   1.2755653692e+02   3.7347730814e+01    0.4280643    0.3151044  87.82  0.002273427    1.445    0.308
       275 -12.0552     23.1717    149.0494   1.3741010025e+02   4.1798282050e+01    0.4271875    0.2573327 -36.44  0.002260789    2.192    0.544
       276 -10.8946     16.0496    148.0064   1.3903473033e+02   4.2659361609e+01    0.3057866     0.156414  41.63  0.001579031    2.185    0.542
       277 -12.0606      5.2444    147.2347   1.4155891683e+02   4.3678884722e+01    0.3701929    0.3148625  -7.01  0.002214407    1.652    0.395
       278 -11.5431      3.1499    141.8578   1.4147449111e+02   4.5064506376e+01    0.3103281    0.2869632  53.74  0.002339036    1.341    0.255
       279 -11.5253      3.9077    136.5334   1.4068133351e+02   4.6235510146e+01     0.232761    0.1754699 -65.65 0.0003891365    1.106    0.096
       280 -11.6668    249.7614    144.1160   8.3731479267e+01   2.1654996436e+00    0.6575795    0.2304647 -41.59   0.00249824    2.487    0.598
       281  -9.4613     27.2831     14.6448   1.0269674455e+02   6.8299149961e+01   0.09318982   0.08444338 -31.52  0.000292216    1.664    0.399
       282 -10.2063    239.9479    146.5238   8.5868194004e+01   3.5551381606e+00    0.1959345    0.1411506  47.04 0.0008647927    1.549    0.354
       283 -10.7479     33.2165    144.3640   1.3423554190e+02   4.1962426396e+01    0.2477373    0.2113129 -84.87 0.0007773733    1.088    0.081
       284  -9.5319    133.4740    141.0029   1.0706836188e+02   2.7197163235e+01    0.2246368    0.1335032 -28.11 0.0008092104    2.513    0.602
       285 -11.3246     14.5103    140.3240   1.3847344142e+02   4.4580200147e+01     0.241051    0.1607672 -41.11  0.001436268    1.699    0.411
       286 -12.0679     29.8637    132.9292   1.3342364936e+02   4.5004168090e+01    0.4448136    0.2770705 -72.67 0.0004011404    1.395    0.283
       287 -12.3836     23.1203    135.4984   1.3560396853e+02   4.5001154969e+01    0.5671187     0.383623  50.57  0.003359995    1.698    0.411
       288  -9.2271    232.3039    137.6503   8.5238625594e+01   6.6910066571e+00    0.1474214    0.1082926 -68.37  0.000704074    1.699    0.412
       289 -10.5211     47.3614    135.0154   1.2899253418e+02   4.2705605967e+01    0.3033645    0.1237238 -53.78  0.001194556    2.070    0.517
       290 -10.5466     81.8879    134.9592   1.1942779147e+02   3.8086366115e+01    0.3203956    0.2089459  12.33  0.001201889    2.367    0.578
       291 -11.1427     71.9205    133.8290   1.2196418100e+02   3.9847208850e+01    0.4060497    0.2545956 -22.04  0.001699969    2.619    0.618
       292 -10.7566     10.6869    127.2561   1.3775911274e+02   4.7899900955e+01    0.4453977     0.102493 -54.14   0.00173663    3.093    0.677
       293 -11.5429    242.9834    128.0120   8.1355048337e+01   6.3681464734e+00    0.3180722      0.23442 -82.98  0.001585465    1.852    0.460
       294 -12.0633    240.3115    122.2543   8.0518589490e+01   7.9495976825e+00    0.7410519    0.4654641 -49.59  0.002855781    1.479    0.324
       295 -10.1654     92.6511    129.0505   1.1516015779e+02   3.7760849007e+01    0.2601257     0.205328  56.08  0.001317138    1.389    0.280
       296 -10.3914    186.9982    128.2334   9.1635220241e+01   1.8263556710e+01     0.208287    0.1305994  49.68 0.0008838878    1.647    0.393
       297 -10.3487     78.7421    128.0278   1.1884276357e+02   4.0237080343e+01     0.216645    0.2121249  16.79 0.0003579687    1.136    0.119
       298 -10.7023    223.8320    125.4932   8.3978266237e+01   1.0731412218e+01    0.4406824    0.2216505 -57.27  0.001650852    2.568    0.611
       299 -10.6861    221.7599    120.7822   8.3260815791e+01   1.2068870319e+01    0.4361471    0.2880675  81.51  0.001873619    2.260    0.558
       300 -10.6279     18.3915    124.6128   1.3529434895e+02   4.7934898504e+01    0.3734163     0.127611 -57.50  0.001453455    2.162    0.537
       301 -10.9801     55.9913    123.1582   1.2435895394e+02   4.4522985219e+01    0.4586706    0.3365382   1.60  0.002172078    1.844    0.458
       302 -11.7410    104.7612    121.2838   1.0997108027e+02   3.7449168337e+01    0.5028238    0.4646377 -72.07  0.001776143    1.097    0.089
       303 -10.5219     45.8313    120.4764   1.2678932783e+02   4.6336743086e+01    0.2517542    0.1983499  84.62  0.001445913    1.452    0.311
       304  -9.8933    204.3218    120.6789   8.6390519618e+01   1.5903650057e+01    0.1568422    0.1166409 -75.83 0.0007045144    1.673    0.402
       305 -10.0021    148.6432    119.6662   9.8119115074e+01   2.8776580744e+01     0.248384    0.1974801   1.69  0.001115005    1.697    0.411
       306  -9.3726     72.6663    119.7016   1.1877071768e+02   4.3114230877e+01    0.1442042    0.1054125 -25.49 0.0003073559    1.649    0.394
       307 -10.7278     34.1695    119.0830   1.2992536797e+02   4.7856547827e+01    0.2070015    0.1506049 -45.71 0.0008747659    1.285    0.222
       308  -9.8205    114.0453    115.9766   1.0609376842e+02   3.6899556919e+01    0.2273294    0.1845526  -9.24 0.0003545157    1.536    0.349
       309 -12.9073     33.7566     94.2081   1.2511919201e+02   5.3535774209e+01     1.638895     1.260441 -40.06   0.01027311    1.154    0.133
