#   1 NUMBER                 Running object number                                     
#   2 MAG_AUTO               Kron-like elliptical aperture magnitude                    [mag]
#   3 X_IMAGE                Object position along x                                    [pixel]
#   4 Y_IMAGE                Object position along y                                    [pixel]
#   5 X_WORLD                Barycenter position along world x axis                     [deg]
#   6 Y_WORLD                Barycenter position along world y axis                     [deg]
#   7 A_WORLD                Profile RMS along major axis (world units)                 [deg]
#   8 B_WORLD                Profile RMS along minor axis (world units)                 [deg]
#   9 THETA_WORLD            Position angle (CCW/world-x)                               [deg]
#  10 FWHM_WORLD             FWHM assuming a gaussian core                              [deg]
#  11 ELONGATION             A_IMAGE/B_IMAGE                                           
#  12 ELLIPTICITY            1 - B_IMAGE/A_IMAGE                                       
         1 -15.5493    113.8790    102.2640   7.7303907105e+01   3.9534440666e+01     4.773926     2.711874 -68.10   0.01555999    3.559    0.719
         2 -15.2444    127.8037     96.8174   7.1910644613e+01   3.7836901700e+01     5.935778     2.723695 -60.32   0.01544912    5.271    0.810
         3 -14.2157    149.8137     78.3237   6.1099896726e+01   3.6515041924e+01     3.798587    0.9002962 -41.15   0.01064638    4.084    0.755
         4 -16.3138    166.0018     92.6382   6.1570298661e+01   3.0191999283e+01     6.846462     5.076496  30.72   0.03252237    1.542    0.352
         5 -11.4802    129.4180     48.1175   5.6466468472e+01   4.6113958482e+01    0.5932866    0.3341444  -0.31  0.002113109    3.509    0.715
         6 -15.4951    146.4645     94.8488   6.6611257173e+01   3.4170633144e+01     8.514757     3.718784 -57.48   0.02293769    4.811    0.792
         7 -11.0959     57.9105     40.5013   7.5752477355e+01   6.1369464189e+01    0.5399313    0.1955479 -40.44  0.002207994    2.685    0.628
         8 -10.0627     72.4971     27.9880   6.5226970436e+01   6.0758320862e+01    0.2818862    0.1361991  18.95  0.001040743    3.489    0.713
         9  -9.8712     40.9636     14.0926   7.1433970668e+01   6.7675325343e+01    0.1868608    0.1401823   6.28 0.0004597057    1.079    0.073
        10 -11.4814    160.0191    243.9382   9.4497143322e+01   1.5098662986e+00    0.2972665    0.2181323 -63.76   0.00135295    1.969    0.492
        11 -12.5293    166.7911    248.4400   9.3785482205e+01  -1.9836347224e-01     0.552496    0.3336568  29.69  0.003136936    1.410    0.291
        12 -11.4477    167.9789    242.9155   9.2745463909e+01   4.9452259142e-01    0.2410373    0.1859492 -46.17 0.0008829608    1.556    0.357
        13 -11.8889    101.6158    234.2955   1.0530771679e+02   1.1871097527e+01    0.3696486    0.2236119  28.14  0.001962841    1.708    0.415
        14 -10.4802     85.7503    234.5944   1.0864298613e+02   1.4031775486e+01     0.184293   0.09670862  45.30  0.000952419    1.655    0.396
        15 -10.5857    169.9377    232.3988   9.0751424529e+01   1.9089634828e+00    0.3197873     0.185823  20.13  0.001141396    1.824    0.452
        16 -12.1987     87.3337    227.4055   1.0752807453e+02   1.5236513160e+01    0.4262591    0.2442123  27.29  0.002063052    1.921    0.479
        17 -11.1421     89.0000    222.9884   1.0666696124e+02   1.5898434737e+01    0.2678484    0.1664514 -55.81  0.001450324    1.741    0.425
        18 -10.8390     73.0859    229.1845   1.1070951767e+02   1.6797383710e+01    0.2445975    0.1408129  53.07  0.001125697    1.599    0.374
        19  -9.6312    171.0196    225.7030   8.9464394414e+01   2.8694773367e+00    0.2222133    0.1501658  38.75 0.0003410567    1.406    0.289
        20 -11.2679    164.4551    226.1014   9.0892525419e+01   3.8236025032e+00    0.4574614    0.3262851  19.30  0.002573222    1.349    0.258
        21 -10.7229    160.5084    227.0222   9.1862638982e+01   4.2791588690e+00     0.278537     0.233749 -26.62  0.001715979    1.263    0.208
        22 -11.5469    129.7802    227.5081   9.8455834628e+01   8.9698359654e+00    0.4226232    0.2595937 -85.56   0.00180017    3.280    0.695
        23 -11.5195    123.6867    224.6696   9.9371346793e+01   1.0445306293e+01    0.3162625    0.1871019 -48.73  0.001333598    1.870    0.465
        24 -11.9593    126.1298    220.9419   9.8314288874e+01   1.0789298697e+01     0.405378    0.2943076  34.06  0.001484491    1.257    0.205
        25 -12.1631     99.1174    226.2054   1.0487289868e+02   1.3809742861e+01    0.4034674    0.2913129  33.21  0.001646548    1.325    0.246
        26  -9.2187    185.6617    227.3380   8.6741809981e+01   3.4784474883e-01    0.1211634    0.1024063  62.77 0.0007051026    1.758    0.431
        27 -10.5960    108.0875    223.3901   1.0258221297e+02   1.3055333133e+01    0.2551726    0.2033668 -19.25  0.001467778    1.641    0.391
        28  -9.1540    157.2534    221.6175   9.1695917271e+01   5.7504982580e+00    0.1852846    0.1150675  25.78 0.0004409424    1.567    0.362
        29 -10.9555    116.7484    226.9616   1.0117894129e+02   1.1058424508e+01    0.2708105    0.1892239 -60.84 0.0009047172    1.618    0.382
        30 -10.7376    131.6007    214.7837   9.6201560937e+01   1.1135034704e+01    0.3019917    0.2320669  13.96  0.001069416    1.439    0.305
        31 -10.1717     83.7735    220.7535   1.0753803483e+02   1.7084854509e+01     0.185356    0.1342435  62.57  0.001066756    1.355    0.262
        32 -10.1201     75.1713    220.1903   1.0933138896e+02   1.8367770926e+01    0.1837153    0.1306492  60.75 0.0007321093    1.333    0.250
        33 -10.5818     99.8171    217.3624   1.0361480302e+02   1.5499776351e+01    0.2703376    0.2228369 -84.25  0.001413983    1.312    0.238
        34  -9.6426     62.3258    217.6659   1.1182295320e+02   2.0560032280e+01    0.1356105   0.08144344  65.21 0.0007051346    1.715    0.417
        35  -9.3588     86.4944    210.0057   1.0565326161e+02   1.8973973925e+01    0.1820232    0.1076558  82.79 0.0007954119    2.409    0.585
        36  -9.9790    135.9761    208.7256   9.4282472025e+01   1.1634073436e+01    0.1935508    0.1679955  35.63 0.0004567966    1.072    0.067
        37 -10.8734    100.0834    207.0090   1.0217531834e+02   1.7638140610e+01    0.3324738    0.1751501  44.61  0.001509395    1.785    0.440
        38  -9.3618    123.9587    205.7791   9.6535267646e+01   1.4180763609e+01    0.1828988     0.162893  40.68  0.001071008    1.054    0.052
        39  -9.2345    167.8457    204.3855   8.6516823287e+01   7.1995720281e+00    0.2066408    0.1218345  25.42 0.0009561168    1.755    0.430
        40  -9.8476    132.2293    204.4357   9.4438832861e+01   1.3114834227e+01    0.2011314    0.1211782  45.47 0.0009491429    1.637    0.389
        41  -9.6703     80.7679    202.1582   1.0597039259e+02   2.1493925982e+01    0.2430443    0.1248352  66.78 0.0009606433    2.905    0.656
        42 -10.6202    152.4967    199.6864   8.9057588131e+01   1.0689917948e+01    0.5208715    0.2548354  29.80  0.002161559    2.148    0.535
        43 -11.2459     89.3098    199.2326   1.0360039197e+02   2.0930222373e+01    0.3420228    0.2465981  69.29  0.001278356    1.531    0.347
        44 -10.8132    179.1232    198.8000   8.3085758569e+01   6.3524250947e+00    0.7271425    0.2376194  36.57  0.002598297    2.980    0.664
        45 -10.4316    172.9870    195.9416   8.3866369305e+01   7.9271936340e+00    0.3224952    0.2802522  37.36 0.0009250189    1.202    0.168
        46  -9.4973    174.3075    192.2890   8.2892588284e+01   8.3977558097e+00    0.2186964     0.184876   6.82 0.0005577467    1.134    0.118
        47 -10.5734    113.6586    198.5508   9.7791744791e+01   1.7363055075e+01    0.3479283    0.2036304  51.88  0.001595058    1.846    0.458
        48 -10.1842    126.7610    197.7643   9.4607582062e+01   1.5405087470e+01    0.2870001    0.2395733  -6.77  0.001236959    1.390    0.280
        49 -10.6108    249.4817    197.3414   6.9313987352e+01  -4.2878112458e+00    0.2771295    0.1108326  37.00  0.001278808    2.682    0.627
        50  -9.8191     67.0523    195.0862   1.0827984434e+02   2.4935575719e+01     0.341125    0.1826677  75.25  0.001431087    2.667    0.625
        51 -10.1153    180.9356    192.6840   8.1547200577e+01   7.1849631007e+00    0.2033428     0.177893  15.21   0.00116753    1.063    0.060
        52 -10.4799    140.1535    190.6037   9.0259181118e+01   1.4659811339e+01     0.262926    0.1771017  29.44  0.001055227    1.486    0.327
        53  -9.9545    130.6380    189.4234   9.2281218445e+01   1.6540309901e+01    0.2844646    0.1283192  41.56  0.001130495    2.139    0.532
        54 -12.2998     96.0697    186.5118   1.0013469375e+02   2.2804119173e+01    0.7396517    0.4653668  70.03  0.002784665    2.170    0.539
        55 -10.3861     87.4301    189.3144   1.0265576099e+02   2.3449900123e+01    0.2542074    0.1529644  54.35  0.001193517    1.778    0.438
        56 -10.3795    156.9158    187.8968   8.5909829779e+01   1.2299333524e+01    0.3346689    0.2056867  36.82 0.0009342035    1.572    0.364
        57  -9.9968    149.9938    188.5120   8.7603503443e+01   1.3387686481e+01    0.2279651    0.1361711  38.25  0.001037207    1.614    0.380
        58 -10.6031    121.0288    186.7419   9.4107372270e+01   1.8747811262e+01    0.3342579    0.2119016 -53.79  0.001233857    1.625    0.385
        59  -9.8416     55.9861    187.9848   1.1004326950e+02   2.7966203934e+01    0.2277813    0.1386356  65.56  0.001134455    1.789    0.441
        60  -9.5158     34.9869    187.9823   1.1495285055e+02   3.0324543955e+01    0.2159314    0.1263122  65.64  0.001066362    1.746    0.427
        61 -10.9899    109.6757    186.1327   9.6753235236e+01   2.0751430139e+01    0.4927543    0.2750158  62.24  0.001927142    2.688    0.628
        62 -10.5168     15.0727    184.9632   1.1918982900e+02   3.2915143248e+01    0.4185713    0.2758076 -27.04  0.002252381    2.410    0.585
        63 -11.3613    211.2703    183.8079   7.3623573453e+01   3.6816614185e+00    0.5188897     0.246451  24.00  0.002038906    2.837    0.648
        64 -11.0737    198.3994    183.4539   7.6105607970e+01   5.9065162798e+00    0.3108189    0.2591853  75.17  0.001643277    1.899    0.473
        65  -9.6067     74.6527    184.3157   1.0506392545e+02   2.6420137970e+01    0.2294339    0.1501072  69.27   0.00111234    1.780    0.438
        66 -10.3373    149.5506    181.4888   8.6378830874e+01   1.4933810851e+01     0.362993    0.2324724  21.05  0.001617488    1.828    0.453
        67  -9.5845    129.9495    177.9705   9.0374079028e+01   1.9169858934e+01    0.2325781    0.1807526  72.36  0.001077516    1.657    0.397
        68 -10.2941    204.6192    175.9033   7.3324220886e+01   6.2157790274e+00      0.36271    0.1941406 -30.31  0.001438906    1.885    0.470
        69 -10.7742     77.8938    176.4384   1.0312590840e+02   2.7837840283e+01    0.5098339    0.1950626  46.93  0.001891719    2.826    0.646
        70  -9.6259     60.2958    177.3026   1.0766999617e+02   2.9963616409e+01    0.2906562    0.1288956  52.09  0.001178352    2.570    0.611
        71  -9.5041     13.7055    177.3580   1.1887954489e+02   3.4786505170e+01     0.204687     0.114444  65.15   0.00110291    1.780    0.438
        72 -10.4556    162.0426    176.1969   8.2461680264e+01   1.3782279388e+01     0.563764    0.2044834  40.27  0.001981701    2.725    0.633
        73 -10.5551    106.1912    175.5631   9.5823989770e+01   2.3743565541e+01    0.4156893    0.2346573  57.48  0.001692252    2.293    0.564
        74  -9.9739    135.3518    172.2407   8.7963519050e+01   1.9487016747e+01    0.2902761    0.2400003  55.63 0.0008786194    1.328    0.247
        75 -11.2794    122.4281    170.0908   9.0740592074e+01   2.2266062054e+01    0.4282005    0.3072627  64.90  0.001512213    1.779    0.438
        76 -10.4274    209.0590    169.1979   7.1059853842e+01   6.6669564233e+00     0.422422    0.2497194  -9.40  0.001736979    2.510    0.602
        77  -9.8768    169.8419    170.0065   7.9432639826e+01   1.3619348022e+01    0.3289214    0.2088844  42.40  0.001496039    1.616    0.381
        78 -10.0129    151.4029    170.5113   8.3770490475e+01   1.6935857635e+01    0.3160098    0.1446547  38.59  0.001212484    2.171    0.539
        79 -10.0632     55.8743    170.2832   1.0785574752e+02   3.2198704832e+01    0.2252314     0.154613  56.33   0.00118329    1.513    0.339
        80  -9.9531    112.1971    167.4952   9.2839539085e+01   2.4631191011e+01    0.3212798    0.2279658  79.02  0.001424826    2.001    0.500
        81 -11.3594    216.7805    165.0886   6.8720377667e+01   6.0690552654e+00    0.3743363    0.2032605  43.31  0.001340964    2.036    0.509
        82 -10.9097    140.4480    165.8038   8.5431958551e+01   1.9990298492e+01    0.4420982    0.3165662  53.20  0.001430089    1.579    0.367
        83 -10.2895    100.5176    166.9077   9.5743404195e+01   2.6704069058e+01    0.5465664    0.2122999  47.91  0.001866776    3.028    0.670
        84 -10.7189    160.8335    165.0809   8.0442317741e+01   1.6331205199e+01    0.3065553    0.2489617  43.69 0.0008881257    1.285    0.222
        85 -10.4907     80.4400    164.4657   1.0058717489e+02   3.0366817170e+01    0.5302362    0.2769368  69.61  0.001764516    3.813    0.738
        86  -9.1219     19.6445    166.3304   1.1648040604e+02   3.6883256388e+01    0.1365466   0.07994868  66.64 0.0007044867    1.784    0.440
        87 -10.8203    229.2698    160.3429   6.5443788814e+01   4.7771343884e+00    0.4873188    0.2172182 -26.50  0.001884837    2.673    0.626
        88  -9.8378     38.0430    164.9939   1.1173862170e+02   3.5474983271e+01     0.215589    0.1392653  68.64 0.0006682287    1.666    0.400
        89 -11.0285    152.0784    162.3930   8.1920960462e+01   1.8562949217e+01    0.5759657    0.3147763  25.57  0.002220568    2.322    0.569
        90  -9.3265    133.3082    164.6570   8.6953840052e+01   2.1558889645e+01    0.1522749    0.1206366  81.53 0.0007043792    1.693    0.409
        91 -10.0735     70.3528    163.5108   1.0310390487e+02   3.2007658593e+01    0.2947442    0.1707095  61.09  0.001274949    2.177    0.541
        92  -9.4596     47.8423    164.6089   1.0917091761e+02   3.4516469999e+01    0.1937418    0.1118864  44.89 0.0009505406    1.787    0.441
        93  -9.3631    207.5235    163.5079   7.0155466262e+01   7.9801315904e+00    0.2456655     0.129387  29.11  0.001028786    2.247    0.555
        94 -10.6323    179.9316    161.7417   7.5450886905e+01   1.3404841723e+01    0.4353341    0.2374027  36.16  0.001500203    1.900    0.474
        95 -10.7087     93.3866    160.5370   9.6466996428e+01   2.9371516371e+01    0.4318156    0.2641362  62.00  0.001691554    2.183    0.542
        96  -9.6351      8.7999    160.2005   1.1855691924e+02   3.9213443434e+01    0.3979516    0.1496731  79.29  0.001397876    4.149    0.759
        97 -10.1468    128.7488    159.4358   8.7026235996e+01   2.3582547990e+01    0.2997248     0.209793  60.62  0.001043395    1.798    0.444
        98  -9.5229     23.4801    159.9721   1.1487475870e+02   3.8080098374e+01    0.2676677     0.107399  59.10  0.001028827    3.386    0.705
        99 -10.1185    199.1886    158.7864   7.0786695064e+01   1.0377893472e+01    0.3698508    0.2075211  37.05  0.001551067    1.876    0.467
       100 -11.0486    169.5876    158.1666   7.6955501899e+01   1.6111204038e+01    0.4709554    0.3027211  37.31  0.001657137    1.584    0.369
       101 -10.9301    106.3575    158.3926   9.2618327938e+01   2.7774917916e+01     0.520667     0.289475  57.69  0.002001925    2.486    0.598
       102  -9.5412    189.9429    158.4779   7.2611336880e+01   1.2162585702e+01    0.2197434    0.1431412  36.76   0.00102621    1.588    0.370
       103 -10.8486    206.7911    155.6562   6.8603606476e+01   9.5694047389e+00    0.5417663    0.2924995  19.46  0.002015522    3.069    0.674
       104 -10.3821    213.2516    155.6609   6.7369106658e+01   8.3962964574e+00     0.249716     0.195425  34.76 0.0006800302    1.363    0.266
       105 -10.2200    158.5821    156.9192   7.9206634043e+01   1.8499693064e+01    0.2920921    0.2275959  47.33 0.0009451691    1.371    0.271
       106 -10.8566    119.7050    155.5828   8.8550267655e+01   2.6116338811e+01    0.4407466    0.3178106 -83.30  0.001751798    1.958    0.489
       107 -10.1970    219.2851    156.1148   6.6344227291e+01   7.2402743303e+00    0.2363352    0.1988575  39.28  0.000507837    1.338    0.252
       108 -10.8343    145.6200    155.4858   8.1988795065e+01   2.1310065087e+01     0.404042    0.2595818  55.39   0.00122987    1.913    0.477
       109 -10.6121     83.0428    155.5669   9.8358410938e+01   3.2165475719e+01    0.4777706    0.2465504  53.14  0.001895639    2.408    0.585
       110 -10.6590     50.1477    155.4087   1.0729869322e+02   3.6521624192e+01    0.4646914    0.2320155  57.00  0.001939839    2.555    0.609
       111 -11.0374    134.1474    153.7193   8.4451941035e+01   2.3889237006e+01    0.5286413    0.3725598  68.86  0.001885176    2.046    0.511
       112 -10.4310     68.7316    154.1890   1.0203897153e+02   3.4524715242e+01    0.3701503    0.2368487  59.36  0.001499137    1.852    0.460
       113 -10.3055    152.2854    153.5604   7.9955671545e+01   2.0447459005e+01    0.2842212    0.1471658  44.30 0.0008854744    2.000    0.500
       114 -10.8620    192.4212    151.0944   7.0463917635e+01   1.3136556482e+01     0.562813    0.2616363  39.84  0.002235179    2.273    0.560
       115 -10.3797    183.5572    151.6290   7.2439315214e+01   1.4742170553e+01    0.2806506    0.1829211  41.99  0.000824758    1.602    0.376
       116 -11.4900    163.4963    151.4462   7.6849616022e+01   1.8709724861e+01    0.3657921    0.2824329  61.61  0.001188713    1.625    0.385
       117  -9.7922     91.6508    151.6919   9.5284783751e+01   3.1799505659e+01    0.3072545    0.2084975  72.98  0.001333604    2.057    0.514
       118  -9.9576     99.1017    151.2498   9.3160965650e+01   3.0706063484e+01     0.288228    0.2033404  55.80  0.001174656    1.621    0.383
       119 -10.0608     28.9997    150.1798   1.1230450057e+02   3.9978766551e+01    0.3817559     0.187815  78.05  0.001551383    2.888    0.654
       120 -10.2611    143.0221    149.5619   8.1319180814e+01   2.3131678264e+01    0.2439649     0.204819 -43.90 0.0006335348    1.171    0.146
       121 -10.0913    202.0754    149.5180   6.8170807035e+01   1.1602270092e+01    0.3515644    0.1442398  44.06   0.00133241    2.616    0.618
       122 -10.7198     40.0501    147.9521   1.0899936556e+02   3.9463203372e+01    0.4492626    0.2350381  58.43  0.001978349    2.413    0.586
       123 -12.8818    150.0488    144.9247   7.8545049109e+01   2.2781470271e+01    0.7296052    0.6152789  81.02   0.00236382    1.532    0.347
       124 -12.7195    108.1632    145.0732   8.9416514717e+01   3.0658224251e+01    0.9541563    0.6412026 -89.42  0.003811429    2.441    0.590
       125 -11.3996     56.7612    146.1840   1.0405644586e+02   3.8041820269e+01    0.6173881    0.3368582  63.42  0.002361473    2.642    0.621
       126 -11.4264    176.6464    146.9615   7.2874480375e+01   1.7045567043e+01    0.4304662    0.2306809  44.73  0.001214848    1.963    0.491
       127 -10.7217    194.8527    249.3871   8.8440794559e+01  -4.3418836162e+00    0.2583452    0.1324035  21.30  0.001318516    1.929    0.481
       128 -12.1111    174.2015    245.2098   9.1842450251e+01  -7.7873256500e-01    0.4768904    0.3413062 -49.82  0.002886361    1.778    0.438
       129 -13.2201    119.1496    125.1952   8.1823874293e+01   3.3337208980e+01    0.8913825    0.6586645  82.49  0.003148292    2.065    0.516
       130 -12.0952     59.5709    124.0108   9.9217216155e+01   4.3227415613e+01    0.6817045    0.4094343  87.98   0.00271413    2.756    0.637
       131 -12.0245     43.4108    120.9032   1.0366970259e+02   4.5849520970e+01     1.050224    0.5036421 -83.18  0.003669876    3.572    0.720
       132 -10.7409    204.4678    123.0678   6.1632516945e+01   1.6131903671e+01    0.2723704    0.2558699  52.74 0.0009328561    1.190    0.160
       133 -11.4147     27.9679    121.4143   1.0857158533e+02   4.7178913571e+01     0.830914    0.3945875  78.85  0.002736692    4.653    0.785
       134 -11.0207    107.0375    248.8634   1.0585487531e+02   8.4143858457e+00    0.2546768    0.1610877  30.73  0.001464617    1.492    0.330
       135 -11.3923     71.1573    119.4196   9.4639397608e+01   4.2816838372e+01    0.4794211    0.2601195 -65.33  0.001604395    2.034    0.508
       136 -10.4979      2.5665    115.7064   1.1553888035e+02   5.0328959171e+01    0.6336248     0.222849 -83.76  0.002331558    3.526    0.716
       137 -13.2486     93.0193    111.1516   8.5877489931e+01   4.1381423129e+01     1.027772    0.5247763 -58.68  0.003418644    2.235    0.553
       138 -12.7188     78.9348    111.6414   9.0384631951e+01   4.3552544736e+01    0.8484671    0.5016084 -74.39  0.003257555    2.672    0.626
       139 -11.5215    197.3825    142.7145   6.7565147278e+01   1.3805489379e+01    0.5544555    0.3384399 -19.59 0.0005364044    2.072    0.517
       140 -12.1211     66.5778    109.6095   9.3867809100e+01   4.5831637267e+01    0.6757683    0.3310914 -63.62  0.002629065    2.292    0.564
       141 -10.8938     14.1774    109.6969   1.1108452379e+02   5.1079825651e+01    0.4882331    0.2522411 -77.57  0.002371154    1.890    0.471
       142 -11.5926     59.5656    108.4614   9.5901241553e+01   4.7033433637e+01    0.4827627    0.2201602 -44.61  0.001974164    2.045    0.511
       143 -12.2407     45.1121    101.6875   9.9245238276e+01   5.0355442807e+01    0.8097661    0.4890182  78.41  0.003217217    3.239    0.691
       144 -11.4270     43.5696     92.9761   9.7791930012e+01   5.2578599364e+01    0.5016435    0.3147841 -35.56  0.002001932    1.538    0.350
       145 -11.8747     22.1957     99.8603   1.0675956465e+02   5.2879810742e+01     1.157418    0.5184952 -77.81   0.00465038    2.855    0.650
       146  -9.8288      6.8378    102.7453   1.1241128415e+02   5.3196559508e+01    0.2434809    0.1449997  81.87  0.001243111    2.099    0.524
       147 -12.5451     82.1899     98.6326   8.6001782326e+01   4.6075631985e+01    0.7001535    0.3668865 -55.36   0.00287324    1.989    0.497
       148 -11.2117    138.5848    144.5415   8.1293487569e+01   2.5124649388e+01    0.3414197    0.2842419  59.85  0.001044442    1.377    0.274
       149 -13.0197     95.5448     95.1231   8.0774577296e+01   4.4572166487e+01    0.7901557    0.4388968 -41.38  0.003349986    1.728    0.421
       150 -12.3443     63.4777     95.4219   9.1410450539e+01   4.9599722043e+01    0.6576899    0.4656665 -78.41  0.002434997    1.986    0.496
       151 -11.8061     63.8846     88.2377   8.9349148158e+01   5.1178098246e+01    0.5032297    0.3040987 -25.49  0.002254985    1.948    0.487
       152 -10.1828      4.6091     90.9279   1.1129477898e+02   5.6102902667e+01    0.2784344    0.1603306 -85.83  0.001393086    1.978    0.494
       153 -10.9263      7.2021     84.9664   1.0932149671e+02   5.7347324959e+01    0.5146725     0.122919 -42.11  0.001755376    3.687    0.729
       154 -11.5361     35.1413     86.3728   9.9287235530e+01   5.4954057772e+01    0.9903717    0.2789986 -53.10  0.003718368    2.667    0.625
       155 -13.2150     87.1380     85.0471   8.0516193197e+01   4.8233300340e+01    0.8711777    0.5106029 -48.60  0.003019712    1.695    0.410
       156 -11.6508     47.8569     83.7224   9.3909093548e+01   5.4225044132e+01    0.5837319    0.4013274 -89.16  0.002681606    2.519    0.603
       157 -11.3147     49.0273     77.4908   9.1763332570e+01   5.5467137518e+01    0.4168182    0.2545155   0.12  0.001957929    2.118    0.528
       158 -12.1838     74.6149     78.5488   8.2766828707e+01   5.1684117852e+01     0.754105     0.274233 -46.12  0.002766763    2.559    0.609
       159 -10.8195     24.1293     80.3142   1.0200791261e+02   5.7290310263e+01    0.4298075    0.2339246 -73.12  0.001712199    2.220    0.550
       160 -11.3594     25.9608     73.0208   9.9523412121e+01   5.8771668387e+01    0.9362354    0.3507676 -24.40  0.002779927    5.802    0.828
       161 -12.2422     62.8046     69.7812   8.4267495471e+01   5.5281213786e+01     1.441327    0.2188829 -44.08  0.003637622    5.772    0.827
       162 -12.3659     81.9020     71.9212   7.8172285734e+01   5.1824766387e+01    0.6393261    0.4063337 -43.66  0.002329953    1.535    0.348
       163 -11.8569     82.4838     66.0194   7.6028815586e+01   5.2862023180e+01     0.627251    0.3740672   7.31  0.002503738    2.668    0.625
       164  -9.5302      9.8536     75.1694   1.0638228748e+02   5.9425787771e+01     0.179394    0.1148252 -39.11 0.0004255815    1.331    0.249
       165 -12.5960     95.0823     68.6634   7.2787657977e+01   5.0049555940e+01    0.8814079    0.3233686 -40.23  0.003170104    2.678    0.627
       166 -12.1535    125.5928    142.8582   8.4257006106e+01   2.8006783597e+01    0.7465021    0.5321673 -88.92   0.00308796    2.235    0.553
       167 -11.2764     50.8934     68.4503   8.8371162440e+01   5.7160088156e+01    0.4955378    0.2749931 -65.00  0.002061572    2.815    0.645
       168 -10.9128     50.7591     63.2470   8.6775863004e+01   5.8235738625e+01    0.3879674    0.1932277 -34.11  0.001748318    1.966    0.491
       169 -10.8848     88.8674    144.3536   9.4623293962e+01   3.4037105101e+01     0.427866    0.3021571  59.63  0.001689506    1.697    0.411
       170  -9.6820     16.4640     69.2185   1.0239353953e+02   6.0325249404e+01    0.3469675    0.1054781 -60.49  0.001375583    2.779    0.640
       171 -10.1071     17.7655     63.1868   1.0032390401e+02   6.1534848218e+01    0.3956496   0.09323173 -46.75   0.00151287    2.931    0.659
       172 -11.1494     37.7665     61.1093   9.1347626524e+01   6.0186450092e+01    0.6776761    0.1917781 -42.21  0.002477756    3.072    0.674
       173 -10.8542     69.9817    140.6618   9.9307809011e+01   3.7721971536e+01    0.4803777    0.2749632  85.45  0.001731538    3.235    0.691
       174  -9.8405      2.6162    141.4146   1.1836554447e+02   4.4134121575e+01    0.3296612    0.1298266  87.98  0.001317198    3.061    0.673
       175 -12.2210    100.3110     57.0730   6.7251103551e+01   5.1067722630e+01     0.739723    0.2870734 -37.07  0.002789965    2.585    0.613
       176 -11.0838     73.0104     59.0387   7.6939894744e+01   5.5776303694e+01    0.4676568    0.2343949 -44.83  0.002038249    2.024    0.506
       177 -11.9587     73.6610     52.6901   7.4442913820e+01   5.6795759760e+01    0.5638635    0.3467984   1.88  0.002504665    2.265    0.558
       178 -10.3907     42.7520     70.4425   9.2155823231e+01   5.7704516795e+01    0.4621046    0.1310262 -46.99  0.001692541    2.847    0.649
       179 -11.0049     88.8683     57.9252   7.1126387875e+01   5.3163191902e+01    0.3239314    0.1838298 -27.33  0.001443302    1.887    0.470
       180 -10.6462     25.3178     56.7428   9.5272391559e+01   6.2277314510e+01    0.3844803    0.1459742 -38.17  0.001668848    2.357    0.576
       181 -12.3491    119.2725     54.4036   6.1041394282e+01   4.7464559027e+01    0.5966874     0.359491 -32.74  0.002272567    1.702    0.413
       182 -10.9460      6.8673     56.7140   1.0330871129e+02   6.3601098061e+01     0.410998     0.128563 -58.95   0.00178542    2.510    0.602
       183 -10.1914     81.6436    139.6533   9.5743577917e+01   3.6303606244e+01    0.2970106    0.2050085  73.87  0.001185825    2.009    0.502
       184 -10.5782     53.5137     52.5210   8.2024834311e+01   5.9930141854e+01    0.4095658    0.2226952 -58.73  0.001703722    3.033    0.670
       185 -10.2848     53.5164     47.9813   8.0370707284e+01   6.0747047271e+01    0.3559833    0.1596572 -33.38  0.001557554    2.198    0.545
       186  -9.9901     44.0000     54.9849   8.6765599002e+01   6.0693368162e+01    0.2831325    0.1739026 -59.26  0.001388389    2.144    0.534
       187 -10.4461     45.2635     49.8155   8.4433614305e+01   6.1511761559e+01    0.3548991    0.2233588 -11.39  0.001836871    1.750    0.429
       188 -11.0664    105.7379     51.0697   6.3575971694e+01   5.0911996043e+01    0.4630643    0.2671909 -21.02  0.002041229    2.035    0.509
       189 -10.2370     78.3226    147.1574   9.8134220627e+01   3.4934128859e+01    0.2875409    0.1767101  60.09  0.001232626    2.109    0.526
       190 -11.1176     30.0000     47.9865   9.0392857497e+01   6.3566878225e+01    0.6277369    0.1519979 -37.85  0.001987141    4.546    0.780
       191 -10.7750     23.0185    137.2750   1.1231587158e+02   4.3675510948e+01     0.594145    0.2752301  87.98  0.002354753    2.987    0.665
       192 -11.5081    139.1502    138.3646   7.9719328166e+01   2.6407934934e+01    0.3248506    0.2744069  56.38  0.001176536    1.318    0.241
       193  -9.7606     22.2734     48.1080   9.3910290282e+01   6.4256860636e+01    0.3861224    0.1682773 -10.58  0.001425851    4.169    0.760
       194  -9.8279     13.2201    146.1440   1.1604885436e+02   4.2266782690e+01    0.2400353    0.1331958  58.59  0.001229054    2.026    0.506
       195 -10.5162     81.6201     46.8027   6.9504955976e+01   5.6361494598e+01    0.2774205     0.161885 -36.37  0.001168249    1.714    0.416
       196 -11.0674     83.6078     40.8529   6.6596322147e+01   5.6901746233e+01    0.4741616    0.2714436   5.41  0.001668293    2.807    0.644
       197  -9.7096    246.7098    247.1465   7.8596083703e+01  -1.0750984209e+01     0.189763    0.1355908  26.36  0.001308915    1.447    0.309
       198 -10.3134    206.9941    131.6630   6.3169925038e+01   1.4024215402e+01    0.3343687    0.1902483  44.25  0.001296331    1.909    0.476
       199 -10.9480    113.0938     43.5302   5.8937387279e+01   5.0442617468e+01    0.5540618    0.2995376 -10.64   0.00216444    2.873    0.652
       200 -13.8625    185.7473    116.2095   6.3592366907e+01   2.1328655683e+01     2.873396       1.3542  52.23   0.01107092    2.370    0.578
       201 -10.6377     45.2494     42.2725   8.1645733095e+01   6.2859606838e+01    0.5167252     0.141621 -34.85   0.00164288    4.441    0.775
       202 -10.6530     39.1095    135.9432   1.0750065305e+02   4.2547168705e+01     0.314471    0.2086715 -89.37  0.001194817    1.662    0.398
       203 -12.2058     92.4194     46.5456   6.5914130193e+01   5.4335378612e+01    0.7959667    0.2856336 -30.69  0.002866263    3.104    0.678
       204 -10.9750    105.9868     38.4205   5.9008642160e+01   5.2693900291e+01    0.4336627    0.2271743 -20.12    0.0017977    2.279    0.561
       205 -10.6164     68.8278     40.9985   7.1785781813e+01   5.9535554766e+01      0.24564    0.1787426 -55.48  0.001278082    2.043    0.511
       206 -10.7514     69.6431     36.6984   6.9788813267e+01   6.0049503369e+01     0.377151    0.2268992   6.98  0.001762471    2.154    0.536
       207 -11.9078    113.7074    133.7432   8.5369662120e+01   3.2363259389e+01     0.591624     0.348398  62.28  0.002170162    2.713    0.631
       208  -9.5750    236.8724    240.0738   7.9151231016e+01  -8.6524014852e+00    0.2809559    0.1280501  21.97  0.001425873    2.182    0.542
       209 -10.1613     95.0031    239.5134   1.0726732532e+02   1.1812719441e+01    0.1960428    0.1068277  37.67  0.001035484    1.600    0.375
       210 -11.5792     73.3361    129.1690   9.6058898202e+01   4.0110760669e+01    0.4342795    0.3380452  83.55  0.001783801    1.588    0.370
       211 -10.5149     12.7005    129.2857   1.1424296720e+02   4.6413396454e+01      0.45493    0.2195861  79.74  0.001923581    2.864    0.651
       212 -10.9466    108.3669    236.7303   1.0418615359e+02   1.0437690870e+01    0.2552134     0.130947  45.28  0.001278621    1.738    0.425
       213 -11.5636     63.4423     50.0570   7.7247950681e+01   5.8914698278e+01    0.7960363     0.282243 -34.07  0.002933618    3.045    0.672
       214 -10.3463      5.0189     39.3932   9.9243932757e+01   6.7188965604e+01    0.6821342    0.1162403 -54.42  0.002513151    3.785    0.736
       215  -9.9755     50.4753     28.3974   7.3801122291e+01   6.4344979657e+01    0.4196605    0.1871548 -14.38  0.001346016    5.090    0.804
       216 -12.2070     84.3801    131.9974   9.3363945975e+01   3.7774634660e+01    0.6057299    0.4188378  59.91  0.001856362    1.822    0.451
       217 -11.6071    127.4212    233.8770   9.9829344704e+01   8.1473799149e+00    0.3682755     0.248704 -16.06  0.001872645    2.244    0.554
       218  -8.6861    118.3611     25.2694   5.1260544321e+01   5.1561731110e+01    0.1434094   0.08973065  33.92 0.0003630706    1.648    0.393
       219 -12.6272    100.1709    128.7838   8.8038157614e+01   3.5965308524e+01    0.7586346     0.530961  70.56  0.002610494    2.091    0.522
       220 -13.5498    179.1100    124.1854   6.6934234059e+01   2.1167200780e+01     2.597753     1.248403  59.33  0.008848635    3.192    0.687
       221  -9.1586     40.8231     21.4051   7.4890489165e+01   6.6719262148e+01     0.162099   0.09948187  18.35 0.0001709441    1.549    0.355
       222  -9.4650     12.9891     21.4583   8.8594338102e+01   6.9816934596e+01    0.1631246    0.1017616  15.75 0.0007431051    1.587    0.370
       223  -9.8405     50.6238     15.8646   6.8147858415e+01   6.6003143268e+01    0.2472277    0.1358179  19.40  0.001100979    1.927    0.481
