#   1 NUMBER                 Running object number                                     
#   2 MAG_AUTO               Kron-like elliptical aperture magnitude                    [mag]
#   3 X_IMAGE                Object position along x                                    [pixel]
#   4 Y_IMAGE                Object position along y                                    [pixel]
#   5 X_WORLD                Barycenter position along world x axis                     [deg]
#   6 Y_WORLD                Barycenter position along world y axis                     [deg]
#   7 A_WORLD                Profile RMS along major axis (world units)                 [deg]
#   8 B_WORLD                Profile RMS along minor axis (world units)                 [deg]
#   9 THETA_WORLD            Position angle (CCW/world-x)                               [deg]
#  10 FWHM_WORLD             FWHM assuming a gaussian core                              [deg]
#  11 ELONGATION             A_IMAGE/B_IMAGE                                           
#  12 ELLIPTICITY            1 - B_IMAGE/A_IMAGE                                       
         1 -14.4487    168.3907     37.8639   7.5958237307e+01   3.8363746478e+01     1.279206     1.030683  10.70  0.004462433    1.470    0.320
         2 -14.0318    183.6838      6.2614   6.4050233031e+01   3.7808069173e+01     1.035923    0.8392942  79.95   0.00461653    1.101    0.092
         3 -11.1717    197.0227    245.4665   1.1814998869e+02  -2.2214374679e+00    0.1725072     0.143402  22.40 0.0006404001    1.133    0.117
         4 -10.0782    150.7567    250.6596   1.2725051113e+02   4.5700224417e+00    0.1681747   0.08388764  46.44 0.0003945597    1.559    0.359
         5 -19.7541     66.7557    180.9948   1.3601042096e+02   3.0164672667e+01     16.49593     5.339228 -69.06    0.0650901    3.250    0.692
         6 -12.8176    137.9896    198.3784   1.2272761515e+02   1.5190883909e+01    0.6406626    0.3507905  61.90  0.002780266    2.392    0.582
         7 -12.4439    155.3498    196.9400   1.1882505088e+02   1.2262404664e+01    0.4786579    0.3010871 -87.98  0.001859107    3.696    0.729
         8 -11.7445    208.0268    196.0338   1.0802646611e+02   2.5587971549e+00    0.2145828    0.1799787  24.01 0.0008059976    1.014    0.014
         9 -10.3809     22.0600    233.4423   1.4876430385e+02   2.5220366276e+01    0.1068302   0.08348661  57.61  0.000323889    1.269    0.212
        10 -11.6580    175.2030    193.7867   1.1415224377e+02   9.0607834863e+00    0.2951287    0.2234674 -74.90  0.001316102    2.037    0.509
        11 -11.3486     25.9838    230.3057   1.4794247817e+02   2.5360793023e+01    0.2619462    0.1270486 -76.84  0.001683878    1.945    0.486
        12 -11.0843    180.1015    192.3395   1.1288928856e+02   8.3690632394e+00     0.234944    0.2094855 -53.48 0.0006736716    1.372    0.271
        13 -12.5798    167.4641    190.9425   1.1525868433e+02   1.1023620055e+01    0.4407225    0.2904006  32.38  0.001655303    1.447    0.309
        14 -10.5927     13.5694    244.6273   1.5064557153e+02   2.4171441719e+01    0.2670471   0.06383968 -71.74  0.001347207    3.798    0.737
        15 -11.2979    176.7459    187.9088   1.1277792951e+02   9.7589622936e+00     0.232305    0.1989985 -69.69 0.0007459911    1.528    0.345
        16 -11.4218    184.1988    186.5845   1.1099672294e+02   8.5388064163e+00    0.3176059    0.2009764  49.40 0.0009633268    1.552    0.356
        17 -11.9126    154.1143    185.6454   1.1717331992e+02   1.4536001386e+01    0.2279036    0.2036027 -78.36  0.001160282    1.316    0.240
        18 -12.4294    205.5011    180.4677   1.0554921303e+02   5.4078621296e+00    0.5521299    0.3146232  41.84  0.001995723    1.594    0.372
        19 -12.2967    208.6866    178.6606   1.0457022008e+02   5.0786928699e+00    0.4329123    0.3236794  22.04  0.002283545    1.269    0.212
        20 -12.5722    196.1461    171.5219   1.0562137461e+02   8.7055569744e+00    0.7320591     0.400754 -46.34  0.002898233    2.155    0.536
        21 -12.8476    144.4413    168.4559   1.1620485226e+02   1.9729797426e+01    0.5148699    0.3687843  78.80  0.002000388    1.939    0.484
        22 -13.7406    137.5051    171.6612   1.1838552620e+02   2.0438988907e+01    0.8148388    0.4267906  49.92  0.003518676    1.831    0.454
        23 -12.9263    125.1229    172.8030   1.2144088236e+02   2.2541609211e+01    0.5204118    0.4102383   6.02  0.002639082    1.794    0.443
        24 -10.5817     22.4638    166.5896   1.4442119164e+02   3.8299878548e+01     0.290618    0.1876157   2.55  0.001387356    2.920    0.657
        25 -10.6783    223.8259    164.0350   9.8687626258e+01   4.4278258133e+00    0.1961891    0.1884019 -46.78 0.0005463462    1.315    0.239
        26 -10.9646    198.6905    222.8827   1.1442629118e+02   4.0653229919e-01    0.1691367    0.1445037  25.45 0.0004699549    1.096    0.087
        27 -10.7288     20.7140    219.3113   1.4826553049e+02   2.7903991488e+01    0.1129199   0.07650045  56.24 0.0002323322    1.209    0.173
        28 -12.1635    163.5271    155.8295   1.0933161463e+02   1.8320931581e+01    0.3418514    0.2975337 -40.92  0.001063437    1.234    0.190
        29 -13.6517    133.5636    145.5464   1.1421992256e+02   2.6663949906e+01     1.159383    0.4052108 -55.23  0.003594802    3.658    0.727
        30 -11.3909    129.3046    143.6991   1.1488603266e+02   2.7918379039e+01    0.2911883    0.2458091  60.01 0.0008032035    1.183    0.154
        31 -11.7803    175.8452    234.1479   1.2043683961e+02   2.7413880101e+00    0.2512876     0.165796 -31.98  0.001488723    1.942    0.485
        32 -11.0703    174.7954    148.9005   1.0531875928e+02   1.7242086432e+01    0.2769952    0.2199569 -65.61   0.00101323    1.592    0.372
        33 -12.5095      9.7979    145.3797   1.4554737304e+02   4.3978108036e+01    0.2706227     0.199757  89.60  0.001522775    1.068    0.064
        34 -13.4362      5.5757    139.4249   1.4605651416e+02   4.5590869365e+01    0.4766788    0.4629553 -39.12  0.003834954    1.387    0.279
        35 -13.4039      2.9264    126.4493   1.4559122051e+02   4.8628378758e+01     1.315444    0.3898379 -73.14  0.006009958    2.528    0.604
        36 -12.4718      3.5897    112.3215   1.4404031234e+02   5.1730465709e+01    0.3282646    0.3068793  35.22  0.001965978    1.357    0.263
        37 -12.8866    115.9597    138.1853   1.1712081460e+02   3.1736762077e+01    0.5469655    0.3293183 -43.63  0.002418109    1.796    0.443
        38 -12.8931    106.1502    138.0910   1.1966528814e+02   3.3574175309e+01    0.4938256     0.328122  64.36  0.001449545    1.789    0.441
        39 -11.7691    158.7514    204.7162   1.1937435694e+02   1.0290275812e+01    0.3452111    0.1947412  54.24  0.001280083    1.861    0.463
        40 -12.6961    144.7903    145.8644   1.1155720150e+02   2.4284510394e+01    0.4937582    0.3475153 -77.77  0.002143846    2.056    0.514
        41 -11.9942    163.4052    203.8321   1.1827757672e+02   9.5850817244e+00    0.3295428    0.2601303 -46.30  0.001043139    1.504    0.335
        42 -12.8584    106.0268    130.8681   1.1819814138e+02   3.5234382448e+01    0.4561422    0.3786104 -77.77  0.001247506    1.282    0.220
        43 -11.9042    108.9953    124.9811   1.1610345000e+02   3.6020240910e+01    0.3051889     0.288582 -16.43 0.0006880302    1.172    0.147
        44 -12.6899    119.6012    129.2982   1.1423264399e+02   3.3011980729e+01    0.4438517    0.4001971  28.99  0.001269213    1.175    0.149
        45 -12.7354    135.7419    122.2416   1.0836552989e+02   3.1224735106e+01     0.677493    0.2979974 -53.74  0.002333383    2.699    0.629
        46 -13.1511    124.8910    125.8229   1.1204073427e+02   3.2720177580e+01    0.7458476    0.3836471 -61.95  0.002697328    2.657    0.624
        47 -11.5451    114.0650    118.3677   1.1317919704e+02   3.6536423428e+01    0.2695629    0.2185117 -59.93 0.0003251925    1.268    0.212
        48 -11.6173    160.9612    198.4611   1.1790227549e+02   1.0950501657e+01    0.3056733    0.2022599  63.67  0.001248131    1.924    0.480
        49 -11.3450    160.5974    127.8677   1.0364783272e+02   2.4536260284e+01    0.3775929    0.2005489 -43.89   0.00149086    1.958    0.489
        50 -10.1709     29.9781    205.4995   1.4575477271e+02   2.9556820749e+01    0.1196468   0.09850576 -10.68 0.0008047322    2.277    0.561
        51 -10.6190    205.5276    110.2143   8.9646941932e+01   1.7340278972e+01    0.2800998    0.2115832  49.50 0.0006755642    1.326    0.246
        52 -12.3877     97.0196    110.3369   1.1607041316e+02   4.1524627075e+01    0.3884781    0.3186814  -3.65  0.001263906    1.540    0.351
        53 -11.0181    167.6271    112.8310   9.8218832276e+01   2.5893565799e+01    0.4210927    0.2944323 -89.92   0.00165166    2.356    0.575
        54 -12.3508     10.9638    110.7635   1.4179575817e+02   5.1626345531e+01    0.4888975    0.2108321   2.86  0.002127842    4.395    0.772
        55  -9.9489    168.9937    202.5221   1.1692013462e+02   8.7713094644e+00    0.2025182    0.1157684  42.65 -9.921425e-06    1.485    0.327
        56  -9.9123     20.4882    202.5173   1.4735064171e+02   3.1113180563e+01    0.1098096   0.08280008  75.79 0.0008100115    1.039    0.037
        57 -10.1992     13.2584     59.8195   1.3267737995e+02   6.2755477215e+01    0.1661695    0.1391369 -65.22 0.0005629986    1.162    0.139
        58 -14.0709    156.1447     53.3933   8.3334497389e+01   3.9395022076e+01     1.224111     0.909399  40.45  0.001052388    1.350    0.259
        59 -11.1184    131.9195    248.0477   1.3039741326e+02   7.9480942564e+00    0.2965351     0.144975  36.62  0.001580731    1.798    0.444
        60 -12.4927    171.9494     30.7310   7.3107126721e+01   3.8312786826e+01    0.4067137    0.3454659  11.79 0.0009829047    1.361    0.265
        61 -10.3747    138.2286     31.4671   7.9763446080e+01   4.7056928047e+01     0.327825    0.1473895  70.24 0.0008137948    2.951    0.661
