#   1 NUMBER                 Running object number                                     
#   2 MAG_AUTO               Kron-like elliptical aperture magnitude                    [mag]
#   3 X_IMAGE                Object position along x                                    [pixel]
#   4 Y_IMAGE                Object position along y                                    [pixel]
#   5 X_WORLD                Barycenter position along world x axis                     [deg]
#   6 Y_WORLD                Barycenter position along world y axis                     [deg]
#   7 A_WORLD                Profile RMS along major axis (world units)                 [deg]
#   8 B_WORLD                Profile RMS along minor axis (world units)                 [deg]
#   9 THETA_WORLD            Position angle (CCW/world-x)                               [deg]
#  10 FWHM_WORLD             FWHM assuming a gaussian core                              [deg]
#  11 ELONGATION             A_IMAGE/B_IMAGE                                           
#  12 ELLIPTICITY            1 - B_IMAGE/A_IMAGE                                       
         1 -12.2215    171.4926     50.3618   5.0938162356e+01   3.5927646760e+01     1.185742    0.9593245  22.06  0.004943667    1.556    0.357
         2 -11.6862    189.8362     25.0130   4.1306230717e+01   3.4710859988e+01     1.004714    0.4592581  66.40  0.004518759    1.971    0.493
         3 -11.9686    190.4240     19.1975   3.9734728778e+01   3.5233489408e+01    0.8218579    0.5115066  66.91  0.004376681    1.454    0.312
         4  -7.7293    120.6908     12.3391   4.8453870460e+01   5.3055704014e+01    0.1808795    0.1653599 -78.78 0.0007353002    1.243    0.195
         5  -9.4342    120.1058      8.8218   4.7318607625e+01   5.3517926840e+01    0.3164217    0.2653444  85.95  0.001398094    1.299    0.230
         6  -8.8673    193.8455      4.7873   3.5745029864e+01   3.5918513180e+01    0.1882144    0.1552802  69.41 0.0005620762    1.192    0.161
         7  -7.8543    210.6566      1.6824   3.3507887406e+01   3.2297739483e+01    0.1203182   0.08662008  48.79 0.0007048935    1.718    0.418
         8  -8.2630    247.4681    233.5224   7.8190534481e+01  -9.8482845121e+00    0.1183743   0.09033527   2.30 4.987973e-05    1.016    0.015
         9  -8.1815    238.1236    249.9299   8.2512653663e+01  -1.0678883693e+01    0.1594611    0.1306496   8.88 0.0003943301    1.213    0.175
        10  -9.0121    152.4691    249.0416   9.8687883198e+01   1.8135810280e+00     0.257159     0.221608  29.27 0.0008689299    1.068    0.064
        11 -18.4356     55.1915    219.3879   1.1557616850e+02   2.1755438064e+01     4.747752     3.892186 -82.22   0.01389058    1.225    0.184
        12  -8.9079    195.9924    216.1355   8.4822654886e+01   1.7190434286e-01    0.2101851    0.1720054  32.42  0.000372539    1.183    0.155
        13  -8.9982    197.1019    211.8664   8.3853353398e+01   6.8741102529e-01    0.2102922    0.1840556  12.17 0.0003036031    1.041    0.039
        14  -8.7133    197.7528    207.0586   8.2864503576e+01   1.3766197561e+00    0.2209207    0.1712865  27.52 0.0002668167    1.168    0.144
        15  -7.6989    175.5599    206.1117   8.7290876651e+01   5.3230501466e+00    0.1840928      0.13547 -43.22 0.0005571817    1.490    0.329
        16  -7.7899    224.4015    203.7832   7.7087595583e+01  -2.3958032871e+00    0.1705989    0.1104452 -22.77 0.0003036344    1.499    0.333
        17  -9.8381    191.4147    192.3596   8.1436172177e+01   5.0170188652e+00    0.4795027    0.3812051 -81.59  0.002431718    2.083    0.520
        18  -9.8162    180.2442    195.1516   8.4312057262e+01   6.4978355732e+00    0.4696011    0.1837363  34.17  0.001747245    2.620    0.618
        19  -9.5700    158.6745    223.4790   9.3747987096e+01   5.0980664660e+00    0.2541356    0.2224595  60.61  0.001174634    1.324    0.244
        20  -8.3689      5.1708    191.5108   1.2402505717e+02   3.3122273431e+01    0.2524329    0.1553617 -41.83  0.001439009    2.444    0.591
        21 -11.2205    154.5611    217.8043   9.3740816626e+01   6.8067687170e+00    0.9279419    0.4538696  36.80   0.00368278    1.808    0.447
        22  -8.9618    186.9581    186.9625   8.1330761799e+01   6.8035564185e+00    0.2466485    0.1957123  43.41 0.0002988145    1.300    0.231
        23 -13.5048     18.5448    248.7038   1.2458414131e+02   2.0167936090e+01    0.2647462    0.2253632 -69.45  0.001033865    1.567    0.362
        24  -9.5041    151.7007    182.7167   8.8336943739e+01   1.4203046992e+01    0.3364888      0.26808 -86.38  0.001258888    1.690    0.408
        25 -10.6442    146.9174    173.9586   8.7784181805e+01   1.6969558503e+01    0.8909355    0.5414415  68.94  0.003060983    2.939    0.660
        26 -11.4720    122.9250    171.2986   9.3149892561e+01   2.2076006950e+01    0.7587151    0.6719392  27.75  0.003310426    1.170    0.145
        27 -10.7967    138.2136    176.1801   9.0299062316e+01   1.8139236077e+01    0.5710074    0.3906624 -85.13  0.001440501    2.304    0.566
        28 -11.6010    132.2677    168.8918   9.0361745478e+01   2.0882414230e+01    0.8489327    0.6533402  61.64  0.001925967    1.440    0.305
        29  -8.0045    183.4959    178.4429   8.0386201066e+01   9.0533439567e+00     0.266829    0.2207779   4.75 0.0007385723    1.254    0.202
        30  -9.6193    180.2587    175.5613   8.0503605574e+01   1.0224581062e+01    0.7482553    0.2531629 -48.46  0.002463233    3.372    0.703
        31  -7.7605    166.2952    180.6362   8.4601169624e+01   1.1873447990e+01    0.1448629    0.1178518  84.57  0.000703092    1.713    0.416
        32 -10.0772    127.6827    162.3753   9.0234861593e+01   2.3236844242e+01    0.4455535    0.3660839  88.88  0.001198992    1.441    0.306
        33  -9.2901    191.0261    167.9665   7.6637976211e+01   9.6353950814e+00    0.4266538    0.3634966 -78.14  0.001344633    1.596    0.373
        34  -9.2831      2.6439    158.2188   1.2232138125e+02   4.0899841147e+01    0.2608992    0.1667514 -50.21 0.0008231882    1.738    0.425
        35 -10.7789    148.3734    156.6547   8.3894943060e+01   2.0468961618e+01    0.5434039    0.4033469  59.67  0.002522488    1.539    0.350
        36 -10.1087    143.6320    150.9341   8.3823734982e+01   2.2704181465e+01    0.3733976    0.3284047 -59.61   0.00109417    1.194    0.163
        37 -11.3069    134.2307    148.8440   8.5742315487e+01   2.5076041194e+01     1.371944    0.4655142 -55.55  0.003970501    3.755    0.734
        38  -8.9208    124.8936    144.1564   8.7151674473e+01   2.8017342640e+01    0.2784708    0.2197452 -84.96 0.0003981318    1.567    0.362
        39 -10.1095    128.2794    141.5339   8.5673091295e+01   2.7959070678e+01    0.4565234    0.3147583  50.95  0.001176811    1.508    0.337
        40 -10.0730    136.4944    224.5107   9.8640693966e+01   8.5902923044e+00    0.2352617    0.1649863  62.85  0.000942773    1.690    0.408
        41  -9.6759    139.3270    215.4094   9.6687609367e+01   9.8372533675e+00    0.3481318     0.204024  29.94  0.001433498    1.699    0.411
        42 -11.0115    146.6282    224.7719   9.6505013354e+01   6.8683741006e+00    0.4939132    0.3256824  46.68  0.002649424    1.414    0.293
        43 -10.7196      4.8331    138.9524   1.2012679163e+02   4.5307413202e+01    0.8213652    0.2585929 -75.75  0.003430123    2.598    0.615
        44 -10.6219      6.7266    147.9534   1.2045318081e+02   4.3033305238e+01    0.3973435     0.299965 -33.11  0.001344593    1.695    0.410
        45  -9.3804      9.6827    143.7056   1.1928711620e+02   4.3837529444e+01    0.2234644    0.1872989 -38.80 0.0006764273    1.430    0.301
        46  -9.6442     12.7942    142.3997   1.1832676098e+02   4.3923885866e+01    0.2448534     0.174965 -78.94 0.0005242457    1.148    0.129
        47  -8.9090      5.4210    226.5610   1.2586097996e+02   2.5736734944e+01     0.164035   0.08759721 -81.35   0.00102492    1.638    0.389
        48  -9.7086    150.2296    147.9552   8.1536524428e+01   2.2015295730e+01    0.3885881    0.2046626 -55.80  0.001463838    2.216    0.549
        49  -9.0977    165.7136    227.9567   9.2963651955e+01   3.1635440008e+00    0.3166436    0.2233149  62.97  0.001413287    2.011    0.503
        50 -10.5439     23.9836    140.9526   1.1510540723e+02   4.3379793139e+01    0.3428751    0.2791679 -14.86   0.00146665    1.601    0.376
        51  -9.4615    191.6875    133.2290   6.8765130762e+01   1.6301306536e+01    0.2601653    0.2543815 -82.31 0.0002713289    1.108    0.097
        52  -9.3412    135.3892    132.9105   8.1810040435e+01   2.8496038395e+01    0.2789578    0.2486588  27.81 0.0001105017    1.165    0.141
        53  -8.8560     24.0545    132.9320   1.1409801509e+02   4.5338509120e+01    0.2050702    0.1710799 -73.78  0.001288213    1.017    0.016
        54  -9.3038    207.7899    222.1989   8.3542690804e+01  -2.6470167453e+00    0.2801988    0.2354241 -50.09  0.001267775    1.633    0.387
        55 -10.7348      4.7836    121.3066   1.1833510640e+02   4.9531541181e+01    0.4694341    0.2276884 -74.02  0.002425583    1.662    0.398
        56 -10.2096      2.5962    130.9470   1.1996795600e+02   4.7358464925e+01    0.3683094    0.1892882 -72.25  0.001909528    1.530    0.346
        57  -8.9443     18.6525    129.7245   1.1526360313e+02   4.6556404079e+01    0.2157022    0.1693719 -53.99 0.0008022744    1.232    0.188
        58  -7.7897    196.7483    129.9866   6.6981695253e+01   1.5856837161e+01    0.2066582    0.1890657 -32.47 0.0004057953    1.044    0.042
        59 -11.3863     38.9171    117.0304   1.0717943246e+02   4.7897916327e+01    0.6960679    0.2958708  24.99   0.00297394    2.696    0.629
        60 -11.1252     27.7863    126.0808   1.1207067404e+02   4.6703403276e+01    0.5008469    0.3896813 -83.26  0.002998132    1.183    0.155
        61 -10.3571     35.8326    126.7483   1.0972898294e+02   4.5801641139e+01    0.3363843    0.2173068 -61.54  0.001626231    1.330    0.248
        62  -9.1858    135.7919    126.1157   8.0058623111e+01   2.9956344516e+01    0.4239641    0.2084553 -55.48  0.001504535    2.369    0.578
        63  -9.6215     20.4990    125.5163   1.1418277994e+02   4.7440419064e+01    0.2778293    0.1834131  56.06  0.001547402    1.689    0.408
        64  -9.5767     91.3981    124.1287   9.2138761093e+01   3.9030621587e+01    0.4870283    0.2381981  39.62  0.001925794    2.086    0.521
        65  -9.0246    188.4972    211.4861   8.5532609385e+01   2.1772124283e+00    0.3711842    0.2011373 -36.43  0.001466391    1.978    0.494
        66  -8.6900    107.4772    122.4368   8.6984556478e+01   3.6537139544e+01    0.2598156    0.2478731 -31.03 0.0005283944    1.066    0.062
        67  -9.8392    136.7242    118.0829   7.7793352004e+01   3.1559060130e+01    0.5529652    0.3274784  26.84  0.002077594    2.282    0.562
        68 -10.0101     28.1333    118.2490   1.1080575717e+02   4.8595649111e+01     0.244959    0.1960012 -64.29  0.001483476    1.063    0.059
        69  -7.3854    113.2712    117.2794   8.4038032014e+01   3.6625634487e+01    0.1499157    0.1221132 -11.26 0.0002161614    1.492    0.330
        70 -10.7128    183.8103    212.2559   8.6631940133e+01   2.8326795501e+00     1.060417    0.2828639 -48.35  0.003329359    4.916    0.797
        71 -10.1560      3.9115    112.2291   1.1754671846e+02   5.1747073326e+01    0.3897582    0.3181009 -16.24  0.002614814    1.498    0.332
        72 -10.6322     30.7941    111.5085   1.0886496459e+02   5.0011578012e+01     0.514799    0.2366129 -76.29  0.002174845    2.367    0.578
        73 -10.1647    145.3284    217.2988   9.5661734619e+01   8.4633705114e+00    0.6976309    0.2711017 -58.84  0.002177987    3.866    0.741
        74  -9.7747    156.2624    226.8644   9.4773911410e+01   4.9036650196e+00    0.4918322    0.3268575 -64.26   0.00255348    2.133    0.531
        75  -8.8908     14.7473    110.3324   1.1388531592e+02   5.1538993270e+01    0.2423391    0.1517644  17.32  0.001044968    1.944    0.486
        76  -9.0171    150.6233    230.6329   9.6516714558e+01   5.1704180825e+00    0.3963028    0.1405855 -57.21  0.001406308    4.448    0.775
        77  -7.3568    139.6438    107.2546   7.4183638725e+01   3.3282175374e+01    0.1577401    0.1248115  80.38 0.0003160003    1.609    0.379
        78  -9.3788     11.3083    218.4953   1.2434719651e+02   2.6811295926e+01    0.3549586    0.2276017 -84.38  0.002366741    1.353    0.261
        79  -7.9474      2.3536    106.3000   1.1730654947e+02   5.3235830468e+01    0.1296703   0.07228043 -45.12  0.000703735    1.699    0.412
        80  -9.3324     82.1936    104.9919   9.0432460994e+01   4.5160751492e+01     0.230523    0.2113151  30.75 0.0002902877    1.142    0.124
        81  -9.5375     56.1118    103.1530   9.8704958343e+01   4.9359828508e+01    0.2985828    0.1929601 -71.05  0.001425043    1.700    0.412
        82  -8.8820    166.1427    216.5418   9.1061132590e+01   5.0716101217e+00    0.2349938    0.2176479 -42.33  0.000724731    1.248    0.198
        83  -8.9628    195.4812     86.1927   5.6403970786e+01   2.4302276324e+01    0.3444862     0.252194 -26.75  0.001003929    1.504    0.335
        84 -10.2389     99.3081     85.6058   7.9541276623e+01   4.6449116275e+01    0.2639158    0.2499532 -15.79 0.0002573273    1.021    0.021
        85  -7.7796    170.9748     75.0297   5.7999305216e+01   3.2126272721e+01    0.1773334    0.1708461 -67.36 0.0003122072    1.027    0.027
        86 -11.3318    158.9618     64.4772   5.7407809726e+01   3.6857373968e+01    0.5587239     0.486887 -14.13  0.002372822    1.304    0.233
        87  -8.3852      5.4956     67.4802   1.0991492003e+02   6.1976889122e+01    0.1214055   0.09706069 -51.79 3.335212e-05    1.026    0.025
        88  -8.5048    139.9163    248.5069   1.0114233201e+02   3.8421932421e+00    0.2188941    0.1772705  86.82  0.001378762    1.645    0.392
        89  -8.0179    146.4581     61.5050   5.9200362133e+01   4.0416112300e+01    0.2203209    0.1442686  67.34 0.0009717686    1.677    0.404
        90  -7.7946    143.5627     59.5344   5.9242903598e+01   4.1442136622e+01     0.219496    0.1415284  67.38 0.0004788272    1.720    0.419
        91  -7.7655    221.8107     40.3876   4.1343424799e+01   2.5236087654e+01    0.1709575    0.1152567  61.96 0.0005576072    1.525    0.344
        92  -7.6165    128.7014     39.7145   5.6222548989e+01   4.7988852152e+01    0.1442297     0.103334  29.08 0.0001996174    1.551    0.355
        93 -10.4398    177.0574     42.9738   4.7936738976e+01   3.5583796797e+01    0.4429955    0.3866789  51.85 0.0008566232    1.194    0.162
        94  -8.0176    159.9687     32.6266   4.7752312208e+01   4.1195947223e+01    0.1942613     0.157685  68.32 0.0003529133    1.124    0.111
        95  -8.7625    127.9901    247.4431   1.0342136385e+02   5.8599433977e+00    0.1944266    0.1646222 -30.50 0.0004595342    1.504    0.335
        96  -8.5835    140.0821    242.1063   1.0028671011e+02   4.8852654639e+00     0.200163    0.1582376  16.96  0.001224526    1.356    0.263
        97  -8.3051    233.1184     18.4243   3.5341268419e+01   2.5464767309e+01    0.1777606    0.1556463 -48.66 0.0004451351    1.243    0.196
        98  -7.7427    245.1454     13.1595   3.3306444998e+01   2.3512911254e+01    0.1630028    0.1076548 -62.52 0.0003286435    1.248    0.199
        99 -10.2670    227.4935    215.5296   7.8646185942e+01  -4.6334913403e+00    0.2233918    0.1887017   4.07  0.001473219    1.082    0.076
       100  -8.2395    154.4287    239.5755   9.7002312661e+01   3.0393680873e+00    0.3486404    0.1222048 -46.44  0.001449484    3.354    0.702
       101  -8.4999    127.8310     27.3182   5.2189729403e+01   4.9763577422e+01    0.2048146    0.1865278 -45.98 0.0003632398    1.224    0.183
       102  -8.1688    209.0369    239.3004   8.6135916452e+01  -5.3253929933e+00    0.1662078    0.1281025  22.87 0.0002968684    1.102    0.092
