#   1 NUMBER                 Running object number                                     
#   2 MAG_AUTO               Kron-like elliptical aperture magnitude                    [mag]
#   3 X_IMAGE                Object position along x                                    [pixel]
#   4 Y_IMAGE                Object position along y                                    [pixel]
#   5 X_WORLD                Barycenter position along world x axis                     [deg]
#   6 Y_WORLD                Barycenter position along world y axis                     [deg]
#   7 A_WORLD                Profile RMS along major axis (world units)                 [deg]
#   8 B_WORLD                Profile RMS along minor axis (world units)                 [deg]
#   9 THETA_WORLD            Position angle (CCW/world-x)                               [deg]
#  10 FWHM_WORLD             FWHM assuming a gaussian core                              [deg]
#  11 ELONGATION             A_IMAGE/B_IMAGE                                           
#  12 ELLIPTICITY            1 - B_IMAGE/A_IMAGE                                       
         1 -13.7373    197.9003     67.3820   3.8197345887e+01   2.7662755255e+01     6.773652     1.842564 -25.28   0.01951596    4.595    0.782
         2 -14.0715    218.1602     30.1043   2.6114979204e+01   2.7944266583e+01     4.971743     2.793514  10.78   0.02153597    3.190    0.687
         3 -14.8209    245.6814     78.4715   3.5405885393e+01   1.7121761253e+01     6.710773     1.170223  49.25    0.0219143    6.543    0.847
         4 -14.3758    234.4480     62.1737   3.2710938775e+01   2.1079409927e+01     7.414612     1.236136 -28.66    0.0225893    4.619    0.784
         5 -13.6212    236.4719     35.4600   2.6077717502e+01   2.3725451304e+01     1.520927    0.9355789  12.88  0.007737909    2.578    0.612
         6 -14.4763    233.6237    100.6970   4.1818453547e+01   1.6371288750e+01     5.081453      1.14364 -41.31   0.01207418    4.578    0.782
         7 -13.1335    248.9326     34.2207   2.4925054524e+01   2.1538061484e+01     1.319947    0.6242539  -8.42  0.005771045    3.206    0.688
         8 -10.6804    142.0199     14.4195   2.8823460613e+01   4.7531273020e+01     1.312944    0.4092963 -10.63  0.003222233    6.768    0.852
         9 -13.3408    248.3734     25.3461   2.2905941335e+01   2.2536856050e+01     1.369574    0.5133658 -34.92   0.00692997    1.879    0.468
        10 -11.3432    119.0752      9.7433   3.0199919708e+01   5.3924267073e+01    0.7064214    0.5115258  45.89  0.002749163    1.420    0.296
        11  -7.9007    185.9663      7.2650   2.2187283509e+01   3.7339862988e+01    0.1753233    0.1568176 -48.01 0.0004826263    1.035    0.034
        12  -8.3492    192.1587      2.9767   2.0518960728e+01   3.6279124258e+01    0.1780261    0.1618002  -8.45 0.0003957809    1.240    0.193
        13 -13.9698    247.4233     64.4151   3.2023265731e+01   1.8486923305e+01     1.692679    0.5843778 -25.53  0.002077673    2.496    0.599
        14  -9.3207    248.1646      1.6548   1.7474517115e+01   2.4769671345e+01    0.2003401     0.145219 -83.03 0.0003361557    1.496    0.331
        15  -8.6503    212.1800      1.7569   1.9067641943e+01   3.1940775049e+01    0.3168332    0.1541831  88.19  0.000771469    2.227    0.551
        16  -8.5572    235.5176    217.9716   6.3717581910e+01   1.8140277657e+00    0.1541176   0.08350857 -23.93  0.001044759    1.634    0.388
        17 -10.2671    187.7227    250.2632   7.5729466873e+01   3.6177094932e+00    0.1806269    0.1086517  24.08 0.0005673046    1.261    0.207
        18  -8.9161    154.0824    249.2902   8.1393257026e+01   7.4806836834e+00     0.165136    0.1365494  28.10 0.0002561307    1.238    0.192
        19  -9.2817    246.9848    207.0453   6.0356030815e+01   1.6936582620e+00    0.1329183    0.1170857  -1.53 0.0005224557    1.601    0.375
        20  -9.3511      7.6849    204.2566   1.0768227827e+02   3.0654969013e+01    0.1777881    0.1586555  48.32 0.0002953907    1.204    0.170
        21  -9.9863    249.4040    201.8224   5.9180786767e+01   1.9688097502e+00    0.2629714    0.1419926 -22.56  0.001576783    1.531    0.347
        22 -10.7484    236.2588    196.9824   6.0304296022e+01   3.9817855787e+00     0.572856    0.2785814  47.01  0.002929522    3.693    0.729
        23  -9.5381    229.0681    193.1477   6.0755709552e+01   5.2770716035e+00    0.3138565    0.2289355 -50.51   0.00197368    2.595    0.615
        24  -9.7496    192.5990    194.2991   6.6942517420e+01   9.8135570322e+00    0.6964815    0.3576523 -55.66  0.002565288    6.123    0.837
        25  -7.7912    113.2540    190.6821   8.2316653881e+01   2.1509990931e+01    0.1179768   0.09216978  63.97  0.000418642    1.533    0.348
        26  -8.7274     11.0509    188.8687   1.0634548574e+02   3.3493306327e+01    0.1703885    0.1395403  57.18  0.000368667    1.044    0.042
        27 -10.0106    208.1239    183.9990   6.2543888790e+01   9.0893274192e+00    0.5309872    0.2970434 -55.72  0.002039714    5.752    0.826
        28  -9.0679    248.4377    177.8862   5.5300390002e+01   4.6679054293e+00    0.2561509    0.1228316  19.88  0.001218773    2.378    0.579
        29 -10.3305    243.9567    179.5415   5.6223802874e+01   5.0243310717e+00    0.3174097     0.230507 -43.05  0.002140634    2.055    0.513
        30 -10.0167    237.3881    175.1859   5.6405984646e+01   6.3473432201e+00    0.3332891    0.2749479  70.48  0.001957066    2.843    0.648
        31  -9.3471    228.0502    171.5085   5.7139394641e+01   8.0079952756e+00    0.2434129    0.1391179 -34.58 0.0007003805    1.688    0.408
        32 -10.0387    220.9169    176.2259   5.9097482920e+01   8.3690601423e+00    0.5116881    0.3114843 -43.71  0.002981513    2.145    0.534
        33  -9.3554    224.9851    175.5231   5.8335660559e+01   7.9156590075e+00    0.2180657    0.1564007  32.33  0.001212311    1.495    0.331
        34 -10.9155    221.4695    186.4936   6.0810875554e+01   7.0196809153e+00    0.4973044    0.3092901  42.05  0.001248017    1.994    0.498
        35 -10.5051    196.0618    175.2451   6.3057351633e+01   1.1957009782e+01    0.4315727    0.3076867  46.21  0.002621437    1.781    0.439
        36  -8.9787    247.2702    249.1454   6.6432107265e+01  -2.3310249499e+00    0.1540558    0.1131066  34.91  0.001000679    2.184    0.542
        37 -13.1862    174.5962     88.2485   4.7479440842e+01   2.9489690478e+01     2.912865     1.901019  15.58   0.01283082    2.267    0.559
        38  -7.9184    237.3152    249.3048   6.7882517249e+01  -1.3983209607e+00    0.1006846   0.05343103   3.77 0.0002371785    1.622    0.384
        39  -7.2266    182.2888    249.2915   7.6516993012e+01   4.3182681407e+00    0.1024249   0.06261675   5.23 0.0001984915    1.543    0.352
        40  -9.4249    211.1838    166.1297   5.8811788157e+01   1.1040244517e+01    0.3989453    0.2964769 -66.43  0.002099823    3.080    0.675
        41  -9.0721    203.1219    160.5194   5.9089574254e+01   1.3003660101e+01    0.2042402    0.1476231  -1.44 0.0007582837    1.316    0.240
        42  -8.0449    176.3215    164.6680   6.4722851026e+01   1.6505461766e+01    0.1161699    0.1049151  89.75 0.0007049576    1.699    0.411
        43  -8.4540    163.0724    164.5008   6.7300014427e+01   1.8626314531e+01    0.1913046    0.1199862  35.22 0.0005767965    1.530    0.346
        44 -11.0235    194.2363    157.3293   6.0008195520e+01   1.4828492921e+01    0.5420839    0.4662674 -48.09  0.001874723    1.511    0.338
        45  -9.0883    198.0339    152.4913   5.8384004383e+01   1.4950854638e+01    0.2557457    0.1699276 -40.67 0.0007787761    1.583    0.368
        46  -8.2270    100.9552    159.8876   8.0672124271e+01   2.9354182605e+01    0.1815728    0.1681544  -4.31  0.001097414    1.165    0.142
        47  -8.9111    155.9169    245.0523   8.0587779768e+01   7.7920266359e+00    0.1590346    0.1194036  18.64  0.000351943    1.018    0.018
        48  -8.0211    153.5924    158.7843   6.8182499019e+01   2.1141000647e+01    0.1783429    0.1253457 -53.42  0.000940371    1.701    0.412
        49  -8.0334    162.5252    157.5423   6.6085483666e+01   1.9889384520e+01    0.1322157    0.1176366   2.07 0.0003106886    1.010    0.010
        50 -12.5121      5.9364    148.1937   1.0577037430e+02   4.2995204979e+01     0.945721    0.7340277  89.68  0.004534995    1.147    0.128
        51  -8.8305    207.3258    155.0511   5.7317739479e+01   1.3142838535e+01    0.2528788    0.1755447 -16.82  0.001430254    1.295    0.228
        52  -7.3118    165.6952    151.2660   6.4198006602e+01   2.0432976270e+01    0.1186533    0.1073469  78.60  0.000295053    1.528    0.346
        53  -9.4099    133.8105    145.9749   7.0074733920e+01   2.6860769404e+01    0.8046275    0.2191033 -53.05  0.002214544    5.409    0.815
        54  -8.3581    173.6154    149.7620   6.2320621934e+01   1.9355390082e+01    0.1834546    0.1191455 -44.84 0.0009522694    1.651    0.394
        55  -9.7437     20.9002    149.8466   1.0156594502e+02   4.1435084246e+01     0.191495    0.1716408 -57.41 0.0008711801    1.278    0.217
        56  -9.4415     53.0535    123.6926   8.8559394770e+01   4.4572588511e+01    0.2976713    0.2554654  87.44 0.0004097127    1.119    0.106
        57 -11.8813     65.8716    137.1159   8.6686060156e+01   3.9596214203e+01     2.024317     1.344763  86.24  0.009761349    1.788    0.441
        58 -11.4068     52.2217    136.0010   9.0677076720e+01   4.1610288030e+01     0.694696    0.4329861 -69.83  0.002027629    1.551    0.355
        59 -11.2461     36.1296    139.3849   9.6059758618e+01   4.2560995433e+01    0.5934316    0.3736639   6.81 0.0008489738    2.146    0.534
        60 -12.9292     44.0966    136.7173   9.3286274777e+01   4.2373302842e+01     1.676047     1.069048  15.76  0.005650245    1.904    0.475
        61  -9.4781    210.7693    137.3422   5.3141964243e+01   1.5123425748e+01    0.2449851    0.2183151  11.88 0.0009290178    1.172    0.147
        62  -9.0412    186.3906    144.1292   5.8742443921e+01   1.8122418249e+01    0.2339147    0.1895403  39.15 0.0007079589    1.344    0.256
        63  -9.2031    140.6984    138.0081   6.6821255491e+01   2.7202325214e+01    0.3114647    0.1676188 -38.99  0.001381231    1.889    0.470
        64  -9.5367    181.6668    134.9285   5.7641295196e+01   2.0410813451e+01     0.229871    0.1782578  20.68  0.001307006    1.317    0.241
        65  -8.5947    177.9425    120.8478   5.5136778334e+01   2.3413691353e+01    0.3495148    0.1950785 -55.34  0.001395259    2.658    0.624
        66 -10.5814    189.6818    130.6842   5.5246532124e+01   1.9682191722e+01    0.5242383    0.3338655 -56.63  0.002483052    2.354    0.575
        67 -10.9314    185.0960    124.5272   5.4676627583e+01   2.1486950753e+01    0.6726391    0.5183874 -32.50  0.003832784    1.195    0.163
        68  -8.7013    231.0332    146.9814   5.2025974255e+01   1.0709194656e+01    0.1835545    0.1465964 -15.17 0.0005273051    1.058    0.055
        69  -8.4215    192.2593    144.0189   5.7662887268e+01   1.7161729675e+01     0.180049    0.1504588 -22.14 0.0003939755    1.096    0.088
        70  -9.9037    160.9393    128.5828   6.0294935049e+01   2.5254771043e+01    0.4056701    0.2748953 -54.97  0.001976805    1.801    0.445
        71  -8.0886    150.2282    146.6704   6.6507468560e+01   2.3889015537e+01     0.184045    0.1751671 -30.03  0.001122675    1.120    0.107
        72  -8.5880    151.7970    126.6524   6.1797278844e+01   2.7321329387e+01    0.4142476    0.2153748  28.18  0.001639412    2.567    0.610
        73  -9.8403    167.2127    121.5627   5.7380941838e+01   2.5318973133e+01    0.3640212    0.2351138 -21.90 0.0009856932    1.701    0.412
        74  -9.1188    179.4040    242.7449   7.6201504667e+01   5.3792878519e+00    0.3109125    0.1766082  53.39  0.001484216    4.631    0.784
        75  -8.2865     92.7099    122.9948   7.6046941022e+01   3.8890241013e+01    0.2034724    0.1867754 -58.64 0.0004723863    1.078    0.072
        76  -8.1701    202.4334    173.1852   6.1581546536e+01   1.1329930321e+01    0.1595734    0.1057656 -40.45 0.0007783638    1.690    0.408
        77 -10.3763    206.0681    110.3103   4.7860907913e+01   1.9865283311e+01    0.4997664    0.3790919  11.11  0.002867439    1.458    0.314
        78  -9.9342    216.4202    142.7308   5.3371852373e+01   1.3470504985e+01    0.4346231    0.2769952 -45.79  0.001788098    1.899    0.473
        79  -7.9378     87.8811    110.5673   7.4712585151e+01   4.2625063207e+01    0.2441427    0.1696662 -61.90 0.0006028853    1.473    0.321
        80  -8.6213    196.8202    110.0951   4.9274539923e+01   2.1597563969e+01    0.2019689    0.1667287 -36.86 0.0005654696    1.169    0.145
        81  -9.6008    109.2854    108.1429   6.7794115884e+01   3.9279733800e+01     0.514637    0.2151612 -40.57  0.001640478    2.604    0.616
        82  -9.8594    207.6397    103.4987   4.6011106947e+01   2.0574500200e+01    0.3542035     0.265746 -84.20  0.001871401    2.180    0.541
        83 -10.0690     72.6172    107.3045   7.8879135350e+01   4.5922278688e+01    0.2522883    0.2445098 -76.37 0.0002319224    1.023    0.023
        84  -7.8326    214.4953    100.4706   4.4298283071e+01   1.9752597814e+01    0.1323941    0.1112631 -21.16 9.431475e-06    1.019    0.019
        85 -10.2584    230.2740    166.8578   5.5949742006e+01   8.2889314121e+00    0.3573463    0.2010072 -39.99   0.00180145    1.987    0.497
        86  -8.7630    157.8880     86.0225   4.9987493773e+01   3.3472391113e+01    0.5420387    0.1281275 -37.89  0.001570031    3.765    0.734
        87  -7.9418    141.5786     86.7833   5.3654530531e+01   3.6927260010e+01    0.2172513    0.1334961 -48.03 0.0009434811    1.652    0.395
        88  -8.0148    167.0000    242.0268   7.8265167131e+01   6.8833634269e+00    0.1398068   0.05896476 -42.73 0.0007871687    2.838    0.648
        89  -8.4197    156.4307     79.2550   4.8311405958e+01   3.4954654753e+01    0.2071952    0.1297165 -44.13 0.0005794282    1.540    0.351
        90  -9.6962    157.6885    167.2256   6.8903028603e+01   1.9021706065e+01    0.2302168    0.1975471  -7.41 0.0002439819    1.102    0.093
        91  -7.7185    155.9443     74.9839   4.7134009795e+01   3.5783033546e+01    0.1738372    0.1650164 -33.51 0.0004331547    1.016    0.016
        92  -9.6098    168.8085     68.2161   4.2785369417e+01   3.3936885990e+01    0.4285653    0.2188947 -45.83  0.001797577    1.948    0.487
        93 -10.2219    171.1971     64.3010   4.1228142684e+01   3.3984714641e+01    0.5557719    0.3422196 -89.91  0.002325157    2.544    0.607
        94  -9.6531    162.3935     62.7105   4.2212012567e+01   3.6257455712e+01    0.5680385    0.2933808 -22.74  0.002282966    2.170    0.539
        95  -9.4439    158.0382     46.3732   3.7730936331e+01   3.9675181136e+01    0.6463228    0.2330799 -26.76  0.001815221    2.802    0.643
        96 -10.7659    169.9807     58.2403   3.9597267211e+01   3.5155156937e+01    0.7049873    0.4912065 -75.69   0.00337209    1.837    0.456
        97 -10.8630    162.8507     52.5661   3.8962373880e+01   3.7647871653e+01    0.5707435    0.5232456 -18.15  0.002712316    1.111    0.100
        98  -8.8047    162.6730     47.8115   3.7473084682e+01   3.8356733275e+01    0.2491412    0.1922745 -25.86  0.001161085    1.259    0.205
        99  -9.2914    136.5465     66.3982   4.8428865305e+01   4.1736198071e+01    0.4660559    0.1340148 -37.27  0.001434659    3.176    0.685
       100 -10.9013    152.7786     48.0479   3.9148396632e+01   4.0720820038e+01    0.6842496    0.4639736 -38.11  0.003329696    1.369    0.270
       101  -7.9475    147.7329     66.9401   4.6259906426e+01   3.9017155125e+01    0.2078111    0.1874714 -34.62 0.0004214713    1.049    0.046
       102  -7.4462    109.2561     66.3669   5.5201876902e+01   4.8061352245e+01    0.1532517    0.1191387  -5.69  0.000696823    1.635    0.388
       103  -9.0687    186.2258     62.6499   3.8482686380e+01   3.0842471085e+01    0.4643215    0.2115665 -20.77  0.001725537    2.566    0.610
       104  -8.8975    140.4509     64.0311   4.6809521727e+01   4.1216861432e+01    0.2694256    0.2240399  61.23 0.0005402165    1.274    0.215
       105  -9.4142    136.6502     59.5677   4.6118549673e+01   4.2863582574e+01     0.295726     0.179133 -36.60 0.0007285338    1.558    0.358
       106  -8.5376    110.0566     54.0584   5.0482118655e+01   5.0149077416e+01    0.2191052    0.2080517 -40.23  0.001188799    1.021    0.021
       107  -9.7305    188.1401     44.7002   3.3066313645e+01   3.2797984104e+01    0.4785668    0.2437276 -43.34   0.00193655    1.770    0.435
       108 -11.8907    141.6797     42.7059   3.9249250523e+01   4.4212790810e+01     0.890643    0.6753961 -56.81  0.004484837    1.374    0.272
       109 -11.1336    134.2087     40.2891   3.9761736768e+01   4.6418172066e+01     0.895997    0.2335305 -37.04  0.002802318    3.266    0.694
       110 -10.6400    133.9816     30.4199   3.6096280746e+01   4.7792276091e+01    0.5233399    0.2660555 -37.36  0.001819271    1.841    0.457
       111  -9.0309    156.9919    240.5344   7.9869113500e+01   8.2320036177e+00    0.1787668    0.1514856  26.04 0.0003780522    1.235    0.190
       112  -8.5939    123.4602     37.4847   4.0845873016e+01   4.9510392137e+01    0.1457344    0.1419622 -44.07 7.789485e-05    1.006    0.006
       113  -8.2168    189.4126     36.0935   3.0411280887e+01   3.3551216094e+01    0.2182882    0.1886111  50.08  0.001295607    1.315    0.240
       114  -8.0361    105.8708     39.1102   4.5609907865e+01   5.3628474257e+01    0.1983766    0.1723536   9.44 0.0003904682    1.273    0.214
       115  -9.3254    138.1179     28.8096   3.4789917800e+01   4.6938827881e+01    0.2788602    0.2158757 -16.12 0.0007394039    1.365    0.267
       116  -7.7826    185.2696    238.9690   7.4724218534e+01   5.1472458424e+00    0.1415005    0.1100364   5.51 0.0003788538    1.098    0.089
       117  -7.9383    157.0031     26.8046   3.1310593946e+01   4.2405637228e+01    0.1857461    0.1728388 -51.81            0    1.001    0.001
       118  -9.9070    127.8698     22.8869   3.4211281063e+01   5.0266786885e+01    0.3672548    0.2159775 -14.72  0.001326946    1.917    0.478
       119  -7.5736    161.3680     22.7685   2.9399788226e+01   4.1768082532e+01    0.1856314    0.1301949 -11.55 0.0003354996    1.573    0.364
       120  -9.5166    134.5172     17.4920   3.1026824198e+01   4.9148982690e+01    0.2625943    0.1907046  -7.06 0.0009218406    1.547    0.354
       121  -9.3594    170.2899    236.0855   7.6951412783e+01   7.2243022798e+00    0.3578846    0.1752116  47.72  0.001820884    3.238    0.691
       122  -9.3648    125.5124     14.2169   3.1077056537e+01   5.1816044743e+01    0.2978151    0.2204402  71.87  0.001540911    1.338    0.253
       123  -8.9356    165.4393    232.0068   7.7300480421e+01   8.3115017306e+00     0.203454    0.1252289  39.43  0.001003357    1.629    0.386
       124 -13.1622    249.3827     88.7767   3.7335784642e+01   1.5258827512e+01     1.481785    0.4867101 -25.61  0.005175288    2.736    0.634
       125 -10.2098    123.8634    232.1723   8.5135726780e+01   1.3328060686e+01    0.1922661    0.1845359   4.79 0.0004404938    1.236    0.191
       126  -8.6710     75.0985    223.8667   9.4238475815e+01   2.0399300039e+01    0.1655115    0.1368724  38.72 0.0004221748    1.038    0.037
       127  -7.7772    155.9962    224.0000   7.8006655185e+01   1.0526349319e+01    0.1840646   0.05314536  33.38 0.0006048972    2.866    0.651
       128  -8.6542    147.3963    219.4276   7.9048263267e+01   1.2254217749e+01    0.1844767    0.1494984  21.16 0.0002026962    1.022    0.022
