#   1 NUMBER                 Running object number                                     
#   2 MAG_AUTO               Kron-like elliptical aperture magnitude                    [mag]
#   3 X_IMAGE                Object position along x                                    [pixel]
#   4 Y_IMAGE                Object position along y                                    [pixel]
#   5 X_WORLD                Barycenter position along world x axis                     [deg]
#   6 Y_WORLD                Barycenter position along world y axis                     [deg]
#   7 A_WORLD                Profile RMS along major axis (world units)                 [deg]
#   8 B_WORLD                Profile RMS along minor axis (world units)                 [deg]
#   9 THETA_WORLD            Position angle (CCW/world-x)                               [deg]
#  10 FWHM_WORLD             FWHM assuming a gaussian core                              [deg]
#  11 ELONGATION             A_IMAGE/B_IMAGE                                           
#  12 ELLIPTICITY            1 - B_IMAGE/A_IMAGE                                       
         1  -8.8640    189.7410     14.6581   6.5134640604e+01   3.5430252543e+01    0.3762563    0.2889301  79.15  0.001213611    1.415    0.293
         2  -9.4421    235.0314      5.4653   5.7350382574e+01   2.4643263872e+01    0.3712592      0.26226 -15.26 0.0008558391    1.396    0.284
         3  -7.3005    207.1458      1.3055   5.8787458694e+01   3.2029657649e+01     0.185741    0.1263229  86.84            0    1.601    0.375
         4  -7.7773     63.9632    242.9435   1.3813616757e+02   2.0911961535e+01    0.1142023   0.08123042  57.54 0.0009855225    1.024    0.023
         5  -9.5338     55.7989    249.8882   1.3974387729e+02   2.0841851459e+01      0.23453    0.1714646  48.70  0.001142622    1.212    0.175
         6 -10.9616     47.5805    247.5406   1.4085751214e+02   2.2006464220e+01    0.3972103    0.3510712  55.16  0.003961802    1.432    0.302
         7  -7.2826    134.0192    241.0253   1.2674025776e+02   1.2520022830e+01    0.1289742   0.08882571  43.02 0.0004652691    1.053    0.051
         8  -6.9208    110.6134    241.2784   1.3059535886e+02   1.5583955548e+01    0.1075071   0.05702478  56.70 0.0002876544    1.728    0.421
         9  -7.2656     85.5254    240.4897   1.3458767623e+02   1.8791523017e+01   0.09933596    0.0709745  53.24 2.081119e-05    1.008    0.007
        10 -11.7840     57.4606    230.2444   1.3844137368e+02   2.3416805105e+01    0.6434609    0.4833834  48.01   0.00556919    1.216    0.178
        11  -7.1436    106.7511    236.6384   1.3084490240e+02   1.6689239797e+01   0.08558243    0.0744686  12.78 0.0006948808    1.610    0.379
        12  -7.2594    132.3411    234.2759   1.2636653188e+02   1.3591933677e+01    0.1006858   0.07052543  24.17 0.0006148124    1.618    0.382
        13  -8.6283     70.1681    233.7176   1.3660630397e+02   2.1514890414e+01    0.1489238    0.1225364 -38.04  0.001228775    2.063    0.515
        14  -7.4197    109.8757    233.1914   1.3003429135e+02   1.6747878794e+01    0.1255187    0.1064485  35.12 0.0004899093    1.298    0.230
        15  -7.4248    101.4658    233.4869   1.3146110234e+02   1.7789155185e+01    0.1017371   0.07725001  48.08 9.365127e-05    1.067    0.062
        16  -8.2353     80.0059    232.3600   1.3491789781e+02   2.0573114704e+01    0.1479905    0.1153344  66.67 0.0003871751    1.148    0.129
        17  -7.9060     33.6700    228.7151   1.4212660853e+02   2.6057943939e+01    0.1397364    0.1125658  61.53 0.0004969224    1.216    0.178
        18  -6.8283    104.4088    228.4715   1.3054751874e+02   1.8104924327e+01    0.1038659   0.07774448  52.08 3.881387e-05    1.032    0.031
        19  -7.5230    130.7935    224.3651   1.2562911735e+02   1.5101993410e+01    0.1479578   0.08171833  36.12  0.000349347    1.522    0.343
        20  -7.7254    158.0563    222.9969   1.2074067217e+02   1.1330475056e+01    0.1663534    0.1249486  39.04 0.0003649735    1.015    0.015
        21  -6.9758     88.5090    223.5811   1.3284569136e+02   2.0814195587e+01    0.1036545   0.07699664  53.19 0.0001577876    1.014    0.013
        22  -7.4189     81.1179    223.1458   1.3406822247e+02   2.1776855345e+01    0.1386509   0.09045102  60.28 0.0002629244    1.268    0.211
        23  -7.5681    137.6602    222.0058   1.2418157179e+02   1.4441166424e+01     0.140735     0.118861  42.54 0.0003256543    1.108    0.098
        24  -7.0986    106.8395    222.6041   1.2961246582e+02   1.8615154325e+01    0.1448406    0.0740398  48.75  0.000214044    1.533    0.348
        25  -7.8626     94.8886    221.6048   1.3159075388e+02   2.0305762987e+01    0.1424651    0.1321166  64.19 0.0008988893    1.265    0.210
        26  -7.7469    117.3761    220.0194   1.2752983651e+02   1.7565178480e+01    0.1389213    0.1189415  55.73 0.0004941304    1.129    0.115
        27  -6.8572    126.3135    219.7109   1.2592717211e+02   1.6367038277e+01     0.108869   0.06916739  58.96 0.0003788154    1.587    0.370
        28  -7.0777    111.6807    219.3137   1.2846093741e+02   1.8440414045e+01    0.1101988   0.06689828  60.89 0.0007038105    1.651    0.394
        29  -7.5578     84.7745    218.7469   1.3310346059e+02   2.1990208125e+01    0.1410579   0.09193406  59.65 0.0004079268    1.286    0.222
        30  -7.3441     73.4963    237.4737   1.3631054611e+02   2.0607056024e+01   0.09774745    0.0705907  54.83 -3.420059e-05    1.016    0.016
        31  -6.6246     78.4701    217.4698   1.3409317621e+02   2.2945787031e+01    0.1014055   0.08014599  54.74 0.0008080695    1.074    0.069
        32  -7.9225     73.8699    216.4977   1.3481406111e+02   2.3638592690e+01      0.15308   0.08131358  41.27 0.0008484605    1.545    0.353
        33  -7.2216    138.7772    214.9313   1.2318991134e+02   1.5235831623e+01    0.1144845   0.09396515 -49.83 0.0003034186    1.565    0.361
        34  -7.4139    122.1921    214.7708   1.2614013814e+02   1.7643960851e+01    0.1399374    0.1117084  29.57 0.0004170646    1.314    0.239
        35  -6.9954    146.5490    214.5493   1.2175536697e+02   1.4137429935e+01    0.1141776   0.08776611  44.66  8.82538e-05    1.075    0.069
        36  -7.3374     87.5011    213.4662   1.3219525366e+02   2.2455555743e+01    0.1061049    0.0815903  55.15 7.568471e-05    1.003    0.003
        37  -7.6359    114.9651    212.3439   1.2718497567e+02   1.9005875625e+01    0.1534992    0.1090821  44.92 0.0003542408    1.112    0.101
        38  -9.0496     71.9978    212.1558   1.3481738910e+02   2.4531635926e+01    0.2501578   0.09763607  44.44  0.001458629    1.948    0.487
        39  -8.5180     64.8408    210.8611   1.3597322431e+02   2.5557532141e+01    0.1388861    0.1199987  56.25 0.0002791441    1.217    0.179
        40  -7.0539    127.3425    210.2799   1.2472337739e+02   1.7557084089e+01    0.1067308   0.07950798  19.86 0.0003794248    1.629    0.386
        41  -9.4223     74.1197    208.6754   1.3417779694e+02   2.4832075165e+01    0.2235561    0.1641001  73.37 0.0009207986    1.237    0.191
        42  -9.4633     72.9841    204.0084   1.3401291963e+02   2.5716645212e+01     0.220656    0.1672916  38.42  0.001289007    1.347    0.258
        43  -7.4439    110.2530    208.5845   1.2765341209e+02   2.0217601071e+01    0.1435334   0.08995867  35.70 0.0004073977    1.461    0.316
        44  -7.8938     96.4534    208.1347   1.3011912616e+02   2.2136245985e+01    0.1634742    0.1160359  59.87 0.0003409261    1.225    0.184
        45  -7.2872    136.1627    207.5436   1.2279703601e+02   1.6658671856e+01    0.1455691   0.09175197  32.75 0.0008988182    1.460    0.315
        46  -9.3256     67.4681    206.4341   1.3518929765e+02   2.5966664817e+01    0.2070332    0.1373923  63.37 0.0008258747    1.258    0.205
        47  -8.0353    118.2568    205.6968   1.2587946135e+02   1.9536262851e+01     0.160578    0.1481992  62.10 0.0004119383    1.171    0.146
        48  -7.0762    128.5277    205.5452   1.2396617607e+02   1.8076689060e+01    0.1150457   0.09064563  47.69 0.0001048177    1.042    0.041
        49  -7.3655     53.4776    205.5557   1.3759927905e+02   2.7659413810e+01    0.1025036   0.07602859  62.38 0.0001501391    1.024    0.023
        50  -7.3885    159.5195    204.5085   1.1812849021e+02   1.3506142432e+01    0.1188423   0.09366722  36.11 0.0008102686    1.014    0.014
        51  -7.8235    153.1349    203.7653   1.1920134160e+02   1.4606215889e+01    0.1695438    0.1319095  47.63  0.000436987    1.166    0.143
        52  -8.1674     79.9225    203.9163   1.3274708518e+02   2.4896935090e+01    0.1631747    0.1242961  59.27 0.0004982966    1.049    0.047
        53  -8.4187     63.8444    203.1519   1.3559291250e+02   2.6913496056e+01    0.1292161    0.1106643  41.31 0.0005589591    1.334    0.251
        54  -7.0742     57.3366    203.2650   1.3676362890e+02   2.7617769321e+01   0.08475138   0.07919882  12.38 0.0002721211    1.588    0.370
        55 -10.1161    178.2596    200.4152   1.1412784719e+02   1.1053934587e+01     0.207751    0.1796872  24.49 0.0002079657    1.121    0.108
        56  -7.1349    123.6161    201.7789   1.2444138919e+02   1.9358580305e+01    0.1101791     0.077725  24.87  0.000310916    1.612    0.380
        57  -8.9758     69.8722    200.3854   1.3428903229e+02   2.6676453794e+01    0.1990695    0.1705655  35.92  0.000902736    1.376    0.273
        58  -7.5503     67.4925    197.4903   1.3449466434e+02   2.7435288703e+01    0.1070162   0.08296613  62.12 -2.536947e-06    1.020    0.019
        59  -8.4368     75.8767    198.8972   1.3306283821e+02   2.6209821546e+01    0.1447418    0.1336433  56.53 0.0003452487    1.253    0.202
        60  -7.9608    107.0886    197.9016   1.2711754990e+02   2.2317767709e+01    0.1666297    0.1341395  53.14 0.0003627093    1.023    0.022
        61  -8.1802     91.8471    197.0830   1.2991363553e+02   2.4503900694e+01    0.1623726    0.1306276  56.18 0.0004439332    1.004    0.004
        62  -7.2029     83.2889    196.3731   1.3145740798e+02   2.5716791235e+01   0.09645439   0.08455645 -21.84 0.0007021136    1.720    0.419
        63  -7.7864     63.8170    196.1882   1.3506976896e+02   2.8075729857e+01    0.1261239    0.1198512  55.70  0.000458562    1.338    0.252
        64  -7.0983     76.2803    193.3123   1.3250142516e+02   2.7097374715e+01   0.09145826   0.08488896 -20.46 0.0003198392    1.567    0.362
        65  -7.2931    237.2965    192.6424   1.0253815233e+02   2.3488333665e+00   0.09897867   0.09567095  35.21 0.0007033696    1.701    0.412
        66  -6.9872    136.3068    192.3146   1.2085514794e+02   1.8896896492e+01    0.1133301   0.08750663  12.11 0.0004636414    1.625    0.385
        67  -6.9964     87.5517    192.4684   1.3027743877e+02   2.5828497961e+01    0.1086574   0.09227236  56.18 2.630955e-05    1.071    0.067
        68  -7.2983    141.8893    189.8454   1.1944300120e+02   1.8400897828e+01    0.1545632    0.1260689  58.80 0.0004638007    1.266    0.210
        69  -8.1010     82.2615    189.5217   1.3100781042e+02   2.7003405653e+01    0.1763992     0.142801  68.11 0.0002869922    1.081    0.075
        70  -8.0045     16.8240    188.3805   1.4309087411e+02   3.4064137219e+01    0.1468453   0.08764333  55.53 0.0004040495    1.315    0.240
        71  -7.3077     75.3935    187.5161   1.3214553557e+02   2.8200906657e+01    0.1091158   0.08829007  65.34 0.0001027443    1.031    0.030
        72  -7.4754     89.1199    185.8381   1.2930210808e+02   2.6756255234e+01     0.135916    0.1268828  38.30 0.0004193184    1.264    0.209
        73  -7.0015    161.0217    185.2247   1.1506591023e+02   1.5980658760e+01     0.164442   0.08645479  40.38 0.0003581282    1.578    0.366
        74  -7.4034    143.8338    183.1685   1.1811497400e+02   1.9121612531e+01    0.1560385    0.1297801  20.71 0.0003096104    1.260    0.206
        75  -7.3268     76.5638    181.4784   1.3134259987e+02   2.9119896702e+01    0.1099303   0.09326275  64.27 6.345481e-05    1.038    0.036
        76  -6.9406    109.2798    179.7112   1.2457007222e+02   2.5027174399e+01    0.1164028   0.08100173  65.75  0.000273458    1.523    0.343
        77  -7.1325     86.4543    179.5618   1.2916819374e+02   2.8205702815e+01     0.113653   0.09531563  60.68 0.0004401613    1.004    0.004
        78  -7.2703    140.5115    177.4513   1.1793352464e+02   2.0571001162e+01    0.1246961    0.1062296  37.41 0.0001952826    1.041    0.040
        79  -7.1724     49.0475    175.2210   1.3624524439e+02   3.3390166213e+01    0.1305762   0.07881814  38.51  0.000444039    1.601    0.375
        80  -6.6836    126.7206    174.3187   1.2028250058e+02   2.3305312537e+01    0.1202439   0.08881892  69.27 0.0002413627    1.579    0.367
        81  -6.9018    175.7091    172.2872   1.1008811386e+02   1.5351965440e+01    0.1175401   0.09791592  63.67   0.00023814    1.540    0.350
        82  -6.8632     97.3009    170.3090   1.2586418779e+02   2.8405200066e+01    0.1080748   0.09352441  -9.57 0.0003297824    1.601    0.375
        83  -6.9569     77.2795    167.7014   1.2976864142e+02   3.1550131863e+01    0.1166922   0.07616828  67.95 0.0003213717    1.540    0.351
        84  -7.4911     39.1558    164.2079   1.3737397361e+02   3.6447640617e+01    0.1480897    0.0987105  66.91 0.0003135647    1.288    0.223
        85  -7.0126     56.5097    163.4773   1.3370970133e+02   3.4798869761e+01    0.1122047   0.09249771  72.83 0.0008101566    1.010    0.010
        86  -7.7046     51.1338    157.0775   1.3425050378e+02   3.6618781005e+01    0.1576447     0.141383 -76.85 0.0005531423    1.221    0.181
        87  -7.4664    132.6819    155.8411   1.1613998334e+02   2.5554445116e+01    0.1708109    0.1199118 -61.61 0.0009303868    1.700    0.412
        88  -7.5391      9.2344    148.9435   1.4251460391e+02   4.1925137472e+01     0.147857    0.1033974  85.89 0.0004782336    1.114    0.102
        89  -9.3965    124.1741    146.2474   1.1638175641e+02   2.8750416389e+01    0.2271453    0.2025473  67.66  0.001405621    1.160    0.138
        90  -8.0700     75.5200    138.5411   1.2655699694e+02   3.7527561590e+01    0.1216143    0.1089141  80.08 -8.629756e-05    1.008    0.008
        91  -7.3649    135.8439    137.1915   1.1203427766e+02   2.8417713885e+01    0.1893522    0.1582932   5.43 0.0005108253    1.381    0.276
        92  -8.3878    121.7180    130.8425   1.1410637590e+02   3.2135846176e+01    0.2831109    0.2124675  66.19 0.0001632967    1.574    0.365
        93  -7.4638    164.3265    121.2860   1.0213882184e+02   2.5789934583e+01    0.1489635    0.1080396  13.07            0    1.607    0.378
        94  -7.1147    181.5426    114.5657   9.6801209993e+01   2.3300129643e+01    0.1490862    0.1328686  15.91 0.0002725613    1.013    0.013
        95  -7.7407    239.3679    111.2224   8.5208937487e+01   1.1492470234e+01    0.1943522    0.1176305 -31.18 0.0005594253    1.630    0.387
        96  -7.5882    133.7525    106.2507   1.0573394461e+02   3.4770522436e+01    0.2334159    0.1156955 -32.99 0.0008902294    2.435    0.589
        97  -7.5017    206.1990     88.8354   8.5179391666e+01   2.1773009957e+01    0.2159228    0.1620903  21.50 0.0005012567    1.324    0.245
        98 -10.6865    147.7413     84.0133   9.6269071619e+01   3.6082944546e+01    0.6029692    0.4397458  -3.73  0.002755524    1.658    0.397
        99 -10.6636    157.5030     66.8476   8.8686034403e+01   3.6835670714e+01    0.5129096    0.3845186 -59.28  0.002320551    1.765    0.433
       100  -8.3318    139.0316     70.4853   9.4341378729e+01   4.0490716499e+01    0.2898296    0.2143985 -48.87  0.001066207    1.509    0.337
       101  -8.2094    184.8440     77.8517   8.6170146506e+01   2.8472749720e+01    0.2458277    0.2000918  10.67 0.0006191733    1.228    0.186
       102  -7.7896    190.3308     67.0312   8.1868623346e+01   2.8766773181e+01    0.2206431    0.1871346 -20.39 0.0003931726    1.142    0.125
       103  -9.8016    245.3370     54.3289   6.9628892757e+01   1.7202445519e+01    0.3034567     0.243243  -7.91 0.0002905879    1.149    0.130
       104  -8.4288    249.5104     50.0229   6.7965524052e+01   1.6750073370e+01     0.287658    0.1966468  20.44 0.0007849246    1.611    0.379
       105  -9.0141    130.6197     54.9728   9.1376309990e+01   4.5136167314e+01    0.3083752     0.269566  89.20  0.001210022    1.519    0.342
       106  -7.8363     18.0126     56.2358   1.3017425311e+02   6.1287239957e+01     0.234306   0.06144491 -44.75 0.0008950562    3.594    0.722
       107  -8.9727    152.2159     54.6824   8.5893559613e+01   4.0094990219e+01      0.31703    0.2265546 -52.09 0.0006237932    1.722    0.419
       108 -10.7856    167.0672     49.1814   8.0763304140e+01   3.7222423939e+01    0.7621018    0.6456536  51.47  0.003842512    1.206    0.171
       109  -7.1490    245.2927     43.5863   6.6738632946e+01   1.8418522157e+01    0.1976109    0.1210597  47.38 0.0009518896    1.692    0.409
       110  -7.4956    115.5174     42.4748   9.0997353729e+01   5.0616432244e+01    0.1504369    0.1385721  -7.93  9.58781e-05    1.042    0.040
       111  -7.2878    186.5177     40.5621   7.4208124803e+01   3.3368941453e+01    0.1549006    0.1429072  17.50  0.000150529    1.021    0.020
       112  -7.3785    229.7686     36.6014   6.6666731256e+01   2.2853331093e+01    0.1894616    0.1406826  83.61 0.0009438846    1.633    0.388
       113  -7.4527    158.4508     33.5365   7.7051465787e+01   4.1593701167e+01    0.1585909    0.1410508  18.83 4.149049e-05    1.057    0.054
       114 -10.3755    140.9059     31.7062   8.0192321736e+01   4.6306557992e+01    0.2753636    0.2502809  12.31 0.0002420319    1.005    0.005
       115  -7.9539    151.2414     27.0725   7.6143466995e+01   4.4285234437e+01    0.3212866    0.1743151   5.73  0.001149833    2.603    0.616
       116  -7.9995    173.2246     26.2286   7.1650925139e+01   3.8608937997e+01    0.2424268    0.1311027  77.03 0.0008940054    2.482    0.597
       117  -8.7686    183.7211     24.1355   6.9197673234e+01   3.6052237787e+01    0.3730012    0.2829208 -68.45  0.001072834    1.644    0.392
       118  -9.1447    166.4610     23.6443   7.1925371720e+01   4.0701675822e+01    0.4809332    0.3906721  45.98  0.002429553    1.172    0.147
       119 -10.4271     38.2165    244.9882   1.4213509990e+02   2.3288101005e+01    0.4059028    0.1756936  62.34  0.002860243    1.828    0.453
       120  -7.3383     18.0000    246.9580   1.4513691533e+02   2.4897718274e+01    0.1213904   0.04109645 -81.56 0.0008062825    2.969    0.663
