#   1 NUMBER                 Running object number                                     
#   2 MAG_AUTO               Kron-like elliptical aperture magnitude                    [mag]
#   3 X_IMAGE                Object position along x                                    [pixel]
#   4 Y_IMAGE                Object position along y                                    [pixel]
#   5 X_WORLD                Barycenter position along world x axis                     [deg]
#   6 Y_WORLD                Barycenter position along world y axis                     [deg]
#   7 A_WORLD                Profile RMS along major axis (world units)                 [deg]
#   8 B_WORLD                Profile RMS along minor axis (world units)                 [deg]
#   9 THETA_WORLD            Position angle (CCW/world-x)                               [deg]
#  10 FWHM_WORLD             FWHM assuming a gaussian core                              [deg]
#  11 ELONGATION             A_IMAGE/B_IMAGE                                           
#  12 ELLIPTICITY            1 - B_IMAGE/A_IMAGE                                       
         1  -8.1032     16.9983     14.0034   8.2395799861e+01   7.1364827156e+01    0.1455201    0.1373117  29.98 0.0004539499    1.616    0.381
         2  -8.5185     55.7134     10.0525   6.2564041408e+01   6.6447687242e+01    0.1840323    0.1662014  70.54 0.0008618268    1.597    0.374
         3  -7.9574     47.4960     10.2584   6.5910931326e+01   6.7793146968e+01    0.1492677    0.1062135 -37.35 0.0009322349    1.694    0.410
         4  -7.7767     28.0082      9.9788   7.4685651908e+01   7.0641002713e+01    0.1398905    0.1086217  -8.50 0.0004209602    1.088    0.081
         5  -8.3849     90.5899      8.8367   5.1148330088e+01   5.9795799248e+01    0.1604216    0.1119395 -39.02 0.0005667298    1.696    0.410
         6  -7.8137    101.3995      8.1604   4.8301683272e+01   5.7512266852e+01    0.1556919    0.1142446 -39.83 0.0002432586    1.592    0.372
         7  -8.7638     33.6864      5.3866   6.9622612246e+01   7.0432197051e+01    0.2173003    0.1646594 -49.93  0.001387475    2.172    0.540
         8  -8.5758     79.0524      3.8737   5.2198850712e+01   6.2636509361e+01    0.2498453    0.1412926 -42.09 0.0007639351    2.289    0.563
         9  -8.3900    166.9729      3.0008   3.6165953226e+01   4.2675957809e+01    0.1863737    0.1571469  72.96 0.0004048621    1.115    0.103
        10  -7.7315     44.6370      3.2719   6.3701146660e+01   6.9002971490e+01    0.1001095   0.09198576  66.21 0.0005114133    1.658    0.397
        11  -7.5564    115.4487      2.4704   4.3406438843e+01   5.4831369004e+01    0.1248221    0.1076203  65.20 0.0003892949    1.042    0.041
        12  -8.3892     62.3276      1.5165   5.6256394061e+01   6.6096694164e+01    0.1975358    0.1069083  55.90 0.0005587459    1.845    0.458
        13  -9.9188    223.8560    244.1130   8.0429948251e+01  -8.3037205282e+00    0.4390686    0.2173158 -45.86  0.002299228    2.588    0.614
        14  -9.2224    246.5836    228.6277   7.3932530227e+01  -9.0595358647e+00    0.4178334    0.1549649 -33.96  0.001670933    2.495    0.599
        15  -9.9136    248.7319    243.6041   7.6027711194e+01  -1.1294278715e+01    0.7123265    0.1833541 -39.92  0.002940313    3.983    0.749
        16  -8.4372    247.8449    234.6879   7.4727107158e+01  -1.0030081916e+01    0.2189179    0.1286197 -19.45 0.0009578561    1.561    0.359
        17  -7.9401    197.9958    250.0051   8.6110295434e+01  -5.6712727327e+00    0.1492446    0.1122647  22.23 0.0004674185    1.114    0.102
        18  -8.1021    191.5296    249.9902   8.7336885860e+01  -4.7687308392e+00    0.1397124     0.110437 -78.09 0.0007307664    2.410    0.585
        19  -9.3538    210.8737    246.6644   8.3194103334e+01  -6.9486526990e+00    0.2032294    0.1657947 -35.59 0.0007740477    1.448    0.309
        20  -9.1250    120.2224    245.6092   1.0106469386e+02   6.5699357485e+00     0.357865    0.2172447  69.43  0.001681717    2.369    0.578
        21  -8.1329     67.4949    245.0619   1.1185081059e+02   1.4251532746e+01    0.1706126    0.1142664 -76.82   0.00102676    1.572    0.364
        22  -9.0078      9.3644    243.6738   1.2297383580e+02   2.1367864599e+01    0.3321573    0.1002409  80.65   0.00124121    4.528    0.779
        23  -8.5825    202.0154    243.4486   8.4349607917e+01  -5.2754069164e+00    0.2034456    0.1666082 -51.41 0.0008230355    1.685    0.406
        24  -8.7633    168.9880    243.4683   9.0790506466e+01  -4.8044453045e-01    0.1972857    0.1794321 -79.17  0.000554849    1.495    0.331
        25  -9.1029     77.8877    243.1579   1.0956148327e+02   1.3212011291e+01    0.3059957    0.1605055  69.64  0.001464477    2.332    0.571
        26  -8.9236    194.2431    240.4069   8.5359920941e+01  -3.7195480453e+00    0.3380887    0.1703296 -49.73  0.001520666    2.569    0.611
        27  -9.2511    183.2014    240.2874   8.7492291602e+01  -2.0902200127e+00    0.3837473    0.2490333  60.19  0.001901622    2.653    0.623
        28  -9.3919    160.0462    240.3044   9.2139672986e+01   1.4010333009e+00    0.3313611    0.2503653  86.62  0.001786427    2.186    0.543
        29  -8.0374    153.4336    242.1878   9.3759053037e+01   2.0955057877e+00    0.1568417    0.1254285 -71.11 0.0009046777    1.680    0.405
        30  -8.2018     88.0429    242.0480   1.0735404964e+02   1.1998465562e+01    0.2041887    0.1520115 -75.97 0.0007547127    1.466    0.318
        31  -7.8516    240.5012    240.5180   7.6928580183e+01  -9.9117675982e+00    0.1864752   0.09939955 -33.47 0.0007533453    1.779    0.438
        32  -8.8086    242.1820    236.8045   7.6036073232e+01  -9.6235964914e+00    0.2037145    0.1112201 -11.93  0.001103933    2.061    0.515
        33  -9.2459    135.6903    239.3005   9.7038945644e+01   5.3446859626e+00    0.2949204     0.133593  48.32  0.001303906    2.229    0.551
        34  -8.3240    129.4756    238.9681   9.8298948640e+01   6.3690613407e+00    0.1700992    0.1111623  86.19 0.0008097469    2.519    0.603
        35  -9.0647    230.6719    237.0235   7.8075350850e+01  -8.2067173345e+00     0.243994      0.21579  79.43  0.001089577    2.234    0.552
        36  -7.9328    209.1794    238.1895   8.2174742253e+01  -5.4982756472e+00    0.1482476     0.141875 -17.64 0.0005589155    1.372    0.271
        37  -7.9472     13.6022    238.2702   1.2191600708e+02   2.2014602353e+01    0.1270234   0.05894577  59.05 0.0006982104    1.736    0.424
        38  -8.1065     25.6363    236.8195   1.1953740842e+02   2.1029029862e+01    0.2677723    0.1034302  74.26  0.001161441    3.024    0.669
        39  -8.8998    216.6867    235.3834   8.0330693078e+01  -6.1200855233e+00     0.216965     0.175186 -44.04 0.0009640245    1.579    0.367
        40  -9.2313    213.6559    231.6903   8.0286762098e+01  -5.1572464873e+00    0.2933899    0.2533248 -86.44  0.001058319    2.125    0.529
        41  -8.9356    203.2147    234.8239   8.2759181924e+01  -4.1550959481e+00    0.2336441    0.1893816 -59.60 0.0009098343    1.849    0.459
        42  -9.8093    175.7508    233.3998   8.7918032618e+01   1.4959768953e-01    0.4518336    0.2366903 -57.16  0.002069666    2.833    0.647
        43  -8.0191    169.9817    235.9024   8.9467808099e+01   6.1671771320e-01    0.1863204    0.1498261  64.39 0.0005408128    1.680    0.405
        44  -7.4612     57.9963    237.0000   1.1308877663e+02   1.7116176326e+01    0.1989168   0.06182744  34.76 0.0008000557    2.926    0.658
        45  -7.5551    152.6748    235.3157   9.2937160118e+01   3.4057968667e+00    0.1287544    0.0959169  61.66 0.0005478287    1.669    0.401
        46  -9.1295    108.6903    234.4182   1.0213838154e+02   1.0435859181e+01    0.3659089    0.2151286  58.12  0.001157745    1.819    0.450
        47  -8.2965     99.7821    234.6065   1.0406680014e+02   1.1744980330e+01    0.2457266    0.1504637  75.24  0.001204104    2.139    0.533
        48  -8.7913     78.6402    234.4404   1.0854857009e+02   1.4851091366e+01    0.2713568    0.1580224  71.08 0.0009876393    1.947    0.486
        49  -9.3185      8.2573    234.5764   1.2272767273e+02   2.3303052495e+01    0.1854753    0.1171767 -64.25  0.001187123    1.803    0.445
        50  -8.4568    122.7277    233.7862   9.9053646153e+01   8.3901595656e+00    0.2382219     0.153934  88.97 0.0008433762    2.411    0.585
        51  -9.4229     68.3443    232.5896   1.1054122360e+02   1.6653275147e+01    0.4548005    0.1865926  60.28  0.001849903    2.934    0.659
        52  -8.6359    194.1681    232.6403   8.4148068694e+01  -2.5021552191e+00    0.1890988    0.1682215 -37.02 0.0005551052    1.323    0.244
        53  -8.0060    145.0095    233.0542   9.4217027641e+01   5.0180876631e+00    0.2083018    0.1489595  62.71  0.001120292    1.740    0.425
        54  -8.5520    132.5076    232.9188   9.6849200951e+01   7.0192622984e+00     0.177009     0.132379 -58.70 0.0007354554    1.543    0.352
        55  -9.6643    186.1148    229.8591   8.5284813734e+01  -8.4749310845e-01    0.4705282    0.2968644 -67.24  0.002025034    3.237    0.691
        56  -8.8083    180.3535    224.0449   8.5500510746e+01   1.0172038584e+00    0.2376685    0.2131821  74.27 0.0007188238    1.518    0.341
        57  -8.5684    157.8446    232.1705   9.1399640912e+01   3.1486576971e+00    0.1956681    0.1655196  51.35 0.0005888487    1.270    0.213
        58  -8.2707     92.3616    231.6830   1.0532484982e+02   1.3434696692e+01      0.28132     0.150193  69.50 0.0009217333    2.599    0.615
        59  -8.9417    236.1081    230.5786   7.6057407906e+01  -8.0086115399e+00     0.280627     0.167726 -37.08 0.0008861783    1.672    0.402
        60  -8.4819    140.2398    230.3759   9.4845787202e+01   6.2687460576e+00    0.2827534    0.1679386  54.89 0.0009356044    1.940    0.485
        61  -8.7753      1.7637    230.9115   1.2376520663e+02   2.4679758716e+01    0.2197799    0.1120881  73.98 0.0009097843    1.613    0.380
        62  -8.8499    151.2981    228.9547   9.2292035956e+01   4.7649920510e+00    0.2582754    0.1914825  80.87   0.00111538    2.066    0.516
        63  -9.4629    148.8009    224.6599   9.2178558289e+01   5.9599266394e+00    0.4320926    0.2957246  82.82   0.00139618    2.585    0.613
        64  -8.4143    229.9439    228.9979   7.6878810391e+01  -6.9797942056e+00    0.1554751    0.1521264 -72.72 0.0006654286    1.636    0.389
        65  -8.8464    162.3081    227.9647   8.9832689797e+01   3.1868023476e+00    0.2911678    0.2003562  51.41  0.001379928    1.614    0.381
        66  -8.9609    127.8582    227.2818   9.7074129475e+01   8.8344344350e+00    0.3187238    0.2073163  63.18  0.001198177    1.892    0.471
        67  -8.5191    120.0657    227.8191   9.8840598321e+01   9.9666660857e+00     0.225964    0.1687228 -89.73  0.001232057    1.674    0.403
        68 -10.1147    216.8505    225.6022   7.8681610553e+01  -4.6880790204e+00    0.3180082    0.2168682 -41.86 0.0004852682    1.618    0.382
        69  -8.7565    205.9471    225.9283   8.0781156367e+01  -3.1743402118e+00     0.210491    0.1642974 -40.70 0.0007888713    1.439    0.305
        70  -8.2169    200.1666    226.2058   8.1935289048e+01  -2.3675470883e+00    0.1547218    0.1512127  33.76 0.0004926102    1.340    0.254
        71  -8.9056     94.2163    224.3629   1.0407262748e+02   1.4666082863e+01    0.4409453    0.2047873  59.89  0.001768217    2.798    0.643
        72  -8.9891    104.8044    223.7832   1.0166337180e+02   1.3170576204e+01    0.3539038     0.227265  85.34  0.001723074    2.101    0.524
        73  -7.5995     71.6831    225.6763   1.0914799403e+02   1.7645471505e+01    0.1182437    0.1015834 -25.02 0.0003498562    1.668    0.401
        74  -8.0455     38.4404    224.9456   1.1614811852e+02   2.2059594240e+01    0.1808365   0.08224108  75.92 0.0008072839    2.519    0.603
        75  -8.5359    173.0558    223.3098   8.6871795362e+01   2.2981535483e+00    0.2109032    0.1846732  88.18 0.0005959588    1.588    0.370
        76  -8.7183      8.3185    228.6541   1.2240981442e+02   2.4515476261e+01    0.1283885   0.06186835  64.18 0.0007048948    1.726    0.421
        77  -8.9233    159.0123    220.3533   8.9335114226e+01   5.0991123660e+00    0.2763444    0.2111313  67.03  0.001016536    1.749    0.428
        78  -8.0835    140.5517    222.7611   9.3670238197e+01   7.6611357845e+00    0.1673339    0.1323271 -73.34 0.0008145611    1.567    0.362
        79  -7.9080     59.6759    223.3853   1.1151872307e+02   1.9754791097e+01    0.1437247   0.07904698  65.99 0.0007013562    1.854    0.461
        80  -9.1159    239.1565    221.0031   7.3907939917e+01  -7.0426543105e+00    0.3365562    0.1714968 -28.20  0.001713627    1.860    0.462
        81  -9.1646    225.4418    221.6877   7.6447675779e+01  -5.2961669268e+00    0.2097377    0.1870154 -22.51 0.0004025287    1.262    0.208
        82  -9.3606    192.3431    221.3236   8.2649614947e+01  -3.8711962461e-01    0.2783895     0.241563 -83.95  0.001196465    1.769    0.435
        83  -8.6327     82.8138    220.6743   1.0616676438e+02   1.7134238759e+01    0.2562495    0.1510441  75.18  0.001113846    2.081    0.520
        84  -8.2727     73.0131    220.3223   1.0829960450e+02   1.8608469270e+01    0.2692041     0.140705  80.23  0.001152504    2.642    0.621
        85  -8.0408     27.5837    221.2621   1.1812298462e+02   2.4084681869e+01    0.1621447   0.09871931 -68.20 0.0009438295    1.646    0.392
        86  -8.3689    202.6940    220.1503   8.0430105743e+01  -1.7698005718e+00     0.180158    0.1579463 -48.20 0.0006814681    1.428    0.300
        87  -9.0301    120.2146    219.1018   9.7614602270e+01   1.1693631619e+01    0.4416236    0.2379666  62.24  0.001739301    2.663    0.624
        88  -9.4803    132.9963    216.0788   9.4329975827e+01   1.0217547954e+01    0.5555882    0.3326694  75.44  0.002167342    3.301    0.697
        89  -8.5495    248.8016    218.0627   7.1762073162e+01  -7.8657658552e+00    0.2088038    0.1509138  57.59  0.001178262    2.734    0.634
        90  -8.2972     61.7434    217.3457   1.1048263774e+02   2.0796573388e+01    0.2322409    0.1441544  85.55  0.001188645    1.687    0.407
        91  -8.7975     51.8148    217.5442   1.1268035533e+02   2.2039880691e+01    0.2524919    0.1437779  80.99 0.0007873147    1.850    0.459
        92  -8.9138    186.2314    215.7524   8.2929203115e+01   1.5205466764e+00    0.3980567    0.2498169 -64.27  0.001730171    2.747    0.636
        93  -8.6089    169.4326    216.3033   8.6479440439e+01   4.1388728166e+00    0.2576622    0.2044397  80.51 0.0008035037    1.904    0.475
        94  -8.8271    142.8882    216.2937   9.2178766644e+01   8.5345591600e+00    0.3507752    0.2263291 -77.00  0.001594479    2.468    0.595
        95  -8.2690    209.9758    219.2895   7.8893074743e+01  -2.7154050386e+00    0.1741119    0.1483914   6.52 0.0004341442    1.030    0.030
        96  -7.7873     55.8616    217.1684   1.1176029621e+02   2.1606209521e+01    0.1587516    0.1406362 -63.11            0    1.335    0.251
        97  -7.4059     18.5115    216.5041   1.1966897480e+02   2.6080401842e+01    0.1221307   0.09472279  74.17 0.0001382991    1.003    0.003
        98  -8.7363    232.1673    214.1807   7.3945605779e+01  -5.0931755072e+00    0.2744001    0.1600519 -37.16 0.0009508776    1.631    0.387
        99  -8.0475    154.6202    215.3047   8.9468428576e+01   6.7740037481e+00    0.2342981    0.1225764  45.67 0.0009237879    1.892    0.472
       100  -9.5748    153.9080    211.3264   8.8976630279e+01   7.6610221456e+00    0.2656184    0.2322646 -38.13 0.0003105145    1.222    0.182
       101  -9.4534    213.9925    212.4126   7.6941524197e+01  -2.2070751780e+00    0.3287095    0.2743343  60.81  0.001415808    1.788    0.441
       102  -8.6800     92.7871    213.8799   1.0310690741e+02   1.7118875605e+01    0.3042747    0.1795405  62.05  0.001020908    1.870    0.465
       103  -9.4253     73.0741    211.8316   1.0735587102e+02   2.0467039120e+01    0.6701416    0.2554048  59.50  0.002234913    3.963    0.748
       104  -8.8015    161.5061    212.0713   8.7457777148e+01   6.2407875067e+00    0.2493813    0.2163166  88.86 0.0007121528    1.495    0.331
       105  -7.9919    106.5693    212.7700   9.9814848064e+01   1.5210883287e+01    0.1799904    0.1297565 -81.81 0.0009331581    1.606    0.377
       106  -8.9285    204.2673    211.0814   7.8555622800e+01  -5.1330948781e-01    0.2430931    0.2107492 -60.76  0.000558653    1.568    0.362
       107  -9.4997    175.4838    210.0998   8.4167088989e+01   4.2791441120e+00    0.4020967    0.2775927  65.43  0.001570851    2.296    0.564
       108  -9.2701      7.4006    210.5073   1.2157906479e+02   2.8482407039e+01    0.4171139    0.1249201  72.86  0.001353519    5.170    0.807
       109  -8.7935    147.8747    210.3686   9.0142290776e+01   8.8685504476e+00    0.3001417    0.2289502  83.16  0.001397557    1.848    0.459
       110  -8.8356    116.3324    210.2635   9.7228271931e+01   1.4169941654e+01    0.3723797    0.2341772  71.77  0.001331063    2.228    0.551
       111  -8.2388    192.3792    210.2954   8.0751303597e+01   1.4900874259e+00    0.1703262    0.1239564 -50.46 0.0004458771    1.604    0.376
       112  -8.5903     85.2782    209.1752   1.0424051802e+02   1.9289093519e+01    0.3280623    0.1883732  84.03  0.001122576    2.389    0.581
       113  -8.2259     32.3494    210.6691   1.1632403286e+02   2.5888248972e+01    0.1398342   0.07384114  63.97 0.0007048445    1.768    0.435
       114  -9.0250    236.3010    208.1229   7.2149996572e+01  -4.7432875459e+00    0.2627885     0.199508 -53.29  0.001072587    1.844    0.458
       115  -8.3078     46.1836    209.2063   1.1315599534e+02   2.4601117840e+01    0.1864817     0.125651  70.00 0.0005217772    1.346    0.257
       116  -9.2985    246.4665    207.3048   7.0268768299e+01  -6.0008497062e+00    0.2398447    0.1827312 -26.25 0.0005751362    1.160    0.138
       117  -8.5259    138.9355    207.8724   9.1729264464e+01   1.0888786880e+01    0.2537156    0.1815882  83.58  0.001208399    2.054    0.513
       118  -8.4247    125.6811    207.5718   9.4687071390e+01   1.3191140033e+01    0.3719791    0.2146732  76.56  0.001325392    3.673    0.728
       119  -9.2070     99.3136    206.0761   1.0057161228e+02   1.7823596718e+01    0.4028211    0.2555741  86.72  0.001396076    2.096    0.523
       120  -8.5575     56.3415    205.1627   1.1046068427e+02   2.4245063517e+01    0.2840076    0.1607349  81.26  0.001111528    1.972    0.493
       121  -9.1312    183.7719    203.9084   8.1365312024e+01   4.0382491922e+00    0.3297886     0.256449  76.40  0.001105109    2.054    0.513
       122  -8.6111    131.1602    203.8284   9.2846583457e+01   1.3055405076e+01    0.3275303    0.2201644  81.81  0.000964939    2.298    0.565
       123  -8.1461    109.0507    205.3071   9.8190315568e+01   1.6431526553e+01    0.1986803    0.1719292  57.49 0.0007084122    1.075    0.070
       124  -8.3399     24.7034    205.3125   1.1756854291e+02   2.7924734060e+01    0.1321036   0.07474621  66.23 0.0002134249    1.600    0.375
       125  -9.5470    249.9462    201.5236   6.8656841035e+01  -5.6019666395e+00     0.468866    0.1835058 -43.69  0.002128133    2.629    0.620
       126  -9.6185    245.3460    193.3892   6.7938217810e+01  -3.7284637171e+00    0.2725693    0.2195623 -52.79 0.0004854152    1.638    0.390
       127  -9.1830    192.4917    197.4835   7.8425312166e+01   3.7572349255e+00    0.3219438    0.2539248 -66.01 0.0008584938    1.749    0.428
       128  -9.6216    163.6935    202.9977   8.5442285412e+01   7.6177354125e+00    0.3910009    0.2852319  65.39 0.0007623022    1.872    0.466
       129  -8.3240    211.1142    202.2502   7.5663011035e+01  -8.8534617820e-02    0.2193653    0.1703435 -67.11 0.0005232266    2.024    0.506
       130  -9.0914    140.3529    200.9791   9.0281503877e+01   1.2071896806e+01    0.4152878     0.272037 -85.35   0.00175766    2.602    0.616
       131  -8.3222     48.6678    202.4934   1.1195273966e+02   2.5831360692e+01    0.2414143    0.1373923  79.04    0.0011791    1.866    0.464
       132  -7.8396     41.7862    203.2031   1.1359125771e+02   2.6499648953e+01     0.243032    0.1017844  64.34  0.000966411    2.877    0.652
       133  -9.1142    243.0723    200.8233   6.9677081106e+01  -4.5621151507e+00    0.2986609    0.1577402 -40.14 0.0009720721    1.779    0.438
       134  -8.7509     79.9615    201.4361   1.0451304639e+02   2.1831492135e+01    0.3492197    0.1988225  79.90  0.001499007    2.365    0.577
       135  -7.8503     10.3126    202.6696   1.2048466041e+02   2.9951948281e+01    0.1317814   0.06965157  65.71 0.0005841695    1.674    0.402
       136  -9.1648    237.0732    198.6829   7.0311805341e+01  -3.3867635599e+00    0.3143182    0.1610631 -41.08  0.001046475    1.858    0.462
       137  -9.4833    149.3823    198.4572   8.7810413482e+01   1.1018925541e+01    0.4890662    0.3283438  87.48  0.001570827    2.722    0.633
       138  -8.9233    123.8288    199.1801   9.3801081477e+01   1.5306167433e+01    0.3475413     0.247538  83.06  0.001654863    1.883    0.469
       139  -9.4652    112.8436    198.5132   9.6283763682e+01   1.7309784090e+01    0.4628074    0.2832264  70.68  0.001681748    2.327    0.570
       140  -9.0705     88.7412    198.5899   1.0204702542e+02   2.1166044331e+01    0.3731373    0.2300703  82.24  0.001675589    2.106    0.525
       141  -8.6638    176.9853    198.6045   8.1822981763e+01   6.1781283453e+00    0.2495244    0.1957019 -63.98 0.0007342304    1.625    0.384
       142  -8.5682    132.8882    196.9281   9.1320837631e+01   1.4230619610e+01    0.4099177    0.1866449 -49.68  0.001531252    2.300    0.565
       143  -8.2973    202.4977    198.1266   7.6561972317e+01   1.9935721384e+00    0.2007056    0.1843094  61.13 0.0007440668    1.408    0.290
       144  -7.9691    101.9403    199.0000   9.8949385753e+01   1.8991492092e+01    0.2343642   0.07613426  36.17  0.000755336    2.926    0.658
       145  -9.2578     61.3034    196.9475   1.0840553070e+02   2.5499624704e+01    0.4412165    0.2268747  70.11  0.001866196    2.439    0.590
       146  -8.0154     12.4221    197.6188   1.1969037193e+02   3.0899155400e+01     0.248399   0.08868033  85.69  0.000957633    3.295    0.697
       147  -8.0354     53.5023    196.9831   1.1025908138e+02   2.6509021909e+01    0.1936821   0.09891069  79.40  0.000809297    2.459    0.593
       148  -8.0830     36.1940    196.7853   1.1427979237e+02   2.8634882032e+01    0.2341515   0.09941867  64.86 0.0009462119    2.782    0.641
       149  -8.1927     29.2477    197.2570   1.1591062663e+02   2.9290073840e+01    0.2056249   0.09063678 -89.51 0.0008899511    2.422    0.587
       150  -8.6200    215.8539    195.5653   7.3541339181e+01   3.0481567689e-01    0.2415658    0.1661758 -55.01  0.000976075    1.905    0.475
       151  -8.9510    185.2505    194.9068   7.9423736845e+01   5.4595671366e+00    0.2693193    0.2341084 -75.22 0.0007896763    1.520    0.342
       152  -8.7600    224.3525    194.0156   7.1694444834e+01  -7.5059691126e-01    0.3248123     0.172088 -46.14  0.001355307    2.005    0.501
       153  -8.8678    161.1002    194.3954   8.4482457548e+01   9.7801609615e+00    0.3135674    0.2410012 -88.61 0.0009417789    1.912    0.477
       154  -8.9716     43.7862    193.4765   1.1218942192e+02   2.8532612346e+01    0.4171775    0.2028978  74.75  0.001770262    2.523    0.604
       155  -8.0828    230.5522    194.4880   7.0676414568e+01  -1.7637988490e+00    0.1282998    0.1087754 -13.68  7.37416e-05    1.006    0.006
       156  -8.8164     77.2317    193.9578   1.0420505069e+02   2.3973146842e+01     0.262646    0.2042514  64.51  0.000644816    1.216    0.178
       157  -9.4565    194.9148    203.2753   7.8996557697e+01   2.3159662219e+00    0.4619458    0.3094041 -18.57  0.001663861    1.700    0.412
       158  -7.8202    205.3525    192.1470   7.4892638798e+01   2.5859922618e+00    0.1839247    0.1200951 -49.15   0.00044321    1.695    0.410
       159  -8.2336    198.8795    191.6131   7.6056236774e+01   3.7565714295e+00    0.2514662    0.1742994 -56.96  0.000837962    1.838    0.456
       160  -8.2582    172.6420    192.0427   8.1542594374e+01   8.2059875996e+00    0.2135903     0.176736 -68.82   0.00114363    1.512    0.339
       161  -9.0720    139.4597    190.6930   8.8724175409e+01   1.4416785527e+01     0.377475     0.271141  87.18  0.001114637    2.030    0.507
       162  -8.3539    178.8877    191.3625   8.0089101007e+01   7.2390876922e+00     0.191067    0.1742335 -50.52 0.0005525242    1.205    0.170
       163 -10.4870     92.1831    188.8106   9.9819855042e+01   2.2909540781e+01    0.9787429    0.3006338  47.88  0.003115552    3.540    0.717
       164  -8.4379      6.4556    190.9391   1.2054700171e+02   3.2973016004e+01     0.184886   0.07610469  75.42 0.0008086004    2.549    0.608
       165  -8.6242    148.2798    189.3829   8.6455451437e+01   1.3113586263e+01    0.2315153    0.1772865 -78.37  0.000694792    1.700    0.412
       166  -8.9087    129.3663    188.7414   9.0757706047e+01   1.6642143465e+01    0.3350915    0.2362008  77.92 0.0009942831    1.956    0.489
       167  -8.3095    237.2464    188.4976   6.8395233584e+01  -1.7834394526e+00    0.2300388     0.151072 -35.58 0.0006161018    1.360    0.265
       168  -8.9219    216.5177    187.8884   7.1971963881e+01   1.5193853889e+00       0.2648    0.2053098 -48.06 0.0007255067    1.428    0.300
       169  -9.2408    155.9688    187.6603   8.4394648599e+01   1.2085292196e+01    0.3658117    0.2332662 -61.28 0.0009643015    1.911    0.477
       170  -9.6943    120.8679    186.6289   9.2434939092e+01   1.8615522405e+01    0.5686588       0.3151 -75.92  0.002114075    2.925    0.658
       171  -9.0310     34.3098    188.1439   1.1391230576e+02   3.0885094474e+01    0.3514117    0.1676238  73.73  0.001126253    2.464    0.594
       172  -8.4239    230.5048    187.4807   6.9371523595e+01  -6.0350191585e-01     0.213503    0.1131639 -48.02  0.000742106    2.098    0.523
       173  -8.9361    191.3716    187.5970   7.6795677010e+01   5.7800231553e+00    0.2727142    0.2265366 -89.27 0.0009686391    1.770    0.435
       174  -8.9546     54.9659    187.0811   1.0879835252e+02   2.8678683717e+01    0.4523318    0.2261075  69.68  0.001853123    2.569    0.611
       175  -8.8974    249.2987    185.8176   6.5885329812e+01  -3.0993072145e+00    0.2634936    0.1739885 -39.66  0.000783718    1.403    0.287
       176  -8.6473    164.7905    186.8855   8.2285207449e+01   1.0645766296e+01    0.2470959    0.2007895 -74.75 0.0006019701    1.569    0.363
       177  -9.1975    109.6737    186.1554   9.5088816449e+01   2.0657589597e+01    0.3999709    0.2519075  72.11  0.001122862    2.208    0.547
       178  -8.5566    182.8929    185.0266   7.8046827966e+01   7.7615569879e+00    0.2703571    0.1816146 -49.36 0.0005864766    1.571    0.364
       179  -8.8066    210.1814    184.0655   7.2425565951e+01   3.2298155416e+00    0.3233833    0.1757428 -40.00  0.001163995    1.741    0.426
       180  -9.0129    174.5107    183.7320   7.9571581393e+01   9.5225063118e+00    0.3260935    0.2605054  87.02  0.001161727    1.806    0.446
       181  -9.0341     66.4396    184.4874   1.0563113926e+02   2.7775495136e+01    0.3791896    0.2211268  71.08  0.001175286    2.032    0.508
       182  -7.9232     12.3570    185.6609   1.1883842632e+02   3.3675140646e+01    0.1391918   0.07262034  64.74 0.0007039569    1.814    0.449
       183  -8.4866    224.1235    183.6577   6.9775276113e+01   1.0347162059e+00    0.2212118    0.1612597 -42.41 0.0006995695    1.360    0.265
       184  -8.1623      1.8347    183.7997   1.2110158407e+02   3.5015135299e+01    0.1744686     0.112154  63.40  0.001055129    1.375    0.273
       185  -8.4460    240.3126    180.5056   6.6364680720e+01  -9.3631251723e-01    0.2506218     0.109858 -42.88  0.001013443    2.126    0.530
       186  -9.1655     44.2616    182.3887   1.1090542447e+02   3.1134350197e+01     0.334558    0.1942248  78.81 0.0009364515    1.851    0.460
       187  -9.3220    147.5337    180.7189   8.5027966339e+01   1.5111474189e+01     0.364787    0.2741745 -87.17  0.001035278    1.848    0.459
       188  -9.5542     25.7668    179.1066   1.1511169248e+02   3.3954157462e+01    0.7206869    0.2738395  78.62  0.002342681    4.467    0.776
       189  -7.7883     90.6275    181.6957   9.9133919773e+01   2.4850333519e+01    0.1441525    0.1142427 -17.97  0.000703158    1.759    0.431
       190  -8.7052    137.6065    179.2806   8.7095474743e+01   1.7261969652e+01    0.3157715    0.2298817  73.42  0.001087633    1.814    0.449
       191  -9.3728    191.6137    178.4354   7.4965452248e+01   7.4819402516e+00     0.307811    0.2624694  77.04 0.0006481083    1.576    0.365
       192  -8.0006    169.5369    178.8002   7.9691789749e+01   1.1434138675e+01    0.1976668    0.1389391 -60.86  0.000928589    1.706    0.414
       193  -9.1641     36.2685    177.2903   1.1234074218e+02   3.3288742112e+01    0.5532532    0.2331761  76.66  0.001904699    3.830    0.739
       194  -9.5403    248.4322    176.3658   6.4244343259e+01  -1.4679016625e+00    0.4393676    0.2623725 -50.50  0.002050897    1.957    0.489
       195  -8.6606    250.5201    172.9142   6.3253271040e+01  -1.2173668115e+00    0.1848513    0.1529466 -35.47 0.0004794913    1.151    0.131
       196  -8.5717    231.1827    176.9309   6.7231287468e+01   1.0665814564e+00    0.2582043    0.1579078 -47.31 0.0007490198    1.703    0.413
       197  -8.5712    217.5902    177.5661   6.9778030003e+01   3.1574343423e+00    0.2527741    0.1950979 -53.77 0.0006789656    1.511    0.338
       198  -8.7315    204.9310    177.5684   7.2159373841e+01   5.3028101099e+00    0.2722545    0.1726386 -55.70 0.0007646941    1.958    0.489
       199  -9.0527    129.0213    177.4765   8.8831429734e+01   1.9244151906e+01    0.3401308    0.2370733  79.87   0.00104063    2.044    0.511
       200  -9.0618    183.0921    176.1547   7.6268246820e+01   9.4700187071e+00    0.3030556     0.227774 -59.04 0.0006525431    1.560    0.359
       201  -8.6797     88.9550    176.8064   9.8798067762e+01   2.6297514443e+01    0.3074869    0.2162595  82.32  0.001057729    1.653    0.395
       202  -9.2795     58.7522    175.5146   1.0641339034e+02   3.1009588883e+01    0.5111347    0.2638063  72.93  0.002012533    2.703    0.630
       203  -9.3438     55.6057    170.7981   1.0660999273e+02   3.2587599660e+01     0.444927    0.2455256 -88.73  0.001408895    2.132    0.531
       204  -8.9441     12.8350    176.5608   1.1800946866e+02   3.5787686337e+01    0.3071299    0.1372558  80.59  0.001108384    2.399    0.583
       205  -8.7000    202.8241    184.5945   7.3941373421e+01   4.3713139923e+00     0.253568    0.1783491 -58.54 0.0008807833    1.841    0.457
       206  -9.2966    158.8894    175.1150   8.1339143813e+01   1.4196562106e+01    0.4033843    0.2928427  82.15  0.001586105    2.125    0.529
       207  -9.8373    103.9744    174.6695   9.4591505418e+01   2.4340416447e+01    0.5572762    0.3617434  64.08  0.002471793    1.836    0.455
       208  -9.5116     81.7800    154.8817   9.7049352845e+01   3.2860989023e+01    0.5323864    0.3377203  86.82  0.001463701    2.126    0.530
       209 -10.7050     75.7929    169.7382   1.0113095546e+02   3.0057534117e+01     1.404584     0.515249 -73.58  0.004050797    4.498    0.778
       210  -7.9022     79.5020    158.4907   9.8306484845e+01   3.2307714718e+01    0.2073056    0.1481165  19.98 0.0009768581    1.738    0.425
       211  -8.5471    224.3185    174.3977   6.7940624257e+01   2.6071141344e+00    0.2163327    0.1499012 -53.29 0.0005543508    1.693    0.409
       212  -9.4912    175.9820    172.0383   7.6949665017e+01   1.1618540386e+01    0.4305246    0.2299756 -47.15  0.001114484    1.878    0.468
       213  -8.5988    143.1550    173.0330   8.4585298036e+01   1.7622544474e+01    0.2871956    0.1904152  66.15   0.00100948    2.063    0.515
       214  -8.7954    134.7394    171.8931   8.6388139205e+01   1.9461462838e+01    0.2667699    0.2070398 -77.75 0.0008050108    1.540    0.351
       215  -9.4911    121.4570    170.4543   8.9398415195e+01   2.2252181817e+01    0.4255274    0.2923447 -83.40  0.001089097    1.972    0.493
       216  -9.2294     45.0324    170.8593   1.0937786160e+02   3.3873625172e+01    0.4343965    0.2167831 -87.67  0.001273992    2.334    0.572
       217  -8.9971    230.3965    170.1937   6.6048354793e+01   2.3487362188e+00    0.2344144    0.1487519 -43.40 0.0007547509    1.486    0.327
       218  -8.5223    205.7316    170.1493   7.0522761906e+01   6.5429644043e+00    0.2923268    0.1768454 -57.04 0.0009974102    2.139    0.533
       219  -8.1953    237.1569    169.2985   6.4725638201e+01   1.4200094203e+00    0.2287231    0.1545508 -57.59 0.0007493544    1.958    0.489
       220  -8.3856    198.4277    170.2920   7.1970797729e+01   7.8214607952e+00    0.2166489    0.1747287  67.84 0.0004434466    1.652    0.395
       221  -9.1182    167.1750    168.6983   7.8193785257e+01   1.3983149066e+01    0.3381878    0.2526425  76.71  0.001134746    1.926    0.481
       222  -8.6904    149.7349    169.5162   8.2338483451e+01   1.7152393225e+01    0.2898968    0.2205051 -81.29 0.0008410431    1.740    0.425
       223  -7.6341     68.3273    170.6669   1.0324351181e+02   3.0906506717e+01    0.1535151    0.1001874  69.76   0.00070516    1.716    0.417
       224  -8.2745    244.3901    169.2328   6.3524630426e+01   3.0543996238e-01    0.1799526    0.1063541 -45.34 0.0004663108    1.636    0.389
       225  -8.3390    218.9447    168.4942   6.7730837293e+01   4.5519052756e+00    0.2411751    0.1774385 -52.48 0.0006785676    1.507    0.337
       226  -8.4795     88.6915    168.6577   9.7544919622e+01   2.8334592435e+01     0.251586    0.1726727 -88.03 0.0007940704    1.718    0.418
       227  -8.1054    211.4778    167.9861   6.8999364490e+01   5.9337107375e+00    0.2160619    0.1267164 -43.07 0.0006327118    1.609    0.378
       228  -8.7103    111.5366    167.4753   9.1366756394e+01   2.4749114590e+01    0.3342716    0.2132998  75.20 0.0009066197    2.329    0.571
       229  -8.6180     13.4777    167.9616   1.1712059687e+02   3.7800806826e+01    0.1848912   0.08573109  76.65  0.000798101    2.385    0.581
       230  -9.1884    191.8640    166.2970   7.2464584680e+01   9.7992532541e+00    0.3739953    0.1926188 -46.52  0.001008134    1.920    0.479
       231  -8.8095    185.0056    166.5791   7.3928186588e+01   1.1026796582e+01    0.2735582    0.1951826 -58.20 0.0007953374    1.622    0.383
       232 -10.0661     94.9706    162.8423   9.4872126189e+01   2.8741395426e+01    0.9378449    0.5057421  76.46  0.002882243    4.147    0.759
       233  -9.1621     20.6465    166.3696   1.1516697959e+02   3.7547020010e+01    0.3882488    0.1648749  60.45  0.001224854    2.725    0.633
       234  -9.8132    136.6388    164.5832   8.4487918192e+01   2.0773620805e+01    0.6134621    0.3293732  56.20  0.002020835    2.355    0.575
       235  -8.2331    233.8653    165.0616   6.4441218975e+01   2.6727843509e+00    0.1967339    0.1607032 -47.82 0.0005212617    1.285    0.222
       236  -8.6978    159.7213    164.5610   7.9020735156e+01   1.6307069925e+01    0.2801334     0.235813 -68.59 0.0008387247    1.340    0.254
       237  -9.4296     33.5193    163.5859   1.1153178268e+02   3.6963457907e+01    0.5339298    0.2150011  56.39   0.00206487    3.020    0.669
       238  -8.0941    240.0659    164.3190   6.3265968753e+01   1.8037445390e+00    0.1745768    0.1590057 -14.83 0.0004754292    1.090    0.083
       239  -8.5783    212.9960    163.7200   6.7849836079e+01   6.4544177514e+00    0.2482616    0.1807057 -41.02 0.0007177952    1.280    0.219
       240  -8.3116     56.4842    164.0359   1.0545307278e+02   3.4164876077e+01    0.4659283    0.2280909   9.55  0.001432534    5.229    0.809
       241  -8.6984     60.6598    160.5273   1.0381021941e+02   3.4499519777e+01    0.3854006    0.2130318  70.60  0.001408435    2.448    0.591
       242  -9.3247    246.0937    162.9466   6.2026397444e+01   1.0881881504e+00    0.5142975    0.3596979 -87.92  0.002333985    3.412    0.707
       243  -8.5359    242.9565    154.9928   6.0950869809e+01   2.9252987869e+00    0.3661272    0.1720309 -34.18  0.001528031    1.956    0.489
       244  -8.2374    239.9849    153.2446   6.1073037590e+01   3.7091550664e+00    0.1712919    0.1625446 -23.67 0.0004850683    1.127    0.113
       245  -8.5008    245.2888    158.6705   6.1312689544e+01   1.9303709539e+00    0.2309975    0.1600992 -43.56 0.0006154507    1.324    0.245
       246  -9.8579    250.1654    157.8319   6.0388522834e+01   1.3072090176e+00     0.350451    0.1781655 -42.83 0.0007872397    1.723    0.420
       247  -8.3896    246.7102    155.6718   6.0497174645e+01   2.2095556989e+00    0.2113435    0.1401079 -25.78 0.0005065688    1.455    0.313
       248  -8.4792    204.9862    162.8232   6.9168636720e+01   8.0573401625e+00    0.2404003    0.1733451 -55.92 0.0005838434    1.577    0.366
       249  -9.2648      3.3912    162.4207   1.1916284107e+02   3.9954195982e+01    0.3885103    0.1736588  55.16  0.001619476    2.278    0.561
       250  -9.1434    177.4273    160.7750   7.4315058645e+01   1.3659888022e+01    0.3112281      0.25474 -64.73 0.0009801828    1.402    0.287
       251  -8.8602    151.6692    161.1399   8.0174472508e+01   1.8632191989e+01    0.3249899    0.2462931 -82.04 0.0008678206    1.763    0.433
       252  -8.6095    227.5101    159.2810   6.4360668796e+01   4.7419155268e+00    0.2734437    0.1963429 -64.00  0.000974534    1.910    0.476
       253  -8.3305    237.3219    159.0015   6.2658858771e+01   3.1547409749e+00    0.1972225    0.1471551 -36.84 0.0005581243    1.168    0.144
       254  -9.2635    167.8874    157.6204   7.5724303049e+01   1.6194663880e+01    0.3798574    0.2822239  83.55  0.001143708    1.990    0.497
       255  -8.4594    128.1081    158.7571   8.5432736252e+01   2.3759104675e+01    0.2684104    0.2074689 -69.51 0.0007553338    1.423    0.297
       256  -9.6059    105.8188    157.9359   9.1064402793e+01   2.8076902099e+01    0.5017857    0.3185885  71.47  0.001002181    2.245    0.555
       257  -8.5616    196.7444    157.8915   6.9737422633e+01   1.0534643123e+01    0.2593483      0.19178 -60.63  0.000870811    1.602    0.376
       258  -8.0095    188.1705    158.1070   7.1503698821e+01   1.2126135558e+01    0.1957213    0.1735859 -75.67 0.0005184763    1.329    0.247
       259  -8.5407    217.9928    156.5032   6.5457845672e+01   6.8984133195e+00    0.2668867    0.1726566 -51.49 0.0006735604    1.637    0.389
       260  -8.8759    157.7504    156.2030   7.7715532862e+01   1.8517783079e+01    0.3073116    0.2031005 -58.90 0.0009328097    1.692    0.409
       261  -9.3333    119.5034    155.3494   8.6945873776e+01   2.6199251224e+01     0.426355    0.2899998 -85.49  0.001559108    2.093    0.522
       262  -9.2083     49.7460    155.3020   1.0606111344e+02   3.7210299627e+01    0.4812491    0.2536296  68.30  0.001536037    2.556    0.609
       263  -8.7505     34.0431    155.9664   1.1048347320e+02   3.8811441445e+01    0.3118883    0.1789223  32.14  0.001413208    1.886    0.470
       264  -7.9203    204.7952    155.5723   6.7692374631e+01   9.4744737401e+00    0.1771369    0.1376857  58.05 0.0003246114    1.538    0.350
       265  -8.3804    144.3365    154.6383   8.0552215031e+01   2.1542250262e+01    0.2813531     0.218754  86.14 0.0007576509    1.669    0.401
       266  -9.4058     68.1050    153.9424   1.0071085394e+02   3.5138518147e+01    0.4578802     0.261624  68.30  0.001246366    2.387    0.581
       267  -7.9860    233.0061    154.0057   6.2362238352e+01   4.7416810718e+00    0.2017393    0.1563757 -66.16 0.0004861213    1.686    0.407
       268  -9.6160    132.7357    152.9007   8.3047498863e+01   2.4234752047e+01    0.4417821    0.3505011  86.72  0.001177564    1.549    0.354
       269  -9.2192    133.5007    148.0149   8.1805134649e+01   2.5223309804e+01    0.3687001    0.2388875 -39.27   0.00159051    1.665    0.399
       270  -8.6280    151.6333    152.8215   7.8416055891e+01   2.0491883642e+01    0.2168114    0.1423908 -58.46 0.0005655125    1.669    0.401
       271  -9.3644     29.2218    150.4247   1.1113006069e+02   4.0686808196e+01    0.5730546    0.2610628  74.66  0.002120861    3.340    0.701
       272  -8.7417     19.8970    152.1124   1.1388952035e+02   4.1131329880e+01    0.2266665    0.1230035  76.70  0.001066779    2.031    0.508
       273  -9.4553    248.7911    149.4609   5.8944733941e+01   2.9219287772e+00    0.3113242    0.1764883 -41.82 0.0007381786    1.509    0.338
       274  -9.8143    242.6908    149.9166   5.9975560884e+01   3.8349833622e+00    0.2941125    0.2876476 -46.34  0.001973302    1.194    0.163
       275  -8.2036    182.2218    151.1852   7.1246122650e+01   1.4695649493e+01     0.205053    0.1730157 -71.15 0.0006964146    1.382    0.276
       276  -8.8477     98.3966    150.8041   9.1687170797e+01   3.1135107637e+01    0.3175516    0.2322227  76.00 0.0009754912    1.664    0.399
       277  -8.7002    189.4601    150.3143   6.9569524261e+01   1.3442387757e+01    0.2939711    0.2160773 -71.94 0.0008165569    1.853    0.460
       278  -8.0591    212.8569    149.8492   6.4989420157e+01   9.0639454374e+00    0.1846495     0.157543 -59.44 0.0003306156    1.287    0.223
       279  -8.0348    162.4659    150.5182   7.5404401351e+01   1.8810218557e+01    0.1524576    0.1445648 -82.63 0.0008068302    1.117    0.104
       280  -9.8863     39.8442    147.7487   1.0778491129e+02   4.0262321914e+01    0.6255705    0.3281846  74.48  0.002432762    2.623    0.619
       281  -8.8055      2.7588    150.1614   1.1828405076e+02   4.2965156436e+01    0.2102287    0.1298664  80.13   0.00100921    1.504    0.335
       282  -8.4913    198.8478    149.0737   6.7445083013e+01   1.1859760186e+01    0.2190399    0.1890869 -67.75 0.0005994283    1.323    0.244
       283 -10.3531     89.1567    146.1914   9.3361919932e+01   3.3852184013e+01    0.6800402    0.3948728  89.81   0.00239517    3.060    0.673
       284  -9.4531    233.3847    147.4631   6.0962528374e+01   5.8287979100e+00    0.2701392    0.1810353 -31.85 0.0007220558    1.376    0.273
       285 -10.3901    106.8825    143.9130   8.7949326476e+01   3.1316501816e+01    0.8854374    0.6054795 -76.15  0.002234722    1.797    0.443
       286  -9.1041     78.3152    147.1196   9.6623636729e+01   3.5353406628e+01    0.3801534    0.2315966  85.85  0.000859562    2.422    0.587
       287 -10.3381     54.7942    144.7487   1.0301685702e+02   3.9260593375e+01     0.813085    0.4054964  70.58  0.002732894    3.580    0.721
       288 -10.1246     54.0123    136.6758   1.0190181230e+02   4.1408198615e+01    0.6858876    0.3371902   4.99  0.002018688    5.592    0.821
       289  -8.1808    223.3132    146.9989   6.2548163009e+01   7.6849590329e+00    0.1975495     0.156693 -40.48  0.000365996    1.133    0.118
       290 -10.2046    148.8480    144.9324   7.7342575340e+01   2.2825936841e+01    0.5584833    0.3804233 -81.65  0.001483549    2.296    0.564
       291  -9.9208    139.0951    145.0438   7.9748994135e+01   2.4789029064e+01    0.4762356    0.2997627 -72.82  0.001530709    2.354    0.575
       292  -9.3921    139.6484    137.4721   7.7897027357e+01   2.6413766812e+01     0.526062    0.2880635 -26.73  0.001735838    3.193    0.687
       293  -9.3105     13.1772    146.5141   1.1512348160e+02   4.3079674082e+01    0.3152623    0.1921419  76.54  0.001240936    1.666    0.400
       294  -8.1058    206.9330    146.3026   6.5317683099e+01   1.0846255730e+01     0.191434    0.1818294 -35.04 0.0006316376    1.041    0.040
       295  -8.0978    175.6655    146.3310   7.1566249635e+01   1.7020911355e+01    0.2246864     0.176994 -86.09 0.0008215521    1.690    0.408
       296  -8.5861    240.1713    145.2027   5.9415823801e+01   5.0659744977e+00     0.211669    0.1621723 -50.33 0.0005035978    1.294    0.227
       297  -9.2950    242.7099    143.3340   5.8641731419e+01   4.9610326227e+00     0.176237    0.1698507  -9.80 0.0005386354    1.151    0.132
       298  -9.7719    124.9686    142.2121   8.2724735531e+01   2.8277429571e+01    0.7343744      0.38312 -62.53  0.002119733    2.385    0.581
       299  -9.0965    247.0471    143.8478   5.8085262901e+01   4.1528874663e+00    0.2258166    0.1596177 -39.93 0.0005404995    1.200    0.167
       300  -8.2018    194.0582    144.0203   6.7277226050e+01   1.3793546014e+01    0.2247791    0.1791352 -80.31 0.0006008144    1.639    0.390
       301  -9.4551    182.5005    143.1615   6.9419411480e+01   1.6288769033e+01    0.3583498    0.2549106 -53.32   0.00103459    1.442    0.307
       302  -8.7162    165.6555    144.1101   7.3262241159e+01   1.9544012940e+01    0.2470465    0.2133154  67.49 0.0007534987    1.283    0.221
       303 -10.9158     69.5877    140.9167   9.8014637220e+01   3.8225867427e+01    0.6839949     0.437507 -82.01  0.002502127    1.838    0.456
       304  -9.2718      2.5249    141.2331   1.1752067121e+02   4.5154012571e+01    0.4474515    0.1957368  78.77  0.001910644    2.731    0.634
       305  -8.5143    250.4834    140.8934   5.6980855023e+01   4.0889178619e+00    0.1981353    0.1090393 -40.10  0.000686412    1.520    0.342
       306  -8.0264    238.2403    140.9719   5.8852293997e+01   6.1301631085e+00    0.1808556   0.09877416 -40.33 0.0006986603    1.576    0.366
       307  -9.8207     23.4979    138.2448   1.1122916833e+02   4.4270046548e+01     0.523245    0.2538011  62.97  0.002038213    2.684    0.627
       308  -7.9185    218.7941    138.7933   6.1585099862e+01   1.0018584433e+01    0.1880589    0.1533172 -60.31 0.0005470081    1.329    0.247
       309  -8.6380    172.3066    138.3920   7.0501141347e+01   1.9383045916e+01    0.3128073     0.209815 -75.10 0.0008601666    2.296    0.565
       310  -8.2445    207.3347    137.9810   6.3437217051e+01   1.2359997178e+01    0.2094188    0.1674746 -44.80 0.0005614633    1.159    0.137
       311  -8.7534    197.5166    137.5937   6.5184056522e+01   1.4374826327e+01    0.2818023     0.222854 -60.52 0.0009517303    1.367    0.269
       312 -10.4614     83.4054    133.0060   9.2365802292e+01   3.8093264608e+01    0.6669277     0.388735 -65.46  0.001484792    1.805    0.446
       313  -9.1169    248.4826    135.5022   5.6187550276e+01   5.3297307790e+00    0.2839016    0.1856698 -49.02 0.0008765835    1.424    0.298
       314  -8.7709    246.8926    130.3123   5.5362904401e+01   6.4799858193e+00    0.2329149    0.1509404 -46.68  0.000619037    1.360    0.265
       315  -8.3995    162.6337    136.2579   7.2149696216e+01   2.1869212472e+01    0.2362957    0.1899058 -64.35 0.0007024737    1.352    0.260
       316  -9.2007     39.0791    135.8968   1.0627465785e+02   4.3340824346e+01     0.282941    0.2023618  81.08  0.001068369    1.501    0.334
       317  -8.2842    152.0000    135.5518   7.4447216713e+01   2.4267088912e+01    0.2406874     0.152615  45.05  0.001032352    1.605    0.377
       318  -7.7970    237.5571    133.7538   5.7465515422e+01   7.5097850403e+00    0.1944854    0.1102024 -49.23  0.000936304    1.683    0.406
       319  -8.2086    231.4467    133.9828   5.8468976506e+01   8.5614912125e+00    0.2096676    0.1185758 -41.21 0.0003857681    1.542    0.351
       320  -8.6158    179.6134    133.8921   6.7917367666e+01   1.8793790489e+01    0.2842698    0.2165345 -69.31 0.0007233036    1.573    0.364
       321  -9.2086    112.8414    133.2881   8.3975169551e+01   3.2773029106e+01    0.3718809    0.2669217  77.00  0.001078834    1.876    0.467
       322  -9.9662    130.6714    118.4127   7.5600398040e+01   3.2634316267e+01    0.6659858    0.4257731  79.36  0.002138886    2.805    0.644
       323  -9.8806    132.2955    131.4392   7.8352809643e+01   2.9319284348e+01    0.5988528     0.407238 -88.43  0.001780447    2.351    0.575
       324  -9.3665    134.2159    124.8087   7.6267378863e+01   3.0437866618e+01    0.5294581     0.286983  27.27  0.001835211    2.823    0.646
       325 -10.5853     98.3155    128.9838   8.7105735209e+01   3.6527352848e+01     1.214453    0.3873725 -49.95  0.003837391    2.978    0.664
       326  -9.0943    143.0290    131.7134   7.5712869393e+01   2.7016962144e+01    0.3154034    0.2461651 -73.13 0.0008443074    1.501    0.334
       327  -8.7607    250.7333    130.1966   5.4789411376e+01   5.8476581904e+00    0.3863215    0.1006654 -37.39  0.001298376    3.548    0.718
       328 -10.0389     73.3064    129.2575   9.4631572777e+01   4.0613651183e+01    0.5072696    0.3143733 -80.47  0.001450965    2.089    0.521
       329  -9.9870     12.9426    129.3316   1.1322662539e+02   4.7342894906e+01    0.4646522    0.2502771  72.88  0.002177265    2.246    0.555
       330  -8.4135      1.9708    130.7643   1.1662447439e+02   4.7740827580e+01    0.2042004    0.1144121  56.79  0.001070822    1.982    0.496
       331  -8.2024    211.6730    129.5339   6.0804163666e+01   1.3111758080e+01    0.2429426    0.1549672 -57.09 0.0006712346    1.737    0.424
       332  -8.1710    204.4846    130.2427   6.2242670103e+01   1.4405484072e+01    0.2041739    0.1274962 -52.43 0.0009312581    1.627    0.385
       333  -8.0291    192.5712    130.0558   6.4435378952e+01   1.6870222134e+01    0.2276815    0.1369348 -43.28 0.0004527315    1.560    0.359
       334  -9.2502    168.1819    129.5747   6.9350521537e+01   2.2119102181e+01    0.3249526    0.2495099  88.53 0.0007699249    1.718    0.418
       335  -9.3090    152.8424    128.9273   7.2683399452e+01   2.5550413583e+01    0.4126841    0.2613564 -63.41 0.0006781935    1.954    0.488
       336 -10.7373     44.8106    123.5478   1.0244664285e+02   4.5818800764e+01     1.112866    0.5798898  77.36  0.003899357    3.705    0.730
       337 -10.6201     59.7702    124.9798   9.7971700250e+01   4.3612206027e+01    0.6925734    0.4090072  83.41   0.00229609    2.737    0.635
       338  -9.9617    117.8054    125.2821   8.0733993687e+01   3.3701390555e+01    0.5674991    0.3786781  77.16  0.001346182    2.339    0.573
       339 -10.2341     28.6402    122.7141   1.0745493037e+02   4.7685215302e+01    0.7257333    0.3623592  72.66  0.002774302    3.324    0.699
       340  -8.0564    228.4851    125.5299   5.7141301136e+01   1.0614848241e+01    0.1388978    0.1200914 -50.53 0.0008085193    1.079    0.073
       341  -8.9119    179.1632    124.7385   6.5874537937e+01   2.0768172560e+01    0.2995568    0.2413737 -74.08 0.0006775697    1.437    0.304
       342  -8.0827    188.5126    123.9874   6.3823406556e+01   1.8925400746e+01    0.2266516    0.1396254 -44.49 0.0005440367    1.530    0.347
       343  -8.5879     83.9997    123.0099   9.0017362024e+01   4.0470492532e+01    0.3126356    0.2283978 -24.54 0.0009616372    1.738    0.425
       344  -8.8067    172.1555    121.9702   6.6679307761e+01   2.2852015021e+01    0.3235043    0.1985744 -51.56 0.0007244286    1.645    0.392
       345  -7.4201    203.0000    122.0577   6.0662535563e+01   1.6274178982e+01    0.2357256   0.07732485 -41.30  0.000371484    2.813    0.644
       346  -8.0321    195.0674    122.0639   6.2120738957e+01   1.7921945356e+01    0.2325603    0.1704353 -69.71 0.0006373403    1.658    0.397
       347  -9.0403    158.6656    121.0685   6.9428714021e+01   2.5989889197e+01    0.4731537    0.2878778 -50.53  0.001648742    1.646    0.393
       348  -9.7610     70.8369    119.6056   9.3355823405e+01   4.3383492578e+01     0.418311    0.2713221 -79.45  0.001214844    1.955    0.489
       349 -10.1651    141.4556    117.9140   7.2734105977e+01   3.0432899768e+01    0.6968076    0.3167414 -50.97  0.001705363    2.284    0.562
       350  -9.7980      2.8889    117.1458   1.1480762466e+02   5.0991558227e+01    0.4893439    0.2415232  76.31  0.002219912    2.595    0.615
       351  -7.8819    231.4817    117.4787   5.4951418384e+01   1.1478886456e+01    0.1382459    0.1182885 -51.18 0.0008092831    1.061    0.057
       352  -8.0849    185.5458    116.1269   6.2547124654e+01   2.1120790995e+01    0.2228788    0.1399498 -44.58 0.0005653891    1.506    0.336
       353 -10.0189    109.2744    114.3026   8.0414974668e+01   3.7959427656e+01    0.5473636    0.3493087 -73.69  0.001321749    2.288    0.563
       354  -9.0913    109.4652    107.3074   7.8555084664e+01   3.9525528855e+01    0.3736131    0.2408132   3.98  0.001311096    3.143    0.682
       355  -8.9613     59.7970    115.1066   9.5936951330e+01   4.6060566587e+01    0.3906038    0.2351574   2.73  0.001582047    2.741    0.635
       356  -8.7779    250.0686    115.0362   5.1791597035e+01   8.5066403973e+00    0.2031408    0.1713915 -46.35 0.0009891283    1.018    0.018
       357 -10.9201    248.5358    107.7891   5.0504616606e+01   9.9874405645e+00    0.6005122    0.2661329 -36.92  0.002709982    2.024    0.506
       358  -8.2513    193.1453    115.1621   6.0868044415e+01   1.9670583325e+01    0.2082258    0.1624284 -62.46 0.0004480239    1.344    0.256
       359 -10.1572     92.7339    112.5796   8.4877190489e+01   4.1480567861e+01    0.5252392    0.3625883 -72.67  0.001373826    1.796    0.443
       360  -8.8251     93.2956    105.2413   8.2837162504e+01   4.3094464294e+01    0.4224073    0.2610098 -17.42   0.00154216    2.914    0.657
       361 -10.0142     78.9702    112.5157   8.9152366529e+01   4.3846856921e+01     0.602859    0.3993986  85.14  0.001748722    2.433    0.589
       362  -8.7846     78.3474    105.2034   8.7562937916e+01   4.5689234690e+01    0.3608043    0.2485052  -4.54 0.0009853434    2.174    0.540
       363  -7.9987    167.4595    114.4963   6.5859832332e+01   2.5426805976e+01    0.1537037    0.1450186 -68.28 0.0001076248    1.038    0.037
       364 -10.3002    133.6319    109.8359   7.2639008583e+01   3.3904246421e+01    0.7173346    0.3460333 -50.94  0.002291576    2.148    0.535
       365  -8.9662     26.8485    113.8464   1.0659976045e+02   5.0039730478e+01    0.2628317     0.184813  -5.09  0.001407822    1.821    0.451
       366  -8.3113    236.0000    113.0231   5.3331372192e+01   1.1404979438e+01    0.2303112   0.06761926 -39.89 0.0008024838    2.943    0.660
       367  -9.8354    121.7455    112.5675   7.6489020766e+01   3.5828091183e+01    0.4470055    0.3324786 -75.00 0.0005768003    1.684    0.406
       368  -9.3878    108.3649     92.2805   7.4758573165e+01   4.3050352270e+01    0.5946594    0.2904173  33.29  0.002167726    2.550    0.608
       369  -9.8166    118.3169    105.2832   7.5518674673e+01   3.8170749744e+01    0.5643978    0.3721451 -85.06  0.002112416    2.688    0.628
       370 -10.4005    108.8780     98.8883   7.6459108870e+01   4.1520174613e+01    0.6924594    0.4369143  72.27  0.001398922    2.693    0.629
       371  -8.4543    174.7843    111.9105   6.3680266481e+01   2.4325020527e+01    0.2789088    0.1961827 -60.70  0.000638511    1.557    0.358
       372  -8.4426    159.2292    111.8668   6.7011156562e+01   2.7805219323e+01    0.2352051    0.2017379 -71.53  0.000602362    1.238    0.192
       373 -10.3166     66.5847    109.9227   9.2553909892e+01   4.6375542394e+01     0.626964    0.3598471 -61.25  0.002236221    1.722    0.419
       374  -9.8388     13.9864    111.3258   1.1045485215e+02   5.1680812474e+01    0.3866296     0.215003  56.79   0.00186006    2.270    0.559
       375  -7.5810    182.7300    109.3540   6.1462564073e+01   2.3070028376e+01    0.1544871    0.1123798 -69.93 0.0006995331    1.634    0.388
       376  -8.7027     42.8202    109.4243   1.0042023208e+02   4.9537959322e+01     0.301385    0.1417192  12.33  0.001143171    3.315    0.698
       377  -8.2473    189.0752    108.0241   5.9927576116e+01   2.1929946736e+01    0.2347997    0.1693967 -69.34 0.0004568252    1.635    0.388
       378  -9.2996    140.0071    104.8380   6.9719659352e+01   3.3578234913e+01    0.3884072    0.2897625 -89.49 0.0008640122    1.800    0.444
       379 -10.6219     45.7263    102.3545   9.7936435599e+01   5.0920983861e+01    0.8297672    0.4616125  67.50  0.003139067    3.433    0.709
       380 -10.6267     22.9849    102.7877   1.0599659998e+02   5.3057469499e+01     0.727384    0.3964807  71.39  0.002784066    2.990    0.666
       381  -9.5256    150.6254    103.2740   6.6762572847e+01   3.1521413461e+01    0.4783855    0.2903059 -62.83  0.001292605    2.127    0.530
       382  -8.4345    238.6529    103.6874   5.0970847637e+01   1.2501443711e+01    0.1275681     0.103865  -0.30  4.17787e-05    1.714    0.417
       383 -10.1749    128.3864    101.6340   7.1821615588e+01   3.6818072396e+01    0.4300345    0.2738569 -51.88 0.0009014289    1.612    0.380
       384  -8.9286      6.5565    102.8347   1.1168595634e+02   5.4211117856e+01     0.280464    0.1839038  61.25  0.001486932    1.853    0.460
       385  -8.0800    175.5088    102.0757   6.1086742935e+01   2.6106994408e+01    0.2310702    0.1426277 -44.75 0.0004927196    1.555    0.357
       386  -8.3498    159.8835    101.1137   6.4109376151e+01   2.9854557470e+01    0.2420725    0.1979547 -72.93 0.0005961513    1.344    0.256
       387  -9.5548     82.0949     99.3924   8.4847180898e+01   4.6415741446e+01    0.5758203     0.262127 -57.25  0.001540403    2.390    0.582
       388  -9.0622    188.2394     96.2987   5.7225343906e+01   2.4330594462e+01    0.5202022    0.1982887 -35.06  0.001764743    2.948    0.661
       389 -10.2317     86.4015     86.2036   7.9777273205e+01   4.8585663361e+01    0.8390468    0.6792809  71.44  0.001776198    1.575    0.365
       390  -9.5591     94.9016     97.0734   8.0152252296e+01   4.4649221921e+01     0.362246     0.278246 -79.53 0.0006503526    1.694    0.410
       391  -9.8715     92.1439     92.9408   7.9864793051e+01   4.6076295131e+01    0.4134685    0.2758961  27.24  0.001880038    1.717    0.417
       392 -10.2136     63.6404     95.5013   9.0040662055e+01   5.0213597490e+01    0.5796486    0.3616442 -78.90  0.001557563    2.491    0.599
       393  -8.6564     64.8037     87.8825   8.7614271111e+01   5.1773633091e+01    0.4840249    0.2697446   1.79  0.001643474    3.955    0.747
       394  -8.4598    166.7584    104.1677   6.3415562856e+01   2.7678707587e+01     0.236753     0.196182 -70.99 0.0005495948    1.293    0.227
       395 -10.0624    246.9533     93.6414   4.7774960715e+01   1.2605679031e+01    0.2546751     0.199498   1.07  0.001421874    1.989    0.497
       396  -8.3512    164.8149     94.1151   6.1227531198e+01   3.0096587893e+01    0.2344613     0.195601 -69.59 0.0004891015    1.254    0.203
       397  -9.2234    139.2567     92.5477   6.6577121127e+01   3.6284228830e+01     0.403787     0.284312 -78.34  0.001390845    1.996    0.499
       398  -9.2483     45.7978     92.8548   9.5739053380e+01   5.3156369017e+01    0.4952739    0.2797107  -3.44  0.002028443    2.927    0.658
       399  -8.1303    176.2479     93.2250   5.8699829212e+01   2.7629948344e+01    0.2102774    0.1662154 -71.34 0.0005854312    1.367    0.268
       400 -10.3935    123.9837     91.1717   7.0087351212e+01   3.9971983983e+01    0.5779382    0.4466139  36.58  0.001157065    1.364    0.267
       401  -9.1990     22.7689     90.4384   1.0371339220e+02   5.5998851327e+01    0.3589895    0.2464346 -28.19  0.001979967    1.538    0.350
       402  -9.4269      5.3779     92.4923   1.1049194857e+02   5.6718052100e+01    0.3062539    0.1917362  64.71  0.001367241    2.096    0.523
       403  -7.9562    157.8299     91.7779   6.2094221140e+01   3.2164624144e+01    0.2089964    0.1726472 -73.53  0.000425131    1.311    0.237
       404  -9.7208     34.8304     89.7317   9.9054698260e+01   5.5069866622e+01    0.4874127    0.2763214 -84.94  0.002003212    2.880    0.653
       405  -8.0380    150.8269     89.3177   6.2975907583e+01   3.4264003132e+01    0.2138143    0.1826724 -56.43 0.0004677602    1.170    0.145
       406  -7.9630    163.9890     86.9974   5.9518940522e+01   3.1638198874e+01    0.1846181    0.1666922 -52.73 0.0004583544    1.085    0.078
       407  -9.8475     48.6488     84.0797   9.2483739966e+01   5.4816616935e+01    0.5928834    0.4028575 -83.23  0.002502274    2.199    0.545
       408  -9.6685    104.6665     83.0877   7.3165740645e+01   4.5715846297e+01    0.4252939    0.2989014 -63.35  0.001428421    1.759    0.431
       409  -8.6647    106.2529     76.7129   7.0768160153e+01   4.6654810531e+01    0.3914996    0.1726355  35.99  0.001087941    2.746    0.636
       410  -8.1454    157.8542     84.0547   6.0005470759e+01   3.3622064106e+01    0.2289726    0.1918543 -67.94 0.0004655669    1.240    0.193
       411  -9.2026    140.7811     82.3089   6.3337496232e+01   3.7932622642e+01    0.4353364    0.1940024 -44.29  0.001345927    2.255    0.557
       412  -9.2379    249.8171     81.1021   4.4840715002e+01   1.4069540563e+01    0.2831418    0.1077268 -52.39  0.001162032    2.592    0.614
       413  -7.4173    185.3330     82.6673   5.4345133850e+01   2.7458542887e+01    0.1557409    0.1073287 -73.11 0.0007052229    1.730    0.422
       414  -8.2703     63.9950     82.3434   8.6355549962e+01   5.3112839830e+01    0.1907477    0.1843132 -11.20 0.0005939944    1.065    0.061
       415  -9.6704     24.5749     80.5603   1.0088416380e+02   5.8111807993e+01    0.4075055    0.2552618 -89.19  0.001385024    2.390    0.582
       416  -9.2897      9.6231     80.8779   1.0681656867e+02   5.9136309205e+01    0.3026781    0.1907762  57.17  0.001303624    2.202    0.546
       417  -8.4269    150.2868     80.6398   6.0698239624e+01   3.6029291801e+01    0.2774282    0.1727223 -51.72  0.000676079    1.687    0.407
       418  -8.6076    119.0741     80.2993   6.8245686702e+01   4.3218566798e+01    0.3142924    0.2024723 -51.92 0.0008627513    1.671    0.401
       419  -8.8492     74.4916     80.2372   8.2025685927e+01   5.1914313552e+01    0.3697432    0.2221742 -60.57  0.001139674    2.029    0.507
       420  -8.1589    166.9198     79.5553   5.6944443749e+01   3.2308516138e+01    0.2253495     0.185734 -46.53 0.0003033313    1.196    0.164
       421  -7.8487    183.7522     78.6260   5.3596528428e+01   2.8529436166e+01    0.1384088    0.1154687  -1.44 0.0005777157    1.634    0.388
       422  -9.3014    128.1405     75.5315   6.4449956281e+01   4.2100587338e+01     0.379941     0.241636 -53.08 0.0006886576    1.738    0.425
       423  -7.1555    189.3055     76.6699   5.2160950379e+01   2.7580642078e+01    0.1515831    0.1038336 -70.40 0.0006408419    1.657    0.396
       424  -8.4487    140.3289     75.3905   6.1455896292e+01   3.9319490153e+01    0.2522565    0.1693975 -58.77 0.0007086308    1.714    0.417
       425  -9.6838     82.3109     72.7414   7.7048791508e+01   5.2096180176e+01    0.4043836    0.2894885 -71.30 0.0009702794    2.054    0.513
       426  -9.9405     63.0336     73.6208   8.4134448001e+01   5.5106590494e+01    0.4008958    0.2674599 -61.39 0.0009881746    1.787    0.441
       427  -8.2344    163.4308     73.6166   5.6023714975e+01   3.4178223907e+01    0.2683289      0.13584 -43.35 0.0008956611    1.946    0.486
       428  -8.8233    115.7022     72.9266   6.6929235277e+01   4.5356718955e+01    0.2657278    0.1974453 -59.13 0.0006791017    1.553    0.356
       429  -8.9995    105.8917     72.1636   6.9461486647e+01   4.7599677375e+01    0.2994216    0.2011884 -57.02  0.000686593    1.773    0.436
       430  -9.2612     95.1869     71.2851   7.2411832678e+01   4.9946071669e+01    0.3611082    0.2344826 -57.72  0.000919189    1.901    0.474
       431  -8.2615     42.5099     72.5498   9.1703496203e+01   5.8070472193e+01    0.2220049    0.1259153 -65.43  0.000822389    2.168    0.539
       432  -7.9595    175.4811     72.5365   5.3479080263e+01   3.1508348604e+01    0.1460247    0.1340921 -79.23  3.25591e-05    1.016    0.015
       433  -9.0457     28.6011     70.8735   9.6876599821e+01   5.9887852843e+01    0.3300284    0.1554618 -29.97  0.001346435    2.555    0.609
       434  -8.1958    140.5998     71.2052   6.0174170003e+01   4.0003826469e+01    0.1970399    0.1440661 -26.69 0.0003590269    1.573    0.364
       435  -9.5451     51.3569     69.5923   8.7345228587e+01   5.7590008187e+01    0.5247304    0.2879421 -66.23   0.00204805    2.770    0.639
       436  -7.9326     51.3163     62.3617   8.5096991932e+01   5.9053220180e+01    0.1429683   0.09345786 -18.72 0.0007042035    1.762    0.433
       437  -9.3349     16.5794     69.0897   1.0142396393e+02   6.1276612715e+01    0.5077343    0.1978175 -64.99  0.001953436    2.574    0.612
       438  -8.8393    147.0801     68.2071   5.7863577012e+01   3.8995138903e+01    0.3045749    0.2017298 -47.03 0.0006240868    1.542    0.351
       439  -8.7464    138.8587     66.4192   5.9159568881e+01   4.1241434676e+01    0.2722949    0.1930579 -56.83 0.0006783863    1.562    0.360
       440  -8.9273    121.8514     66.2653   6.3232319535e+01   4.5191160083e+01     0.308618    0.1970557 -54.72 0.0006253857    1.834    0.455
       441  -8.7104     84.2454     64.7446   7.3813536528e+01   5.3277003303e+01    0.4762593    0.2573455  14.44   0.00149068    4.527    0.779
       442  -8.9768    110.1682     63.8682   6.5604128801e+01   4.8194005906e+01    0.2998149    0.2250478 -58.84 0.0007789977    1.576    0.366
       443  -8.7219     64.4741     63.3895   8.0350448137e+01   5.6929241431e+01    0.3770366    0.2332641  -3.05  0.001625253    2.524    0.604
       444  -8.8463     37.2743     64.5744   9.1514544639e+01   6.0332364841e+01     0.252922    0.2087501  77.51  0.001032666    1.771    0.435
       445  -7.6670    158.2214     61.9625   5.3808428554e+01   3.7370651696e+01    0.1798587    0.1170017 -39.54 0.0003314294    1.566    0.362
       446  -9.2935     97.7052     60.5246   6.8127836360e+01   5.1403880413e+01    0.3160819    0.2711842  71.05  0.001062281    1.378    0.275
       447  -9.6722     73.2430     59.2987   7.5769354920e+01   5.6251490086e+01    0.4487843      0.23156 -51.84   0.00125439    2.312    0.567
       448  -8.2829     88.8330     59.5644   7.0573811942e+01   5.3341960234e+01    0.2219777    0.1641657 -43.96 0.0005628794    1.412    0.292
       449  -7.8740    147.1366     59.1565   5.5216648998e+01   4.0475475083e+01     0.200739    0.1627117 -69.28 0.0004508439    1.332    0.249
       450  -8.3557    130.7858     57.9843   5.8461804129e+01   4.4528963085e+01     0.217835    0.1875246 -73.68 0.0005578804    1.281    0.219
       451  -9.7682     23.3689     56.3647   9.5060250069e+01   6.3384121599e+01    0.3954871    0.2792451  83.66  0.002060838    2.606    0.616
       452  -9.5769      7.4397     57.2255   1.0245549379e+02   6.4401185486e+01    0.2631336    0.2040948 -85.58  0.001018237    1.671    0.402
       453  -9.3077    119.1547     55.3448   6.0459051237e+01   4.7626732473e+01    0.4722573    0.2193359 -48.97  0.001801252    2.596    0.615
       454  -8.2802    140.0063     56.0624   5.5802832011e+01   4.2662875733e+01    0.2252464    0.1663948 -72.49 0.0005170755    1.638    0.390
       455  -9.3355     62.9241     54.9125   7.8048994364e+01   5.8754159604e+01    0.6536426    0.2066134 -39.31  0.002339153    3.261    0.693
       456  -8.7567     44.2547     55.6468   8.5772212874e+01   6.1278390748e+01     0.240939    0.2115246  85.52 0.0008612977    1.666    0.400
       457  -8.9661     54.1463     53.9213   8.1128663146e+01   6.0262920516e+01    0.3454831    0.2037001 -60.03   0.00122298    2.470    0.595
       458  -8.5505    105.9216     53.3062   6.3310190046e+01   5.0881776052e+01    0.2456547    0.1932623 -67.71 0.0007711153    1.635    0.388
       459  -9.5512     92.3521     50.6396   6.6378834779e+01   5.4147034758e+01    0.3932017    0.2301659 -47.42  0.001286226    1.958    0.489
       460  -8.3758     74.6919     51.6534   7.2575544594e+01   5.7343470303e+01    0.2207142    0.1544458   3.49  0.001104473    1.772    0.436
       461  -8.5817    144.5809     48.9711   5.2720243967e+01   4.2644172931e+01    0.2057218     0.137898 -36.64 0.0004831495    1.572    0.364
       462  -8.3851    129.8351     49.1165   5.5905447233e+01   4.6122319907e+01    0.2146417    0.1850728 -72.76 0.0004777131    1.276    0.216
       463  -8.6606    120.9188     47.5062   5.7473774662e+01   4.8428763100e+01    0.2020326    0.1885913 -36.02 0.0004921925    1.139    0.122
       464  -8.2131    137.0000     46.9726   5.3670613820e+01   4.4744691973e+01    0.2223352   0.08100668 -33.74 0.0008008813    2.932    0.659
       465  -8.4930    112.1525     46.7724   5.9425991139e+01   5.0521671420e+01     0.236072    0.1834321 -51.45  0.000707696    1.453    0.312
       466  -9.2482     82.1272     46.2846   6.8086854660e+01   5.6849430883e+01    0.3290915    0.2219086 -44.49   0.00100819    1.636    0.389
       467  -8.4591     45.0978     44.7160   8.1564528747e+01   6.3165190711e+01    0.2029217    0.1624383 -45.20 0.0005863922    1.356    0.262
       468  -9.3187     16.4697     44.5726   9.4602221138e+01   6.6273252054e+01    0.2171922    0.1923275 -75.12 0.0007245301    1.528    0.345
       469  -8.5747    132.6858     43.2138   5.3415247581e+01   4.6301072139e+01    0.2116122    0.1665239 -56.37 0.0005649126    1.394    0.282
       470  -8.6600     92.9463     42.8302   6.3412784206e+01   5.5229740117e+01    0.2381658    0.1434173  24.85  0.001073276    2.109    0.526
       471  -9.4112     69.5574     41.2994   7.0578094071e+01   5.9932928986e+01    0.3804584    0.2339234 -46.80  0.001853389    1.902    0.474
       472  -8.9788     58.1471     42.5552   7.5378583088e+01   6.1632048103e+01    0.2771093    0.2005761 -59.46  0.001267661    2.016    0.504
       473  -9.5926      5.1361     41.7669   9.9268107970e+01   6.7621136625e+01    0.3410058    0.1990809 -72.83  0.001741488    2.405    0.584
       474  -8.7428    106.0883     41.5603   5.9235452277e+01   5.2618871330e+01    0.2710416    0.2051435 -63.78 0.0007724999    1.721    0.419
       475  -8.2777    140.3641     41.2832   5.1233993346e+01   4.4740455717e+01    0.1902945    0.1238747 -45.25 0.0007708262    1.628    0.386
       476  -8.6467     36.8315     40.7649   8.3724184611e+01   6.4903441668e+01    0.2264394    0.1671465 -52.32  0.000658013    1.595    0.373
       477  -7.4188    160.6993     39.7021   4.7086781285e+01   4.0053960997e+01    0.1340857    0.1030685  35.72 0.0001916865    1.578    0.366
       478  -8.7953     95.4731     37.9041   6.0879070078e+01   5.5410134297e+01    0.2423596    0.2102983 -84.12 0.0007646708    1.479    0.324
       479  -8.4048     80.6368     36.8029   6.5032344174e+01   5.8557542121e+01    0.2196159    0.1647601 -40.63 0.0006639147    1.477    0.323
       480  -9.3019     26.2690     35.6751   8.6735592077e+01   6.6973359675e+01    0.2637152    0.2001005 -55.53 0.0008909511    1.639    0.390
       481  -9.0966    124.5583     35.8038   5.2796897253e+01   4.9207881637e+01    0.4187663    0.1794969  58.26  0.001735889    2.129    0.530
       482  -7.5568     88.5350     34.5355   6.1681726299e+01   5.7305968665e+01    0.1312544    0.1206603  30.91 6.013375e-05    1.043    0.042
       483  -8.9491     48.5215     33.4248   7.5713726372e+01   6.4539201959e+01     0.216632    0.2090388 -22.50 0.0006727446    1.327    0.247
       484  -8.3394    119.0657     33.2734   5.3184711644e+01   5.0805435063e+01    0.1911066    0.1676575  63.55  0.000504282    1.084    0.078
       485  -8.7117     60.6344     32.5028   7.0441742228e+01   6.2778674220e+01    0.2175916    0.1839747 -27.38 0.0006063075    1.230    0.187
       486  -8.6722    111.9524     34.7011   5.5351168651e+01   5.2244592594e+01    0.2277065    0.1800843 -63.74 0.0004835462    1.550    0.355
       487  -8.8669     72.2520     30.6888   6.5461591572e+01   6.0989954995e+01    0.3365161    0.1817047 -40.78  0.001274862    2.070    0.517
       488  -8.9663     12.8923     30.2783   9.1421577910e+01   6.9156684436e+01    0.2598374    0.1536522 -54.56 0.0009132899    1.831    0.454
       489  -8.3302     41.8758     30.1061   7.7232545336e+01   6.5989106322e+01     0.173852    0.1254196  -9.31 0.0004754926    1.323    0.244
       490  -8.6258    101.6656     29.2033   5.6002321347e+01   5.5221081265e+01    0.1960227    0.1639079 -52.29  0.000810201    1.411    0.291
       491  -9.2582      3.8639     27.6462   9.5268394645e+01   7.0289700999e+01    0.3007222    0.1963419 -65.38  0.001820488    2.048    0.512
       492  -8.7853     81.5263     27.6461   6.1187409421e+01   5.9613361748e+01    0.2261755     0.204939 -58.59 0.0007114733    1.405    0.288
       493  -9.0161     91.8390     26.4543   5.7649401876e+01   5.7658369364e+01    0.2608349    0.1844648 -40.15 0.0008559211    1.606    0.377
       494  -7.7390    104.6462     23.2838   5.3097627182e+01   5.5262809417e+01    0.1285412     0.100473 -83.30 0.0006349001    1.662    0.398
       495  -7.9041     34.4927     23.4444   7.7774011808e+01   6.7964807161e+01    0.1182161   0.09914026  -2.15 1.864985e-05    1.064    0.060
       496  -8.9847     63.6232     21.1384   6.4565178839e+01   6.3786555950e+01    0.2752134    0.1928705 -47.06 0.0009007582    1.902    0.474
       497  -8.7121     48.4511     21.7477   7.0782622787e+01   6.6227097799e+01      0.19179    0.1869464  34.96 0.0006420148    1.421    0.296
       498  -8.2743     19.2146     21.2327   8.4446817625e+01   7.0057156956e+01    0.1420175    0.1320637 -11.76  0.001064524    1.369    0.270
       499  -8.9754     74.1053     19.5664   6.0287122994e+01   6.2035298544e+01    0.2309344    0.1857549 -54.41 0.0007291044    1.707    0.414
       500  -7.9476     11.6655     20.3482   8.8134421719e+01   7.0908794677e+01   0.09725054   0.09099032  60.87 0.0007048143    1.775    0.437
       501  -8.4096     87.8743     17.4091   5.5255740808e+01   5.9515469717e+01     0.196446    0.1699529 -38.09 0.0004994693    1.349    0.259
       502  -8.0546     38.7410     18.2203   7.3455008469e+01   6.8126514839e+01    0.1687652    0.1429956 -36.00 0.0007929466    1.456    0.313
       503  -7.9468    112.6420     16.7718   4.8937316693e+01   5.4163008565e+01    0.1610561    0.1181595 -38.89 0.0002735249    1.536    0.349
       504  -8.0175     30.0425     15.9839   7.6549456727e+01   6.9588265903e+01    0.1517751    0.1476191  67.12 0.0006265978    1.700    0.412
       505  -7.8783     97.2076     15.2016   5.1939850763e+01   5.7759543395e+01    0.1642539    0.1463234 -78.36 0.0004772618    1.365    0.267
       506  -9.1006    175.5958    247.8393   9.0113197418e+01  -2.1556205881e+00     0.279439    0.2265452  73.68  0.001025925    1.936    0.483
       507  -7.5230     76.2899     10.6325   5.5852001204e+01   6.2564748012e+01    0.1148728   0.09589867 -66.05 0.0007024609    1.709    0.415
       508  -9.0488    147.0207    245.9252   9.5584031588e+01   2.4380031850e+00    0.4148749    0.2568106  69.75  0.001895088    3.009    0.668
       509  -8.6005    147.0467    240.4287   9.4828632412e+01   3.3832938008e+00    0.3689052    0.2312218  78.04  0.001557938    3.548    0.718
       510  -8.8224    132.3494    248.1198   9.8873960613e+01   4.2872098033e+00    0.2652887    0.1862797  72.24 0.0008050665    1.934    0.483
       511  -8.3360    113.3908    248.6985   1.0283733293e+02   7.0323969064e+00    0.2125242    0.1235854 -69.47  0.001111432    2.200    0.546
       512  -8.2925     93.6549    249.3464   1.0694732855e+02   9.7987471966e+00    0.2000323     0.120326  62.15  0.001030464    1.720    0.419
       513  -7.6349     83.5087     11.4704   5.4097061652e+01   6.1025904108e+01    0.1252822    0.1074435  37.69 0.0005782016    1.014    0.014
       514  -9.0821    242.9013    246.9168   7.7542508303e+01  -1.1031103191e+01    0.3386388    0.1354227 -32.28  0.001316621    2.391    0.582
       515  -8.9647    232.7845    247.2523   7.9343613130e+01  -9.8513904385e+00    0.2101424    0.1682653 -32.59 0.0008050231    1.477    0.323
       516  -8.6509    218.5566    246.8513   8.1816992909e+01  -7.9910264755e+00    0.3221778    0.1057185 -38.85  0.001444988    3.138    0.681
       517  -8.5119    156.1417    247.9386   9.4006232113e+01   7.2026035339e-01    0.1834941    0.1536916  49.58 0.0005778284    1.268    0.211
       518  -9.2368    103.5631    246.3703   1.0459966319e+02   8.9164327033e+00    0.4024651    0.2086087 -76.87  0.001871484    2.829    0.646
