#   1 NUMBER                 Running object number                                     
#   2 MAG_AUTO               Kron-like elliptical aperture magnitude                    [mag]
#   3 X_IMAGE                Object position along x                                    [pixel]
#   4 Y_IMAGE                Object position along y                                    [pixel]
#   5 X_WORLD                Barycenter position along world x axis                     [deg]
#   6 Y_WORLD                Barycenter position along world y axis                     [deg]
#   7 A_WORLD                Profile RMS along major axis (world units)                 [deg]
#   8 B_WORLD                Profile RMS along minor axis (world units)                 [deg]
#   9 THETA_WORLD            Position angle (CCW/world-x)                               [deg]
#  10 FWHM_WORLD             FWHM assuming a gaussian core                              [deg]
#  11 ELONGATION             A_IMAGE/B_IMAGE                                           
#  12 ELLIPTICITY            1 - B_IMAGE/A_IMAGE                                       
         1 -11.5458    153.6421     23.2379   5.0181657721e+01   4.4001469936e+01    0.3134834    0.2459593 -27.39 0.0003729979    1.364    0.267
         2 -12.0748      5.2752     15.6557   9.8135575784e+01   7.1612692330e+01    0.4839202    0.3751878 -75.02  0.001962683    2.228    0.551
         3 -11.5838    166.4270     17.9510   4.6471744481e+01   4.1363276499e+01    0.3575489     0.299008  73.17 0.0003336026    1.110    0.099
         4 -11.7203      1.9508     24.2913   1.0321624068e+02   7.0278834804e+01    0.4126073    0.1380937 -56.07  0.001502754    2.461    0.594
         5 -10.7765    115.8812     14.6563   5.4609534173e+01   5.4087890990e+01    0.5027447    0.2383158  46.37  0.002087616    1.871    0.465
         6 -10.9319    180.0612     13.7024   4.3350561998e+01   3.8384951726e+01     0.311652      0.19562 -67.32  0.001519748    1.793    0.442
         7 -11.4120    175.0341     10.9395   4.3192404558e+01   3.9921047341e+01    0.3631134    0.2819362  45.00  0.001323186    1.355    0.262
         8 -11.1322    133.0648     12.8566   5.0373902464e+01   5.0178462553e+01    0.2383784    0.1962833 -18.27 0.0003577553    1.319    0.242
         9 -10.5182    148.1256     12.4066   4.7558472713e+01   4.6514194817e+01    0.3282338    0.1813729  43.94  0.001348489    1.794    0.443
        10 -10.2185     32.4319     12.3664   8.2393206231e+01   6.9619418892e+01    0.1998803    0.1819586 -29.66 0.0006793733    1.522    0.343
        11  -9.7788     18.0343      1.9815   8.4505877892e+01   7.2664946624e+01    0.1591242    0.1208407  -7.72 0.0006128057    1.073    0.068
        12 -11.2658     14.6034      9.7905   9.0373054245e+01   7.1852702096e+01    0.3685112    0.2243417 -23.08   0.00119973    1.324    0.245
        13 -11.5162     20.3800      7.0041   8.5860134777e+01   7.1720556521e+01    0.4171359    0.1972742 -33.40  0.002367041    1.749    0.428
        14 -10.6549     24.8722      6.7735   8.3372741149e+01   7.1276754365e+01    0.2248207    0.1368846 -36.14 0.0008515082    1.545    0.353
        15 -10.0659    165.1227      8.5155   4.3779095227e+01   4.2636893320e+01    0.3052892    0.1803555 -39.39  0.001524547    1.774    0.436
        16 -11.4838    107.5032      7.3049   5.3632413665e+01   5.6710212358e+01    0.6836832     0.370579  52.96  0.003408736    1.596    0.373
        17 -10.1354      4.8955      8.6424   9.5286826437e+01   7.2801177723e+01    0.2748867    0.1171336 -41.12  0.001567962    1.763    0.433
        18 -11.4691    204.2742      7.8871   3.9079749358e+01   3.3030337842e+01    0.3016312    0.2567705  36.24  0.001132353    1.439    0.305
        19 -12.0442    192.1113      7.5250   4.0232591917e+01   3.6022466498e+01    0.7431022    0.3403513  52.94  0.003341481    2.193    0.544
        20 -11.5960    194.0276      4.0000   3.9093740696e+01   3.5896212272e+01    0.5905136    0.1643484  71.35  0.002124942    3.216    0.689
        21 -10.6962    120.8276      8.0816   5.1033967221e+01   5.3557999001e+01    0.3205893    0.2531957  53.18   0.00133615    1.126    0.112
        22  -9.0891    128.2984      8.2775   4.9633226141e+01   5.1759447492e+01    0.1387307   0.08913117  36.72 0.0002027964    1.536    0.349
        23 -10.0286     47.0133      8.3883   7.3676221865e+01   6.8190389412e+01    0.2228728    0.0962871  32.68  0.001079266    2.272    0.560
        24  -9.5056    138.8271      6.9491   4.7269674657e+01   4.9318567864e+01    0.2056745    0.1291554  24.60 0.0002931947    1.880    0.468
        25 -10.3374    170.6578      6.5653   4.2467559227e+01   4.1435096125e+01    0.2675875    0.1077803  63.57  0.001127899    2.110    0.526
        26 -10.3043     87.2303      6.2201   5.8378388481e+01   6.1204178120e+01       0.2574    0.1596384  56.75 0.0007720393    1.630    0.386
        27  -9.0971     61.6737      6.3239   6.6752505872e+01   6.6064609209e+01    0.1092909   0.09920619 -53.85 0.0005311886    1.691    0.409
        28 -10.9944    147.4147      2.9423   4.4548935540e+01   4.7547236412e+01    0.3648529    0.2610629 -18.48  0.002032383    1.578    0.366
        29  -9.4536    247.5559      4.5575   3.4739811686e+01   2.3521813516e+01    0.1212754   0.09832412 -67.48 5.781991e-05    1.007    0.007
        30  -9.9082    236.1758      3.8688   3.5403494359e+01   2.6065783088e+01    0.1912207    0.1426225 -64.30 0.0006698755    1.138    0.121
        31  -9.9547    208.4749      3.5696   3.7599009112e+01   3.2458699528e+01    0.2721436     0.140865 -69.23  0.001275659    2.104    0.525
        32 -10.9483    160.2520      2.9879   4.2743943686e+01   4.4353393458e+01    0.3567375    0.2705589  58.42 0.0009917354    1.193    0.162
        33 -10.7538     38.1007      2.5152   7.4591161350e+01   7.0176643201e+01    0.2568406    0.2219651 -17.82  0.001051109    1.389    0.280
        34  -9.3786    243.6465      3.3211   3.4746648999e+01   2.4491363692e+01    0.1357365   0.07132885 -62.71 0.0004903283    1.753    0.430
        35 -11.8439    216.7764      2.0225   3.6502195864e+01   3.0659436696e+01    0.2924444    0.1933012  82.00  0.000749927    1.376    0.273
        36 -10.0247     30.7858      3.1302   7.8439604916e+01   7.1065044965e+01    0.1644932    0.1337493 -16.02 0.0004785359    1.250    0.200
        37  -9.4460     13.3136      3.2974   8.7842966887e+01   7.2937122342e+01    0.1168314   0.06642445 -14.42 0.0002740917    1.604    0.376
        38 -11.0901    180.0377      1.8164   3.9986583568e+01   3.9536605630e+01    0.3148262    0.1706822  71.27  0.001191146    1.636    0.389
        39 -10.6268    115.6709      1.9678   4.9750320543e+01   5.5288587747e+01    0.2240171    0.1744755  64.30 0.0003255711    1.236    0.191
        40  -9.7556     88.3004      1.7678   5.6096385985e+01   6.1379755551e+01    0.3483136    0.1300377  46.67  0.001533997    2.192    0.544
        41  -9.9401     82.0245      2.0126   5.7968393594e+01   6.2649890585e+01    0.2015088     0.161344  27.82  0.001272448    1.040    0.039
        42 -11.0402     75.0344      1.7659   5.9962477370e+01   6.4056933180e+01    0.4115079    0.1624445  52.07  0.001690985    2.312    0.567
        43 -10.7167     49.4427      2.2073   6.9445796927e+01   6.8531042225e+01    0.2633767    0.1418116  35.38 0.0004949797    1.688    0.408
        44  -9.9415    124.2740      2.0621   4.8113800765e+01   5.3253283224e+01     0.273728    0.1696793  84.83  0.001331037    2.000    0.500
        45 -10.5140     91.6058    188.5975   1.0815112715e+02   2.3509233425e+01    0.2685379    0.2023304  70.10  0.000539933    1.314    0.239
        46  -9.3684    187.4284    250.5284   9.7265134060e+01  -2.8767103458e+00    0.1191843   0.09415442  26.21 6.111935e-05    1.009    0.009
        47 -11.1021    116.0409    249.1179   1.1041103047e+02   8.2071358514e+00    0.3133897    0.2074984  62.44  0.001589784    1.523    0.343
        48 -10.3184    111.6701    246.6218   1.1096415694e+02   9.2645978298e+00    0.2272855    0.1384469 -43.70  0.001032446    2.300    0.565
        49  -9.1216     30.9878    250.7323   1.2559522462e+02   1.9037573649e+01    0.1233056   0.07343865  46.88 0.0002696995    1.413    0.292
        50  -9.8960     16.0694    250.5566   1.2799802452e+02   2.0647375792e+01    0.1446194   0.07865027  45.84 0.0007039241    1.541    0.351
        51  -9.7197    105.3688    186.0698   1.0465457961e+02   2.1893877067e+01    0.1881548    0.1677752 -82.71 0.0004883115    1.114    0.102
        52 -10.9569    239.7255    184.9922   7.6333562131e+01  -1.7936955115e+00    0.1883209    0.1534606  -7.34 0.0007293173    1.041    0.039
        53 -10.1570     44.4756    184.3985   1.1819116596e+02   3.0732451797e+01    0.2506066    0.1070757 -71.23 0.0007602245    2.103    0.525
        54  -9.4370     16.4710    182.0152   1.2396773869e+02   3.4121767892e+01    0.1664998    0.0693691 -56.46 0.0008097839    2.590    0.614
        55  -9.6376     55.4768    181.4800   1.1544562374e+02   3.0084479417e+01    0.1285421     0.108135  82.69 0.0001142298    1.003    0.003
        56  -9.7261    222.9687    178.0154   7.7967760382e+01   2.1185911592e+00    0.1662302    0.1422054  -9.17 0.0003746367    1.046    0.044
        57  -9.5106     32.3103    175.9790   1.2006481136e+02   3.3937639220e+01    0.1704665    0.1300333 -84.73 0.0004515374    1.095    0.087
        58 -10.1842     78.6665    173.9460   1.0912622788e+02   2.8714822725e+01    0.2469619    0.1784986  51.40 0.0004860045    1.332    0.249
        59 -10.7804    243.1810    170.5710   7.2809005764e+01  -1.7303058695e-01    0.1801609    0.1159377  25.39 0.0004490885    1.614    0.381
        60  -9.3257      5.1592    168.6461   1.2539131841e+02   3.8028332397e+01    0.1222547    0.1118808  11.41 0.0003567524    1.573    0.364
        61  -9.8973     47.7315    166.4025   1.1552456571e+02   3.4468192420e+01    0.2272938    0.1132862  38.51  0.001122227    2.036    0.509
        62  -9.9215     24.8069    162.8163   1.2052788021e+02   3.7675164070e+01    0.1727467    0.1406195 -75.45  0.000355807    1.145    0.127
        63 -10.9159    248.7557    160.9034   6.9844778017e+01   3.8580533061e-01    0.2213712    0.1847448  85.41  0.001165896    2.074    0.518
        64 -11.4077     31.0196    154.7490   1.1823027834e+02   3.8967395127e+01    0.5822877    0.2613705  63.02  0.002559828    2.725    0.633
        65 -10.5601     39.4849    160.4658   1.1681536228e+02   3.6766936846e+01    0.2774255    0.1920017 -66.86  0.001326395    1.292    0.226
        66 -10.5050     36.3217    158.6821   1.1737793425e+02   3.7515185830e+01    0.2625602    0.1948303  65.47   0.00134271    1.294    0.227
        67  -9.3232    219.6823    158.0173   7.4367253480e+01   6.0613375811e+00    0.1935593    0.1689295 -17.48 0.0004571897    1.048    0.046
        68  -9.7886    143.9899    153.4297   8.9560553427e+01   2.2088344630e+01    0.2179687    0.1967152 -47.26 0.0001576439    1.122    0.108
        69  -9.8108      3.6900    153.1216   1.2455677668e+02   4.1633330010e+01    0.1927422    0.1387197  55.71  0.001298461    1.408    0.290
        70 -12.1481    248.8928    150.1558   6.7530690249e+01   2.0482930838e+00     0.456194     0.298179  14.65  0.002293435    1.867    0.464
        71  -9.4350     45.9227    151.4792   1.1413248606e+02   3.8200974456e+01    0.1651362    0.1288607  36.88 7.215868e-05    1.444    0.307
        72 -10.7242      5.1852    147.4365   1.2374163939e+02   4.2828462643e+01    0.2871501    0.1594095  68.18  0.001634208    1.779    0.438
        73 -13.2280    240.0042    143.3719   6.7524033645e+01   4.7375020348e+00    0.6166607    0.3233725 -39.34  0.002840625    1.758    0.431
        74 -13.0495    236.3576    138.0021   6.6939817822e+01   6.3114787201e+00    0.7743999    0.2681462 -39.37  0.002864027    2.612    0.617
        75 -13.0890    238.9924    121.5052   6.2735882487e+01   8.5697465501e+00     0.643639     0.506833  31.94  0.003544734    1.408    0.290
        76  -9.7774    225.4689    144.9642   7.0412098165e+01   7.2095175382e+00    0.2110865    0.1299595 -35.58 0.0003361074    1.501    0.334
        77 -10.2903     13.6446    143.5363   1.2133336687e+02   4.3108833362e+01    0.3087385    0.2627093 -31.36  0.002125827    1.545    0.353
        78 -10.4207     20.0186    141.0030   1.1947044159e+02   4.3197585044e+01    0.3144709    0.1704094  34.15  0.001730748    2.069    0.517
        79  -9.7914     24.5527    143.7822   1.1862543283e+02   4.2154494032e+01    0.1885436    0.1547426  -0.01 0.0008855444    1.702    0.412
        80 -10.4348    230.7465    142.9939   6.9030896980e+01   6.5353140650e+00    0.1893085    0.1114407 -34.41 0.0005121824    1.549    0.355
        81 -12.3053    247.2818    137.3986   6.5001966691e+01   4.3809510221e+00    0.4898575    0.2931354 -32.59  0.001121717    1.467    0.318
        82 -12.3757    248.2050    129.9143   6.3187109622e+01   5.4258506596e+00    0.6494689    0.3522685  45.41  0.003093189    2.061    0.515
        83 -10.2264     49.6554    137.4933   1.1118722705e+02   4.1160114845e+01    0.3303197    0.1183832 -69.81  0.001116582    2.749    0.636
        84 -12.3115    243.7431    124.4438   6.2653643661e+01   7.1610937709e+00    0.7223568     0.278048  39.16  0.002651841    3.352    0.702
        85  -9.8072      7.4478    133.7467   1.2192528342e+02   4.5850094106e+01    0.1731593   0.08608411 -64.83 0.0009363707    1.592    0.372
        86 -12.2614     28.3971    131.8224   1.1617063347e+02   4.4673716221e+01    0.3066778    0.2385933  72.77  0.001906006    1.301    0.231
        87  -9.3110      2.0013    140.0000   1.2386956540e+02   4.4759595869e+01    0.1415448    0.1112896 -85.00 0.0009043731    1.035    0.033
        88  -9.2487    217.7858    131.9086   6.8804582175e+01   1.1030218981e+01     0.191956    0.1114217 -34.16 0.0004806576    1.614    0.380
        89  -9.8863     43.3158    131.1254   1.1196583876e+02   4.3400638463e+01    0.2789932   0.08569226 -58.92  0.001074131    2.559    0.609
        90  -9.5489     20.4624    131.4946   1.1826878473e+02   4.5420319708e+01    0.1267933    0.1013431 -77.64 4.294923e-05    1.003    0.003
        91 -10.3436     12.9831    130.9689   1.2019584675e+02   4.6114805675e+01    0.1804717     0.141582 -79.85            0    1.013    0.013
        92 -10.2493      2.6006    129.8135   1.2278654712e+02   4.7084107922e+01    0.1808702   0.09111256 -87.27 0.0009552118    1.741    0.426
        93 -10.2595     34.0735    129.0966   1.1424022407e+02   4.4812938811e+01    0.2014316    0.1519063 -51.74 0.0005586364    1.304    0.233
        94 -11.5949    229.5240    123.4051   6.4739910370e+01   1.0133210122e+01    0.3342166    0.2186796 -60.05   0.00149851    2.102    0.524
        95  -9.9332      7.2769    123.3779   1.2088768033e+02   4.8294555779e+01     0.200377    0.1130763  58.64  0.001104751    1.991    0.498
        96 -10.4904      2.5437    122.7917   1.2210068098e+02   4.8725492521e+01    0.2029573    0.1635469 -42.00  0.001403383    1.437    0.304
        97  -9.2810     74.3193    122.3139   1.0148907104e+02   4.1715004992e+01    0.1456348    0.1061541 -29.89 0.0005487363    1.651    0.394
        98  -9.3007    193.8691    121.6445   7.0905826123e+01   1.8035162758e+01      0.19208    0.1456411  60.73 0.0001380754    1.522    0.343
        99 -11.9598     21.8471    119.4484   1.1634425711e+02   4.8190206675e+01    0.3876449    0.3076405  79.51  0.001269677    1.275    0.216
       100  -9.1950    123.5206    120.6347   8.7193535608e+01   3.3579372807e+01    0.1503892    0.1477855  67.84 0.0001713164    1.048    0.046
       101 -10.0123    206.0449    119.0686   6.7893942138e+01   1.5845026596e+01     0.240677    0.1836571 -68.09  0.001110313    1.713    0.416
       102 -10.4561    223.2697    117.3962   6.4381104022e+01   1.2462583780e+01    0.4404114    0.2051407 -26.26  0.001155255    2.558    0.609
       103  -9.2429     93.3136    118.6922   9.5158045428e+01   3.9627936936e+01    0.1495228    0.1158046  81.73 0.0004086283    1.625    0.385
       104 -10.6962     54.7026    118.0495   1.0645562063e+02   4.5319836134e+01    0.2161987    0.1999701  41.08 0.0002347062    1.226    0.185
       105 -10.7561    232.5565    117.0391   6.2736760191e+01   1.0608899467e+01    0.2728118    0.2168111  44.15 0.0008588099    1.382    0.276
       106 -10.4189     10.0887    117.1592   1.1939306216e+02   4.9578095622e+01    0.1919786    0.1377381 -56.05  0.001218884    1.268    0.212
       107 -10.9674      3.0809    115.9286   1.2121723963e+02   5.0298363884e+01    0.3071772    0.2037646   6.49   0.00164424    2.086    0.521
       108 -10.2777      4.1691    111.7963   1.2043502635e+02   5.1202728002e+01    0.1634793    0.1366553 -74.97 0.0003848175    1.085    0.078
       109 -10.5377    249.8467    115.0063   5.9566874183e+01   7.5357896660e+00    0.2250941    0.2055198  41.49 0.0008342369    1.253    0.202
       110 -10.6499     61.5665    113.1780   1.0341808312e+02   4.5661413030e+01    0.4294173    0.1948199 -49.54  0.001815143    1.985    0.496
       111 -10.5246     31.9615    111.4561   1.1215608173e+02   4.9266887207e+01    0.2336688    0.1620523  87.56 0.0006089757    1.560    0.359
       112 -10.6667     12.4985    113.5927   1.1825670312e+02   5.0262464676e+01    0.2498788    0.1273129   8.46  0.001258555    2.868    0.651
       113 -11.7691    243.8477    109.6553   5.9233633332e+01   9.5750969253e+00    0.4039419    0.2746366  -6.77  0.001113818    1.929    0.482
       114 -11.5456    231.6767    109.7654   6.1153249615e+01   1.2025681464e+01    0.5376331     0.334558 -72.95  0.002090449    3.092    0.677
       115 -10.8029     20.2097    109.2341   1.1536888451e+02   5.0754984597e+01    0.2469512    0.1602897 -44.11  0.001424856    1.538    0.350
       116 -10.5355    250.0902    107.6606   5.7853405177e+01   8.6739462283e+00    0.2590306    0.1807463 -27.43 0.0005982363    1.324    0.245
       117 -10.0753     37.2986    107.3727   1.0980596961e+02   4.9759556900e+01    0.2626671    0.1252838 -54.98  0.001242045    1.716    0.417
       118  -9.1043      8.2830    106.6795   1.1859224786e+02   5.2160571136e+01    0.1200532   0.08092704  77.94 0.0006996763    1.589    0.371
       119  -8.7986     87.6812    104.7284   9.3451040368e+01   4.3870372908e+01    0.1456359    0.1127732 -17.07 0.0002002404    1.565    0.361
       120 -10.2233     48.0722    103.6973   1.0568789012e+02   4.9543705640e+01    0.2591697    0.1642718 -54.53 0.0003190515    1.338    0.252
       121  -9.5878     28.7938    104.0153   1.1188230136e+02   5.1322863961e+01    0.2314587    0.1069958 -46.46  0.001082505    2.014    0.504
       122 -10.3098    174.9439    102.9434   6.9987741522e+01   2.5977352322e+01    0.2233811    0.2159533 -22.27            0    1.016    0.016
       123 -12.5232    244.8085     97.7910   5.6326935253e+01   1.1311671077e+01    0.7019116    0.5598598 -71.70  0.003668192    1.500    0.333
       124 -10.0617    235.7826     92.5899   5.6400704714e+01   1.4025006277e+01    0.2722333     0.144676  62.45  0.001182534    2.272    0.560
       125 -10.7243    231.9918    101.9538   5.9229519683e+01   1.3277322186e+01    0.4313784     0.205028  56.51  0.001698222    2.413    0.586
       126 -10.3188    225.2401     99.3189   5.9657586451e+01   1.5164235533e+01    0.3391315    0.2071309 -50.52 0.0002656657    1.706    0.414
       127 -10.1096    103.1427    100.8201   8.7771446225e+01   4.2056006225e+01    0.2035614    0.1726673 -16.55 0.0002324153    1.295    0.228
       128  -9.0754     80.5473    101.5732   9.4859510273e+01   4.5751994495e+01     0.144372    0.1339926 -54.20 2.610589e-05    1.041    0.039
       129  -9.3725    162.1727     99.7921   7.1952097819e+01   2.9586986745e+01    0.2033093    0.1792791   0.84 0.0002855596    1.251    0.201
       130  -9.5409    110.4752     99.4740   8.5258267746e+01   4.0957824775e+01    0.1530644    0.1459761 -34.05  0.000161585    1.003    0.003
       131 -10.1954     50.7526     98.9607   1.0381614942e+02   5.0375736675e+01    0.1957156    0.1547085 -57.85 0.0003607704    1.096    0.087
       132 -10.6237     42.1444     98.9447   1.0663175780e+02   5.1301165640e+01    0.1954398    0.1857806 -44.24 0.0003400772    1.134    0.118
       133 -10.3895      8.9585     98.9969   1.1732441829e+02   5.3920710797e+01    0.2068457    0.1708808  49.31  0.000744328    1.460    0.315
       134 -10.3413      3.9757     97.9727   1.1873499668e+02   5.4439362701e+01    0.2311718    0.1697113  23.45  0.001525334    1.731    0.422
       135 -10.3035    106.5180     97.4936   8.5858993276e+01   4.2165344726e+01     0.152576    0.1444877 -33.16 0.0001446588    1.007    0.007
       136  -9.3244     23.3434     95.6749   1.1217454997e+02   5.3733926242e+01    0.1269179   0.08953198  73.96 0.0002946084    1.737    0.424
       137 -10.2724     46.3124     94.0642   1.0420677959e+02   5.2022072241e+01    0.2067812    0.1778284 -13.04 0.0001680574    1.308    0.235
       138 -10.5534     29.1768     92.8834   1.0971910663e+02   5.3927117852e+01    0.2519284    0.1988983  52.12 0.0005864176    1.534    0.348
       139  -9.6827      1.6911     93.0254   1.1876974362e+02   5.5701708899e+01    0.1754356    0.1224132 -68.39 0.0006388024    1.095    0.087
       140 -10.3123    104.6630     90.9657   8.4545847631e+01   4.3959568234e+01      0.29327    0.2119001  45.39 0.0005338802    1.472    0.321
       141  -9.5967    250.5132     89.9874   5.3725574458e+01   1.1399855933e+01    0.2157256     0.118551 -36.48 0.0007873265    1.566    0.361
       142  -9.6355    157.8024     90.1687   7.0231299844e+01   3.2509334183e+01    0.2088446    0.1825935   1.83 0.0003349257    1.273    0.214
       143 -10.2036      7.0444     89.3012   1.1647796862e+02   5.6281300391e+01    0.1995206    0.1582691  85.65 0.0004392162    1.347    0.258
       144 -10.5264    222.8224     87.3531   5.7072635604e+01   1.7704726938e+01    0.2528768    0.2111757 -33.23 0.0003307265    1.126    0.112
       145  -9.6353     66.8510     87.8907   9.5756678852e+01   5.0933509797e+01     0.193905    0.1615245 -72.60  0.001062793    1.352    0.260
       146  -9.9962     43.8261     88.2988   1.0374465580e+02   5.3631669977e+01    0.1922335     0.162099  59.19 0.0007127299    1.450    0.310
       147 -10.5548     27.6423     87.3170   1.0913411239e+02   5.5352263137e+01    0.2363184    0.1688304 -78.77 0.0009105988    1.453    0.312
       148 -10.4459     30.7760     84.1191   1.0736626026e+02   5.5831670998e+01    0.2456452    0.1794158 -27.20 0.0006620754    1.459    0.314
       149  -9.4699      2.4881     86.9612   1.1762615927e+02   5.7055602756e+01    0.1820376   0.09232511 -67.61 0.0005076948    1.492    0.330
       150  -9.7536    177.1762     86.0356   6.4852563774e+01   2.8642583056e+01    0.2746315    0.1735301 -60.65  0.001099943    2.054    0.513
       151  -9.0347     94.2564     86.7195   8.6484237958e+01   4.6820375847e+01    0.1370336    0.1168294 -81.53 0.0001741436    1.471    0.320
       152 -10.1790    155.0594     85.0251   6.9365048188e+01   3.4149814342e+01    0.2280052    0.2232676   8.73 0.0003308721    1.024    0.024
       153  -9.5710     86.4910     84.9880   8.8443230764e+01   4.8554608291e+01    0.2173893    0.1367345 -48.53 0.0003199123    1.496    0.331
       154 -11.0893     50.0811     83.2894   1.0034291993e+02   5.4102865817e+01    0.4822585    0.2789378  -3.66  0.001724355    2.786    0.641
       155  -9.4963     17.4835     85.0134   1.1220181886e+02   5.6635667695e+01     0.186911    0.1017128 -65.32 0.0005546535    1.488    0.328
       156 -10.5003    148.0636     82.9485   7.0396611299e+01   3.6203839558e+01     0.228393    0.2194755  -9.16 0.0003092609    1.040    0.039
       157 -10.4848     73.4048     80.8207   9.1559504010e+01   5.1566165506e+01    0.4910104    0.2010917 -40.84   0.00186348    2.406    0.584
       158 -10.0788     21.1942     87.7771   1.1144480079e+02   5.5738456619e+01    0.1756637    0.1431349 -68.91  0.000417274    1.116    0.104
       159 -10.0064    239.1377     80.5659   5.3040791796e+01   1.5235499081e+01    0.3478291    0.1192129 -45.75  0.001236376    2.830    0.647
       160 -10.3202    193.9283     84.1075   6.1089252394e+01   2.4955919690e+01    0.2216553    0.2123304 -50.72 0.0003485988    1.016    0.015
       161  -9.4591      2.2559     80.4163   1.1667328677e+02   5.8557233956e+01    0.1442083     0.106709  38.86  0.000945683    1.719    0.418
       162 -10.6350    249.1524     79.2557   5.1416968127e+01   1.3339546812e+01    0.2758442    0.1890776  58.72 0.0008206895    1.648    0.393
       163  -9.1042     25.3424     77.7587   1.0792121266e+02   5.7727288367e+01    0.1133669   0.09287874  68.39 0.0002502075    1.560    0.359
       164 -10.4348    176.8518     75.5667   6.1938250017e+01   3.0584746098e+01    0.3742059    0.1840204  57.38  0.001436169    2.108    0.526
       165  -8.9651     81.7027     76.2710   8.7388992195e+01   5.1233999699e+01    0.1323255    0.1151175  88.02 0.0002362812    1.523    0.343
       166 -10.4518     64.5914     75.7733   9.3136012892e+01   5.3946069034e+01    0.1987526    0.1846344   1.26 0.0002788314    1.137    0.120
       167 -11.6862     52.9467     75.1483   9.7139121696e+01   5.5591750726e+01    0.2382982    0.2153261  -8.04            0    1.159    0.137
       168 -11.0809     17.4944     73.8392   1.0995762162e+02   5.9177186170e+01    0.3047005    0.2072209 -20.70 0.0008762142    1.641    0.391
       169  -9.9971    216.6483     73.7693   5.4574789335e+01   2.1322500212e+01    0.2794153    0.1659379 -44.12  0.001274336    1.572    0.364
       170  -9.7801     93.9461     72.2427   8.2099195365e+01   4.9918370390e+01    0.4594567    0.2010824 -30.36  0.001536269    3.144    0.682
       171  -9.2958     68.7802     73.9126   9.1099983221e+01   5.3750382575e+01    0.1897949    0.1037051 -46.45 0.0008586524    1.638    0.390
       172 -10.2460    170.8955     73.1714   6.2431288965e+01   3.2462586255e+01    0.3885382    0.2165057  69.32  0.001470322    2.352    0.575
       173  -9.3551     45.0138     73.0384   9.9474567478e+01   5.6962857336e+01    0.1675072    0.1248195 -48.78 0.0005709589    1.141    0.123
       174 -11.7643    222.6591     71.1153   5.3016630379e+01   2.0360126423e+01    0.3331188    0.2550155 -62.26 0.0005283959    1.352    0.260
       175 -11.7876    199.8612     71.5925   5.6659850662e+01   2.5642798301e+01    0.2578089    0.2535945 -45.41 0.0002838991    1.049    0.047
       176  -9.2882     89.0348     72.0072   8.3610222984e+01   5.0858769345e+01     0.178311    0.1553129 -31.87 0.0003433574    1.066    0.062
       177 -10.3844    230.6301     70.7754   5.1821596477e+01   1.8615012855e+01    0.2640014    0.2455863  52.63   0.00077564    1.201    0.167
       178 -10.3141     52.9650     70.1533   9.5695857495e+01   5.6677056665e+01     0.229753    0.1690119 -50.78 0.0006992972    1.235    0.190
       179 -11.7383     79.7285     69.8948   8.6035869127e+01   5.2887890277e+01    0.2344783    0.2177568  -7.66  0.000270154    1.062    0.058
       180 -10.0290     45.4309     68.7962   9.8130467863e+01   5.7842929087e+01    0.2605676    0.1514596 -35.14 0.0007679826    1.645    0.392
       181  -9.0553     10.3462     69.2961   1.1167995414e+02   6.0631373281e+01    0.1296759   0.06927053 -39.69 0.0007033313    1.673    0.402
       182 -11.6345      6.2962     59.4747   1.1113688864e+02   6.2995752342e+01    0.3857513    0.2774801  40.25  0.000845127    1.848    0.459
       183 -11.6043      1.2630     65.6368   1.1440067889e+02   6.1898603652e+01    0.5121863    0.1311502 -69.96  0.001899856    3.652    0.726
       184 -11.2194      1.7688     61.9262   1.1346431161e+02   6.2684883722e+01    0.2960249    0.1766668 -51.43 0.0005558573    1.251    0.201
       185 -11.9442    245.5162     64.8866   4.8515480416e+01   1.6259903421e+01    0.4620639    0.2409279 -41.95  0.001164126    1.651    0.394
       186  -9.9421    235.5017     66.4173   5.0116594833e+01   1.8199285533e+01    0.2060928    0.1345894  63.86 0.0006823674    1.661    0.398
       187  -9.1673    143.6774     66.2986   6.6290976146e+01   4.0293364387e+01    0.1531724    0.1213366 -76.20 0.0007023978    1.625    0.385
       188  -9.8082     75.1881     66.0969   8.6363526361e+01   5.4396996736e+01    0.2078994    0.1706052 -18.84 0.0002718405    1.173    0.148
       189 -11.4477     32.1244     64.7110   1.0212824816e+02   6.0052503383e+01    0.2865829    0.2179611   7.53  0.001186342    1.489    0.328
       190  -9.8785     14.4243     64.8301   1.0912702704e+02   6.1370690407e+01    0.1934241    0.1635421  -7.08 0.0006307415    1.346    0.257
       191 -10.3007    133.7111     63.5889   6.7844136526e+01   4.3123256350e+01    0.3723367    0.2390985  72.65  0.001074735    2.260    0.558
       192  -9.8995     21.9941     63.9969   1.0594104194e+02   6.1035148831e+01    0.2067835    0.1140358 -36.07  0.000649308    1.672    0.402
       193 -10.8633    193.4775     62.4153   5.5202759137e+01   2.8661425454e+01    0.3419832    0.2703408   1.16 0.0007236917    1.609    0.379
       194  -9.3834    202.9871     63.0000   5.3836864106e+01   2.6253616639e+01     0.226096   0.08272896  60.48 0.0004200476    2.812    0.644
       195  -9.7727    215.5527     61.0836   5.1468006907e+01   2.3549537574e+01    0.2522873    0.1836443  78.04 0.0009209576    1.499    0.333
       196 -10.4030     71.0424     60.3037   8.5886016557e+01   5.6202576166e+01    0.3044161    0.2177596  54.65  0.001033663    1.925    0.480
       197  -9.7980    150.0515     59.8012   6.2757267875e+01   3.9845242299e+01    0.2328661     0.203721 -78.94 0.0007449563    1.306    0.234
       198 -10.7341     31.4169     58.5015   1.0065819639e+02   6.1437014428e+01    0.2542453    0.1967506 -67.11 0.0001248245    1.462    0.316
       199  -9.7395     16.3587     60.0173   1.0719819285e+02   6.2288339601e+01    0.1734773    0.1258937 -53.92 0.0004451144    1.116    0.104
       200  -9.7083    105.5739     66.7433   7.6665181999e+01   4.8732565478e+01    0.2859855    0.1693195  33.82  0.000939719    1.837    0.456
       201 -10.0395    199.9687     58.0670   5.2969228031e+01   2.7740672702e+01     0.227953    0.1758201  20.25  0.001030449    1.698    0.411
       202  -9.5362    187.1561     57.8501   5.4975387471e+01   3.0928520687e+01    0.2254379    0.1903068 -72.97  0.000496458    1.249    0.199
       203  -9.1019     60.6896     58.3186   8.9034152883e+01   5.8120060685e+01    0.1247294    0.1091119 -85.39 0.0007034372    1.642    0.391
       204 -10.9056     23.3312     56.6949   1.0346166820e+02   6.2494091678e+01    0.4241635    0.2367698 -36.45  0.002338655    1.577    0.366
       205  -9.8575    219.0644     56.6861   4.9856511480e+01   2.3380268496e+01    0.2205424    0.2041277  53.88 0.0003656948    1.192    0.161
       206 -11.3436    223.9769     54.1961   4.8584880298e+01   2.2601176593e+01    0.5076719    0.3222829 -89.87  0.002404594    1.930    0.482
       207 -10.7219    168.3363     57.2693   5.8193253934e+01   3.5716024072e+01    0.3577816    0.2206521  76.02  0.001484034    2.052    0.513
       208  -9.7106    244.1661     55.1163   4.6388792158e+01   1.7960103162e+01    0.1864061    0.1703145 -26.91 0.0003949702    1.211    0.174
       209 -10.4134    145.1789     54.2639   6.2055213941e+01   4.1924189712e+01    0.3086099    0.2005509 -26.90  0.001391942    1.627    0.386
       210  -9.9204    118.7074     54.9936   6.8851785139e+01   4.8018616988e+01    0.2285776     0.191011   4.99 0.0003223886    1.264    0.209
       211 -10.1177    122.2064     52.3734   6.7000083383e+01   4.7659511797e+01    0.2823491    0.1351508  47.73 0.0009080493    2.021    0.505
       212 -10.1237     93.2008     54.2376   7.6142800254e+01   5.3469686765e+01    0.2844862    0.1789701 -24.78  0.000500307    1.676    0.403
       213 -10.7156     94.9793     49.4441   7.3812943331e+01   5.3948387595e+01    0.4254279    0.2106909  35.12   0.00157791    2.189    0.543
       214  -9.5543     52.7921     53.8286   9.0547804521e+01   6.0059916742e+01     0.168311    0.1527314 -54.07  0.000498273    1.315    0.240
       215 -10.4406     30.2000     53.0411   9.9523871971e+01   6.2677410315e+01    0.3001993    0.1893658  -4.41  0.001667543    1.854    0.461
       216  -9.3315    191.9944     53.5050   5.2957370543e+01   3.0382211815e+01     0.204333    0.1112043  39.41 0.0007369605    2.342    0.573
       217  -9.0785    106.5115     53.4813   7.1768178633e+01   5.0918110891e+01    0.1493366     0.132115   6.27 -5.608609e-05    1.094    0.086
       218  -9.4963     60.8094     51.8640   8.6728620039e+01   5.9353058299e+01    0.1647915    0.1581834 -45.34  0.000466657    1.288    0.224
       219 -10.8898     42.1030     51.5639   9.4088556069e+01   6.1781588768e+01    0.3241046    0.1513948 -44.15 0.0007384294    1.784    0.440
       220 -10.1316    203.0883     47.2325   4.9576569552e+01   2.8557961413e+01    0.4362912    0.2075742  31.59  0.001269617    5.231    0.809
       221 -11.3065      6.0445     48.7791   1.0866290975e+02   6.5267286570e+01    0.4933842    0.2914746  35.43  0.002947232    2.254    0.556
       222 -11.6694     12.3588     44.0529   1.0456137912e+02   6.5866315333e+01    0.4461049    0.1439165 -48.99   0.00150263    2.153    0.536
       223 -11.7274     14.2862     39.5848   1.0230670509e+02   6.6625297349e+01     0.444311    0.2389852 -61.97   0.00175251    1.935    0.483
       224  -9.6102    174.5149     50.4767   5.5010890057e+01   3.5194664529e+01    0.1459413     0.140994 -88.25 0.0002591728    1.012    0.012
       225 -10.2626     65.7261     49.3778   8.3946049236e+01   5.9090432571e+01    0.3150057    0.1814172 -28.86  0.001039449    1.728    0.421
       226 -10.3182     67.6922     44.2902   8.1275411245e+01   5.9692011998e+01    0.2296622    0.1992283 -11.22 0.0005061044    1.017    0.017
       227  -9.8029     45.2057     55.2015   9.4037580035e+01   6.0706989067e+01    0.2358017    0.1200647 -20.42 0.0009636747    2.897    0.655
       228  -9.6172    244.5149     48.4842   4.4808054477e+01   1.8810149617e+01     0.187512    0.1233438 -24.06 0.0008282597    1.694    0.410
       229 -10.6713    238.0678     40.8631   4.3711932141e+01   2.1252322978e+01    0.3984612    0.1872045 -41.61  0.001855242    1.840    0.457
       230 -10.3298    241.0101     46.7344   4.4776572515e+01   1.9812681956e+01     0.280348    0.2459543  60.95 0.0004354285    1.288    0.224
       231 -10.4064    242.1770     43.6126   4.3924448476e+01   1.9980274948e+01    0.2772454      0.18179  85.00  0.001479007    1.660    0.398
       232  -9.0971    152.5250     48.5202   5.8607587090e+01   4.0991231617e+01    0.1468541    0.1418037  42.59 0.0003489637    1.013    0.013
       233  -9.5659     31.7931     47.7939   9.7169697068e+01   6.3585711192e+01     0.144687    0.1388984 -27.90 0.0006752784    1.277    0.217
       234 -10.3295     17.3766     47.2564   1.0328100755e+02   6.4883446593e+01    0.2203006    0.1923482   9.64 0.0009575694    1.353    0.261
       235 -10.8464    124.2295     45.5216   6.4062985736e+01   4.8262115311e+01    0.3733382    0.3149023  25.53   0.00200483    1.180    0.152
       236  -9.3351    235.4855     51.4875   4.6521029166e+01   2.0375175637e+01    0.1356905    0.1202429 -56.97 0.0001723754    1.011    0.010
       237  -9.8114    235.9951     45.8222   4.5109109313e+01   2.1046127173e+01     0.181165    0.1772881  36.31 0.0003782232    1.235    0.190
       238  -9.5113    231.0000     45.9461   4.5701583288e+01   2.2152784562e+01    0.2257798   0.07164475 -32.15 0.0008060392    2.967    0.663
       239  -9.8030    130.8409     46.1860   6.2664350570e+01   4.6613382770e+01    0.2036293    0.1652261  15.81 0.0002736551    1.333    0.250
       240  -9.7756    114.7233     46.3067   6.6841828973e+01   5.0301911288e+01    0.1997301    0.1587093  12.83  0.001025997    1.339    0.253
       241 -12.1277     61.8710     44.1839   8.3455922641e+01   6.0604040893e+01    0.3212693    0.2211356 -38.04  0.000463736    1.344    0.256
       242  -9.3570     42.5173     44.4712   9.1429907282e+01   6.3104035442e+01    0.1291216    0.1063865 -25.84 4.559932e-05    1.019    0.019
       243  -9.4258     26.8616     44.1857   9.8120135005e+01   6.4744853478e+01    0.1697394    0.1141253 -30.07  0.000265207    1.272    0.214
       244  -9.5860    143.3070     43.4279   5.8878106113e+01   4.4006126782e+01    0.2092819    0.1410528  71.84 0.0008352322    1.712    0.416
       245  -9.2481     53.0103     42.7243   8.6416013245e+01   6.2117768848e+01    0.1713121    0.1454189 -10.96 0.0002942616    1.052    0.050
       246  -9.4056     82.0217     42.3230   7.5358569504e+01   5.7581646177e+01    0.1860365    0.1627528   1.40  0.000479736    1.023    0.023
       247  -9.8277     91.0949     40.9332   7.1805425355e+01   5.6087554536e+01    0.1971689    0.1842799 -37.74 0.0004855443    1.243    0.195
       248 -11.5536     41.1853     37.6412   8.9432055241e+01   6.4511903854e+01    0.4819976    0.2747775 -21.60   0.00108611    1.857    0.461
       249 -10.6252    227.9851     38.6103   4.4258511855e+01   2.3825371375e+01    0.3620841    0.2696976 -33.66 0.0008756006    1.335    0.251
       250 -10.1182    158.4871     38.9167   5.4357936551e+01   4.0852767729e+01     0.364677    0.2303907 -60.13  0.001605256    2.004    0.501
       251 -11.0232    127.2815     39.6518   6.1221699848e+01   4.8399745954e+01    0.2805098      0.25237  66.42 0.0007464491    1.194    0.162
       252 -10.1263    135.6773     36.1846   5.8067577602e+01   4.6863620329e+01    0.2694314     0.204907  27.42 0.0003847006    1.401    0.286
       253  -9.7761    130.7928     36.3718   5.9231350665e+01   4.8014881119e+01    0.3661791    0.1246103  54.49 0.0006913934    2.668    0.625
       254  -9.9927     10.7599     31.7170   1.0136880571e+02   6.8370629109e+01    0.2598084    0.1265529  27.78  0.001453724    2.441    0.590
       255 -10.0119      4.8431     31.9114   1.0433068133e+02   6.8692515066e+01    0.2650637    0.1307519 -40.07  0.001189958    1.525    0.344
       256 -10.8701      5.7056     39.2461   1.0618436850e+02   6.7217438153e+01    0.2902253    0.1757058  -0.33  0.001812793    1.859    0.462
       257 -10.5546      3.2310     36.4178   1.0650846176e+02   6.7905829083e+01     0.258353    0.2004463  26.14  0.001260576    1.668    0.401
       258 -10.1695    250.6075     38.8124   4.1988886519e+01   1.8800363646e+01    0.1963043   0.09585505 -44.05 0.0009543293    1.725    0.420
       259  -9.4575    165.6630     39.7312   5.3312061573e+01   3.8936561925e+01    0.1983759    0.1274555 -39.82 0.0005349321    1.584    0.369
       260  -9.7240    223.0446     39.4776   4.5028542537e+01   2.4852459648e+01    0.1970917    0.1291067  70.49 0.0005904197    1.542    0.352
       261 -11.8213    103.6818     38.7478   6.7120496189e+01   5.3841840368e+01    0.2484977    0.2225629  26.10 0.0003160913    1.052    0.050
       262  -9.5679    194.0032     38.5005   4.8472430826e+01   3.1982835362e+01    0.2094535    0.1352396  69.61 0.0004548253    1.530    0.347
       263  -9.9761    186.1772     36.1768   4.8945008152e+01   3.4237259199e+01    0.2363183    0.1970411 -18.60 0.0008721332    1.343    0.256
       264 -10.1554    186.9958     31.6835   4.7548986616e+01   3.4602593777e+01    0.3619485    0.1869171 -37.26  0.001615529    1.893    0.472
       265 -10.8543    191.8856     28.3372   4.5944358480e+01   3.3793940728e+01      0.41225    0.1948286  64.02 0.0007369315    1.975    0.494
       266 -10.9417    175.9986     35.4207   5.0275736583e+01   3.6894190985e+01    0.5091162    0.3188472 -51.36  0.002387291    1.714    0.416
       267  -9.4925     86.1172     36.8297   7.1798017766e+01   5.7678119439e+01    0.1864087    0.1438088   5.33            0    1.295    0.228
       268 -10.8002    201.8302     33.7903   4.6137481915e+01   3.0663832096e+01    0.3260813    0.2894391   6.05  0.000989439    1.378    0.274
       269  -9.4907    166.2660     34.9931   5.1742407327e+01   3.9406466618e+01    0.2335946    0.1570076  24.11 0.0006797293    1.953    0.488
       270  -9.3130     58.0242     34.9941   8.1305118558e+01   6.2740081036e+01    0.1782278    0.1503561  -5.27            0    1.037    0.036
       271  -9.7917     54.8303     33.1366   8.1826287981e+01   6.3508465778e+01    0.1804422    0.1580617 -15.32 0.0003546364    1.134    0.118
       272 -10.2408    153.0666     32.2534   5.3219925457e+01   4.3075540685e+01     0.289826    0.2471474  79.35  0.001590392    1.209    0.173
       273 -12.2273    107.8215     28.9095   6.2153487235e+01   5.4288893091e+01    0.3837855    0.2768176 -19.77   0.00203454    1.421    0.296
       274  -9.2782     83.4857     33.5386   7.1334544318e+01   5.8666383809e+01    0.1374203    0.1193715   5.49 -2.027629e-05    1.009    0.009
       275  -9.6924     71.7314     29.6543   7.3803790926e+01   6.1363613581e+01    0.1939784    0.1603403  20.75  0.000891875    1.132    0.117
       276  -9.4793     75.3836     32.7746   7.3810127432e+01   6.0262724595e+01    0.2855774    0.1255429 -32.53    0.0012357    2.203    0.546
       277  -9.9431     75.6682     28.9581   7.2098213290e+01   6.0768260884e+01    0.2248627    0.1868207  37.32 0.0003978194    1.269    0.212
       278 -11.3055    145.5435     28.8999   5.3534470251e+01   4.5363406224e+01    0.4070402     0.369436  79.01   0.00234329    1.136    0.120
       279  -9.9167     32.0518     26.2280   8.8934188552e+01   6.7509726693e+01    0.4933621    0.2043921 -34.83  0.001992588    2.128    0.530
       280 -10.7559     19.2063     29.1479   9.6300501725e+01   6.8219907225e+01    0.2588908     0.195111   8.89  0.001167115    1.399    0.285
       281  -9.8154     24.6481     31.2860   9.4499436766e+01   6.7364907926e+01    0.2011024    0.1958715 -41.76  0.000820952    1.453    0.312
       282 -11.2442    221.2944     29.6082   4.2780272625e+01   2.6525502619e+01    0.2827131    0.2183618 -49.52 0.0003797484    1.190    0.160
       283  -9.5900    158.9966     29.9748   5.1420065285e+01   4.1867093341e+01    0.1645281    0.1618889 -33.33 0.0003572947    1.078    0.073
       284  -9.8017     27.6693     31.3013   9.3075806732e+01   6.7079980027e+01    0.2116519    0.1749588 -19.78 0.0008714085    1.090    0.082
       285 -10.1446    211.9525     28.0515   4.3417557366e+01   2.8927405104e+01    0.1980968    0.1782177 -71.45 0.0003587735    1.013    0.013
       286 -10.7192    207.7998     27.0486   4.3634019408e+01   3.0047526769e+01    0.3276263    0.2028522  79.12 0.0007941935    1.623    0.384
       287 -10.3155    181.8590     26.9557   4.6920474804e+01   3.6464738655e+01    0.2990379    0.2005151 -26.53 0.0009114611    1.607    0.378
       288  -8.9558     55.6730     28.6985   7.9588977793e+01   6.4090161840e+01    0.1334554    0.0875474  -1.80 0.0007031146    1.641    0.391
       289 -10.4139    165.6409     26.1454   4.9111800596e+01   4.0647894230e+01    0.3671245    0.2153906 -83.60  0.001532861    2.380    0.580
       290  -9.6179    134.0231     27.0577   5.5222785322e+01   4.8413280364e+01    0.2179437    0.1639117 -61.51 0.0006394696    1.654    0.395
       291  -9.5485     99.9634     26.7565   6.3467632414e+01   5.6269093138e+01    0.1888625    0.1645727  32.72 0.0003588683    1.072    0.067
       292 -10.4183     48.2836     25.9287   8.1472411230e+01   6.5571164456e+01    0.2693754    0.2352082  62.19 0.0009471275    1.914    0.477
       293  -9.9124    138.3779    249.2162   1.0623983412e+02   4.8238745056e+00    0.1433088     0.113278 -78.03 0.0005523686    1.648    0.393
       294 -11.0941    128.2629    247.6645   1.0796119372e+02   6.6089903858e+00    0.3072868    0.2233564  61.28 0.0009329114    1.391    0.281
       295 -10.1251    247.4949     24.9962   3.9188243688e+01   2.1205394496e+01    0.2785324     0.112166 -65.81  0.001046805    3.483    0.713
       296 -10.4467    232.1157     23.7205   4.0276788506e+01   2.4752357629e+01    0.2963399    0.1903808 -70.70  0.001399292    1.543    0.352
       297  -9.7906    211.9666     23.3311   4.2214259139e+01   2.9489594484e+01    0.2027522    0.1854891 -26.97 0.0005367931    1.242    0.195
       298 -10.3656    212.2612     19.1073   4.1115712769e+01   2.9907789953e+01    0.2443515    0.1781315 -34.25  0.000603062    1.399    0.285
       299  -9.9663    158.9844     24.4894   4.9678452794e+01   4.2517363246e+01    0.2062773    0.1307023  64.84 0.0003332549    1.476    0.323
       300  -9.9576     61.3388     24.0745   7.5279215796e+01   6.3902494379e+01    0.2335851    0.1564491   4.44 0.0004421371    1.552    0.356
       301 -10.8730     18.4632     23.3873   9.4385128978e+01   6.9297624103e+01    0.2815362    0.1580322 -44.59   0.00119045    1.503    0.335
       302 -11.2611    194.9489     22.6681   4.3998951587e+01   3.3704316507e+01    0.2784218    0.2133655  76.85 0.0003428808    1.229    0.186
       303 -10.7284    142.8478     22.8876   5.2013675842e+01   4.6730431641e+01    0.2291546    0.2056806  26.34  0.000343974    1.137    0.121
       304 -10.4030    132.1013     22.0375   5.3839792006e+01   4.9456658909e+01    0.2866655    0.2374747  -2.23   0.00151075    1.300    0.231
       305  -9.9921    123.7282     22.6559   5.5864991438e+01   5.1392105864e+01    0.3147632     0.202315 -68.24  0.001331732    2.508    0.601
       306 -12.4331    116.9211     22.3394   5.7315651041e+01   5.3020875537e+01    0.2634074    0.2345231   1.32 0.0004904379    1.131    0.116
       307 -10.4842     26.3835     22.0817   8.9881082929e+01   6.8786449098e+01    0.2817137    0.1665214 -25.08  0.000621113    1.466    0.318
       308 -10.9669    174.0394     21.3340   4.6385379387e+01   3.9078091629e+01     0.303763    0.2419263 -23.27  0.001687552    1.384    0.277
       309 -10.7768    105.0607     20.8983   5.9715062890e+01   5.5867742711e+01    0.2079552    0.2013616  -3.36 0.0003019637    1.156    0.135
       310  -9.4904     41.0091     21.5134   8.2700806141e+01   6.7211183982e+01    0.1648649     0.111854  26.80 0.0003693363    1.502    0.334
       311  -9.7303     36.1498     20.9170   8.4668299905e+01   6.7901869578e+01    0.1713044    0.1468478 -19.18 0.0004309824    1.217    0.179
       312  -9.5931     38.5202    249.0315   1.2424889987e+02   1.8493881705e+01    0.1456783   0.08974876 -84.55 0.0005678963    1.529    0.346
       313  -9.6579    163.0208     15.2168   4.6133989538e+01   4.2505517135e+01    0.1857313    0.1509972 -79.45  0.001037169    1.287    0.223
       314  -9.6563    139.4893     19.9037   5.1625752909e+01   4.7886329045e+01    0.1977395    0.1381798 -23.08  0.001017292    1.544    0.352
       315 -10.2888     93.8027     19.9544   6.2436222399e+01   5.8395496203e+01    0.2064288    0.1733008  40.20 0.0003010553    1.142    0.124
       316 -10.4426    182.3249     18.7171   4.4492866775e+01   3.7286629638e+01    0.2375194    0.2182658  36.54 0.0007197349    1.216    0.178
       317 -10.9161     16.2373     17.9122   9.3214265614e+01   7.0411805891e+01    0.3610119    0.1944797  -0.10  0.002028205    2.109    0.526
       318  -9.7176    211.0027    245.4801   9.2226124549e+01  -5.7308007645e+00    0.1661931    0.1356776   6.46 -1.842523e-05    1.121    0.108
       319  -9.6508    188.7104     17.2507   4.3275154122e+01   3.5854835310e+01     0.177885    0.1488664  42.68  0.001024696    1.330    0.248
       320 -10.1207     64.2689     16.1651   7.0526285499e+01   6.4474656794e+01    0.4832904    0.1975932  35.76  0.002144104    2.425    0.588
       321  -9.3874     45.4672     16.9676   7.8582710753e+01   6.7283464345e+01    0.1585195    0.1017486 -51.77 0.0008096868    2.569    0.611
       322  -9.4426     73.2748     16.6867   6.7517978516e+01   6.2815709013e+01    0.1138142    0.1016104 -49.89 0.0004552305    1.560    0.359
       323 -10.0023    243.7632     15.4666   3.7387233177e+01   2.3133661352e+01    0.1616622    0.1073629  62.83 0.0005369891    1.617    0.382
       324 -11.2499     20.5064    244.7103   1.2700512263e+02   2.1220553703e+01    0.1997794    0.1539322 -85.10 0.0009523074    1.353    0.261
       325 -10.4929    202.0867    244.3242   9.3670268304e+01  -4.2627099871e+00    0.2354815    0.1518018 -15.13  0.001298573    1.810    0.447
       326  -9.0759      1.3049    243.6974   1.3004338063e+02   2.3295122421e+01    0.1081786   0.04992343  64.37 0.0002318458    1.596    0.374
       327  -9.9118    139.2657     14.0194   4.9632720922e+01   4.8548508547e+01    0.1894584    0.1741227  50.64  0.001143423    1.018    0.018
       328  -9.4804     91.8195    242.1673   1.1423402410e+02   1.2897750467e+01    0.1447103    0.1285598  40.81 0.0004176358    1.281    0.220
       329  -9.0505     76.2832    241.6332   1.1706687481e+02   1.5131636308e+01    0.1225635   0.07054886  67.41 0.0004400852    1.691    0.409
       330  -9.7217     88.9646     13.5123   6.1091057194e+01   6.0116536958e+01    0.1822813    0.1183377  48.12 -3.882215e-05    1.432    0.302
       331 -10.0351     43.9472    240.7023   1.2280350236e+02   1.9359367460e+01    0.1589713    0.1264287  89.33 0.0003320807    1.241    0.194
       332  -9.6173     69.8655     11.5158   6.6308466852e+01   6.4040403191e+01    0.2272373    0.1203995  51.71  0.001127369    2.062    0.515
       333 -10.5428    104.1727    237.1702   1.1138687460e+02   1.1992728753e+01     0.169099     0.152836  44.05  0.000347934    1.200    0.167
       334 -11.3227     33.9448    239.1802   1.2444471388e+02   2.0776583493e+01    0.1985267    0.1488867  71.19 0.0003741792    1.043    0.042
       335  -9.7297    148.4617    239.4972   1.0310526537e+02   4.7792757829e+00     0.124094     0.102421  39.53    3.944e-05    1.005    0.005
       336  -9.5046    168.2842    237.6596   9.9035039256e+01   1.9157077131e+00     0.116353   0.09163684  64.12 0.0004676683    1.634    0.388
       337  -9.6398    144.6811    237.6949   1.0360105661e+02   5.6658535902e+00    0.1196963   0.09073287  11.51  0.000260292    1.631    0.387
       338  -9.8845    133.0267    234.4754   1.0546130434e+02   8.0412728846e+00    0.1688174    0.1545817  56.66 9.417985e-05    1.116    0.104
       339 -10.0970     15.2369    235.5997   1.2742817647e+02   2.3409992070e+01    0.1200571   0.09179492  42.02 0.0002915034    1.510    0.338
       340  -9.5619    230.7031    232.6813   8.6652559812e+01  -6.9876364727e+00    0.1232239   0.07688465   6.01 0.0003349846    1.613    0.380
       341  -9.5029    146.5311    231.4718   1.0240915282e+02   6.3886909618e+00    0.1265783    0.1067593  36.74 7.187587e-05    1.038    0.037
       342 -10.3805     46.3490    229.3616   1.2159563061e+02   2.1191633624e+01    0.3645758    0.1629828  75.04  0.001815645    2.535    0.605
       343  -9.4011     29.5139    230.5332   1.2469883135e+02   2.2871634312e+01    0.1102957   0.08305793  71.41 0.0002335282    1.034    0.033
       344 -10.1079     89.0425    221.2015   1.1264998577e+02   1.7161945538e+01    0.1777663    0.1632156  43.05 0.0009414522    1.251    0.201
       345  -9.8512     38.7118    218.6484   1.2224114805e+02   2.4160444064e+01    0.1806076    0.1144916 -69.07 0.0005267652    1.597    0.374
       346  -9.6774     14.8199    218.8374   1.2662841532e+02   2.6634594510e+01    0.1475001    0.1193274  85.56 0.0003975673    1.202    0.168
       347 -10.2310     93.3277    217.6889   1.1139633393e+02   1.7220281743e+01    0.2077858    0.1546437  61.12 0.0009511202    1.191    0.160
       348 -11.3431     90.0241    215.0207   1.1177128666e+02   1.8230507155e+01     0.278848    0.2071729 -81.79 0.0004631124    1.386    0.278
       349  -9.3809    144.3031    214.6446   1.0046202044e+02   9.6688658104e+00      0.13261   0.09789635  70.49 0.0007039412    1.711    0.416
       350  -9.4127    111.5339    213.4970   1.0712851920e+02   1.5257063296e+01    0.1288607    0.1136426  54.32 -0.0003310078    1.034    0.033
       351 -10.0028    126.8590    209.8444   1.0341048637e+02   1.3481520479e+01    0.1903684    0.1715247  19.51 0.0004199793    1.242    0.195
       352 -10.6555      8.3946    209.5201   1.2727686811e+02   2.9087938535e+01    0.1880834     0.149709  83.27 0.0006127794    1.152    0.132
       353  -9.1633    230.6925    209.6408   8.2642795584e+01  -3.9305941031e+00    0.1344105   0.08461659   2.20  0.000107023    1.732    0.423
       354  -9.6377     18.7930    208.4341   1.2529518573e+02   2.8320029434e+01    0.2298468   0.09736695  76.43  0.001160881    2.349    0.574
       355 -10.2917     67.2977    207.2435   1.1562028231e+02   2.2981010909e+01    0.2205467    0.1672765  56.53 0.0005898483    1.150    0.130
       356 -10.0786     57.5345    205.4100   1.1744839629e+02   2.4621141881e+01    0.1882747   0.09946121 -59.93  0.000185974    1.975    0.494
       357  -9.3657     39.9897    204.9599   1.2095297928e+02   2.6802998336e+01     0.144896      0.11316  78.82 0.0005406804    1.026    0.025
       358  -9.1964      1.4455    204.4908   1.2827717227e+02   3.0717260159e+01    0.1120834    0.0781161  76.41 0.0001271721    1.049    0.047
       359  -9.7499    142.1273    203.2929   9.9178054730e+01   1.2145095513e+01    0.1878263    0.1551595  45.03 0.0003052524    1.097    0.089
       360 -11.2921     33.4035    199.4225   1.2183022189e+02   2.8690324771e+01    0.2499413    0.1865537  66.69 0.0004279202    1.119    0.106
       361  -9.2873      5.7361    200.2595   1.2725964998e+02   3.1206621919e+01    0.1094613   0.06138733  68.11 0.0002404172    1.449    0.310
       362  -9.8975    121.1470    199.2085   1.0308916883e+02   1.6528328629e+01    0.1985363    0.1752107  33.76 0.0008225231    1.165    0.142
       363 -10.3323     62.3936    198.3367   1.1573683195e+02   2.5500864381e+01    0.1976216    0.1692978  59.16 0.0002300875    1.138    0.121
       364  -9.5842      5.7950    193.1749   1.2684318910e+02   3.2672610350e+01    0.2161165   0.09730142  83.66 0.0009748195    1.953    0.488
       365 -10.0597     58.9403    191.9082   1.1580659054e+02   2.7334341070e+01    0.2221486     0.157005 -77.01 0.0008178367    1.307    0.235
