#   1 NUMBER                 Running object number                                     
#   2 MAG_AUTO               Kron-like elliptical aperture magnitude                    [mag]
#   3 X_IMAGE                Object position along x                                    [pixel]
#   4 Y_IMAGE                Object position along y                                    [pixel]
#   5 X_WORLD                Barycenter position along world x axis                     [deg]
#   6 Y_WORLD                Barycenter position along world y axis                     [deg]
#   7 A_WORLD                Profile RMS along major axis (world units)                 [deg]
#   8 B_WORLD                Profile RMS along minor axis (world units)                 [deg]
#   9 THETA_WORLD            Position angle (CCW/world-x)                               [deg]
#  10 FWHM_WORLD             FWHM assuming a gaussian core                              [deg]
#  11 ELONGATION             A_IMAGE/B_IMAGE                                           
#  12 ELLIPTICITY            1 - B_IMAGE/A_IMAGE                                       
         1 -12.7369      7.0928     87.2535   1.3329735501e+02   5.7164431175e+01     1.952537    0.9087607 -63.06    0.0106557    1.698    0.411
         2 -12.8033     83.9415     83.1816   1.0700146643e+02   4.9511863842e+01     2.753298     1.038213 -56.72   0.00831397    4.516    0.779
         3 -12.0405     61.1848      4.0186   8.6092215657e+01   6.4908733278e+01     1.412528    0.4512549  44.32  0.006618279    2.613    0.617
         4 -11.1232     68.6969     74.5377   1.0935291477e+02   5.3590993024e+01     1.054372    0.4204372 -42.27   0.00436264    2.317    0.568
         5 -10.9482     51.8497     34.3850   1.0178664615e+02   6.2742008539e+01     1.647314     0.910508 -32.03  0.009289633    1.667    0.400
         6 -12.3545     38.0765     46.3837   1.1137926243e+02   6.2548852134e+01     1.080634    0.7323559  51.70  0.006088844    2.531    0.605
         7 -11.9593     18.7503     13.5773   1.0708387561e+02   6.9400133009e+01    0.5298165     0.355959  18.05  0.003660183    1.430    0.301
         8 -11.1067     24.2272      4.2923   1.0052834552e+02   6.9970084107e+01    0.8751684    0.3779439  30.61   0.00474971    2.188    0.543
         9 -11.7655     29.6460     25.4136   1.0714496631e+02   6.6691443914e+01      1.21441    0.3083301 -38.98   0.00512404    3.423    0.708
        10 -12.0837     41.2272     17.5427   9.9182610742e+01   6.6383647170e+01     1.161401    0.6863179   0.79  0.006881414    1.794    0.442
        11 -11.7787      8.6896     26.2189   1.1659739011e+02   6.8433093847e+01     1.009252    0.3877757  11.92  0.005053063    3.291    0.696
        12 -13.3799      5.6322     12.2525   1.1265291628e+02   7.0700762195e+01     1.100106    0.6016126 -35.88  0.005724456    1.467    0.318
        13 -12.2531     58.2015     69.2148   1.1130730350e+02   5.6066132378e+01     2.661593    0.7627084 -49.90  0.009510561    3.438    0.709
        14 -12.3896     17.9727     40.4623   1.1748017680e+02   6.5432208203e+01    0.9065871    0.7364274 -62.67  0.006415016    1.714    0.417
        15 -12.7242     85.6652     56.2962   9.8018585308e+01   5.4122472583e+01     2.427614     1.732534  13.05   0.01299977    1.556    0.357
        16 -13.6090    111.0027     71.9889   9.5589684381e+01   4.6606496285e+01     3.175814     2.449157  -1.04   0.01610354    1.553    0.356
        17 -11.3049    117.2681     46.1561   8.5642041415e+01   4.9417800584e+01     1.180522    0.5684686 -18.40  0.004483575    3.167    0.684
        18 -10.9622    203.2793     37.4790   6.7212136747e+01   3.0082082788e+01     0.524052    0.4939907  -4.90  0.001356935    1.378    0.275
        19 -11.3013    149.1458     25.7086   7.2349125184e+01   4.4657250299e+01    0.9750192    0.4925885  43.79  0.002602005    2.021    0.505
        20 -10.4258    168.1813     24.9042   6.8960485266e+01   4.0159145082e+01    0.6713775    0.4647042  41.90  0.003607028    1.581    0.368
        21 -10.2558    169.9711     13.7479   6.5691117156e+01   4.0920198564e+01    0.2442335    0.2064288 -59.28 0.0002390171    1.257    0.204
        22 -12.0389    164.9993      6.8820   6.4540496333e+01   4.2774177343e+01    0.8842611    0.7572435 -81.42  0.003874544    1.165    0.141
        23 -10.4669    161.8518     17.3455   6.7850724349e+01   4.2507142944e+01      0.40157    0.3018914  62.25   0.00145326    1.153    0.133
        24 -10.6719    156.8081     15.7460   6.8182138668e+01   4.3879602043e+01    0.4117428    0.4004963 -18.66   0.00191956    1.210    0.173
        25 -11.1453    149.2243     16.9018   6.9744538195e+01   4.5570242541e+01     0.916141    0.4821676  28.64  0.003936013    2.855    0.650
        26 -10.8986    147.6076     11.7301   6.8498179366e+01   4.6454135216e+01    0.6140057    0.4826227   3.02  0.003699224    1.586    0.369
        27 -13.0840     36.9590     65.9694   1.1790030008e+02   5.9145378472e+01     1.989741     1.352992  25.65   0.01218383    1.637    0.389
        28 -11.9887    135.6939      4.9897   6.8469390097e+01   4.9823948211e+01     1.032813    0.6059557  70.48  0.005525221    1.583    0.368
        29 -11.5399    108.2141     29.9915   8.2483057163e+01   5.3434909201e+01     1.370115    0.5094427  56.16  0.002714711    2.659    0.624
        30 -11.0279     90.9837     19.7980   8.3376777914e+01   5.8049414686e+01     1.097765    0.4814811  -8.74  0.004066916    4.227    0.763
        31 -11.8963    129.8280     20.3007   7.4354821174e+01   4.9746997060e+01     1.183906    0.4991188  53.27  0.004047487    1.967    0.492
        32 -10.9263    123.5051      9.8530   7.2244009373e+01   5.2170763001e+01    0.4522004    0.3096286  61.16  0.001888486    1.288    0.224
        33 -11.4204    127.6328     15.3640   7.3212001657e+01   5.0735505091e+01     1.299457     0.234182  47.98  0.003987882    4.461    0.776
        34 -12.2257    116.9477      6.0898   7.2311215670e+01   5.3942303180e+01     1.682459    0.3219538  49.06  0.005855825    3.660    0.727
        35 -12.1138    117.1833     15.4651   7.5409407257e+01   5.3054144661e+01    0.3261949    0.2531517  65.69 0.0002718816    1.292    0.226
        36 -12.2592     67.0082     31.0969   9.5099134522e+01   6.0963118841e+01     2.496874     1.036669  48.44   0.01110217    2.873    0.652
        37 -10.5890     72.7720     17.4358   8.7859374704e+01   6.1638300490e+01     1.045648    0.3301452  50.22  0.004209052    3.247    0.692
        38 -13.4006     99.9238      6.0280   7.6014110458e+01   5.7559349636e+01    0.4303469    0.3791531  34.22 0.0006524277    1.075    0.070
        39 -11.7914     93.3043      8.1905   7.8429765726e+01   5.8711146596e+01    0.5855358    0.2993743  42.50  0.003135041    1.640    0.390
        40 -11.1056     67.0701     21.5354   9.1347885853e+01   6.2137758500e+01    0.4468192    0.3716451   6.23  0.002697664    1.045    0.043
        41  -9.5234    185.2231     14.0051   6.3754233028e+01   3.7223949364e+01    0.3998263    0.3402701  44.18  0.001755317    1.367    0.268
        42 -11.3348    183.6540     27.0425   6.7262033131e+01   3.6146953004e+01    0.8108971    0.4851029  24.59  0.003465543    3.060    0.673
        43 -10.1963    177.9346     20.3762   6.6331966007e+01   3.8297462864e+01     1.045522    0.4282795  54.37  0.004533052    2.208    0.547
        44 -10.6740    214.0409     22.7734   6.2490438815e+01   2.9384072295e+01    0.5748986    0.3525566 -28.22  0.003041257    1.995    0.499
        45 -10.4851    212.2071     14.4716   6.0819471131e+01   3.0776715237e+01    0.4905851    0.2314339 -41.08  0.002061257    2.076    0.518
        46 -10.8866    247.3861      5.0690   5.5793355793e+01   2.3990046200e+01    0.6652049    0.4300086 -59.35  0.004237761    1.302    0.232
        47 -10.1541    243.5154     12.9145   5.7618672719e+01   2.3916922190e+01    0.3214615    0.2830561  50.58  0.001890926    1.589    0.371
        48 -10.1544    232.3448     19.0464   5.9840082526e+01   2.5643270094e+01    0.7355572    0.3088576 -55.55  0.003393739    2.312    0.567
        49 -10.8684    232.9277     10.8151   5.8087820999e+01   2.6476966261e+01    0.4544264    0.2556154 -54.77  0.001252938    1.598    0.374
        50 -10.6040    244.8408     19.5214   5.8817858362e+01   2.2837831881e+01    0.5146962    0.2469501  82.81  0.002494809    2.034    0.508
        51 -10.1857    239.4036     16.8162   5.8745936173e+01   2.4348455965e+01    0.5272583     0.179158 -48.56   0.00222401    2.565    0.610
        52 -11.0192    202.5578     19.4574   6.3007511132e+01   3.2480122037e+01    0.3688653     0.296962  73.32 0.0005645315    1.135    0.119
        53 -10.7716    101.1076     13.7379   7.8514818811e+01   5.6632192660e+01    0.2766244    0.2225067  56.32 0.0006597125    1.240    0.193
        54  -9.6533    217.9455     13.5000   6.0030562226e+01   2.9558344865e+01    0.3050514    0.2019079  76.03   0.00132597    1.311    0.237
        55 -10.0274    222.0834     11.5614   5.9217117775e+01   2.8829582354e+01     0.422947    0.2522397 -73.06  0.001773654    1.589    0.371
        56  -9.4359    225.5286      9.0148   5.8364422061e+01   2.8333183112e+01    0.2939187    0.1730242  75.10  0.001142103    1.473    0.321
        57  -9.8078    174.2912      8.7762   6.3808454333e+01   4.0374197191e+01    0.2599554    0.1901026 -62.97 0.0007031775    1.438    0.304
        58  -9.6358    190.0842      8.4810   6.1820155450e+01   3.6630681113e+01    0.6989014    0.1793617  56.81  0.002534284    3.258    0.693
        59 -10.6357    180.9730      4.6756   6.1943924311e+01   3.9170539146e+01    0.5005212    0.4119919 -77.67  0.003228908    1.161    0.138
        60 -10.3822    175.9743      4.1949   6.2422743662e+01   4.0405424786e+01     0.435044    0.2569339  75.64 0.0009372866    1.461    0.315
        61 -11.0722    200.3319      6.4145   6.0217822764e+01   3.4417581516e+01    0.6537346    0.4196608 -56.41  0.003327725    1.538    0.350
        62 -10.7867    204.1984      6.8410   5.9918648287e+01   3.3468095810e+01    0.2826213    0.2315865 -88.35 0.0004381706    1.016    0.016
        63 -11.5781    209.1967      3.5164   5.8685311080e+01   3.2647628022e+01     0.615265    0.3300205  84.58  0.001490413    1.678    0.404
        64  -8.6599     81.6901      2.7001   7.9380606946e+01   6.1416638966e+01    0.2209767    0.1663565  16.74  0.001474907    1.212    0.175
        65  -9.7993     77.2019      9.4889   8.3342607413e+01   6.1651595288e+01    0.3583247    0.2023913  45.61 0.0009155601    1.542    0.351
        66  -9.1556     77.5788      4.6760   8.1313155250e+01   6.2013025491e+01    0.3211589    0.1744646  25.14   0.00121039    1.848    0.459
        67 -11.9611     24.4141     33.2437   1.1230043540e+02   6.6044116043e+01    0.8061595    0.2681569 -51.70  0.002659294    4.059    0.754
        68 -10.2640    222.3838      3.0460   5.7392327178e+01   2.9686028310e+01     0.586505    0.2653845  63.27  0.002696561    2.012    0.503
        69  -6.0016     42.8609      4.6664   9.2949658298e+01   6.7611363683e+01    0.2904289    0.2184144  42.85  0.002047517    1.667    0.400
        70  -9.3567    230.3180      2.6972   5.6656280893e+01   2.7950966824e+01    0.2305387    0.1743383  51.45  0.001216169    1.702    0.412
        71 -12.0797    113.3310     22.3250   7.8601838218e+01   5.3201203205e+01    0.6082711    0.5535433 -57.16  0.001765215    1.344    0.256
        72  -9.2555     46.3186      1.3782   9.0157951868e+01   6.7442891865e+01    0.4052663   0.08200344  43.06  0.001548215    4.196    0.762
        73 -10.0005     92.3381    119.9697   1.1416932972e+02   4.0093168925e+01    0.3579904    0.2578413 -31.34  0.001193572    1.591    0.371
        74  -9.0473    183.9783    250.2842   1.1741877252e+02  -4.4216978206e+00    0.1900942    0.1445756  35.94  0.001171351    1.103    0.093
        75  -8.9445    151.6387    250.3061   1.2367314789e+02   1.0422084703e+00    0.1324206   0.08894671  64.24  0.000703925    1.734    0.423
        76  -8.7736    124.8218    250.1478   1.2884218203e+02   5.5916499847e+00    0.1683454     0.144105  31.58 0.0008878594    1.327    0.247
        77 -11.1754     67.1547    123.9256   1.2225527305e+02   4.3049266980e+01     1.081213    0.3367521 -43.89  0.003400106    3.851    0.740
        78  -9.9784     35.7317    109.0857   1.2851826580e+02   5.0159180579e+01    0.3997155    0.2964397  47.99  0.001520845    1.619    0.382
        79  -9.5714     41.9611    118.4489   1.2845885849e+02   4.7385314470e+01    0.1972948    0.1654008 -89.93 0.0004658464    1.274    0.215
        80  -9.0834     38.7150    115.3633   1.2882900780e+02   4.8431665818e+01    0.2513271     0.163747 -89.13   0.00128746    1.938    0.484
        81  -9.8690     14.4594    117.3360   1.3614676482e+02   5.0076504567e+01    0.3738882    0.2118424  11.84  0.002073244    2.442    0.590
        82 -10.8692    100.0831    115.3201   1.1085068608e+02   3.9799089402e+01    0.8449743    0.2965845  47.84   0.00273657    3.360    0.702
        83 -12.3746     26.8420     83.1546   1.2588403766e+02   5.6620489038e+01    0.9047748    0.8305376 -25.93   0.00647635    1.161    0.139
        84  -9.0382     83.9025    113.8509   1.1513896727e+02   4.2899893878e+01    0.3843009     0.180888  21.45  0.001242375    4.061    0.754
        85  -8.7927     45.8668    113.1305   1.2627543721e+02   4.8194073615e+01     0.180652    0.1391588 -39.67 0.0008327474    1.276    0.216
        86 -10.6692     18.9345    184.2336   1.4297309057e+02   3.4353359131e+01    0.2775792    0.1675203  33.20  0.001652846    1.993    0.498
        87  -9.6679    105.6418    109.4042   1.0778283922e+02   4.0099788690e+01    0.3505031    0.3065291  28.84  0.001857269    1.218    0.179
        88 -10.0745     73.9484    107.9828   1.1667900859e+02   4.5768123864e+01    0.4867929    0.3390654  56.72  0.002248293    1.795    0.443
        89  -9.7817     66.4753    109.5056   1.1929101004e+02   4.6486495877e+01    0.2590832    0.2177197 -45.78  0.001039915    1.083    0.077
        90 -10.0032     68.4749    106.0263   1.1786694703e+02   4.6996507015e+01    0.3818716    0.2176186 -33.65  0.001275195    2.053    0.513
        91  -8.7247    120.4775    109.4667   1.0372084043e+02   3.7154528624e+01    0.1513309    0.1480962 -33.73 0.0001969137    1.026    0.025
        92  -9.3345      1.6285    177.7646   1.4597663134e+02   3.7346086951e+01    0.2118704    0.1171437 -88.10  0.001262384    1.455    0.313
        93 -12.0389     98.8699     59.6821   9.5137126177e+01   5.1131031818e+01     1.749436    0.9896455   9.61   0.00618236    3.772    0.735
        94  -9.6081    133.7094    103.1204   9.8549151263e+01   3.5694421451e+01     0.400947    0.2355483 -43.47   0.00136465    1.694    0.410
        95  -9.9683    132.8171    112.0483   1.0115970476e+02   3.3985024453e+01    0.4665743    0.4033759 -56.55  0.001981422    1.166    0.142
        96  -9.6399     75.5923    101.9720   1.1469769033e+02   4.6866073018e+01    0.3610136    0.2444317 -65.98  0.001346298    1.690    0.408
        97  -9.2760    105.9381    102.8644   1.0597251887e+02   4.1475830201e+01    0.2204285    0.2075776 -29.40 0.0005877247    1.048    0.046
        98  -8.5839    140.6218    102.1569   9.6546646776e+01   3.4355645994e+01    0.2261352    0.1459645 -32.32 0.0009499064    1.735    0.424
        99  -9.4020     81.1311    102.1171   1.1305156000e+02   4.5978746731e+01    0.2847929    0.2055845  41.85 0.0008992269    1.500    0.333
       100 -10.0087    116.4010     99.6878   1.0219212631e+02   4.0087640602e+01    0.5161051       0.3542   3.35  0.002103464    2.378    0.580
       101 -10.5534    114.2912     94.5563   1.0134435738e+02   4.1584677116e+01    0.4477998    0.3365142 -61.27   0.00135001    1.525    0.344
       102  -9.4772     63.4796     98.6716   1.1762384080e+02   4.9315296511e+01    0.2762709    0.2410544 -44.56  0.001656667    1.020    0.020
       103  -9.4524    159.4173     97.0616   9.0714014768e+01   3.1026593457e+01    0.3051773    0.2662945  32.62  0.001353465    1.247    0.198
       104  -8.7970     63.2494    168.0049   1.3104412803e+02   3.3004321208e+01    0.2019934    0.1611511 -74.35  0.001008562    1.105    0.095
       105  -8.9208    188.3180     94.1083   8.3917296264e+01   2.4654577754e+01    0.2170901    0.1907412 -54.95 0.0005774664    1.109    0.098
       106  -9.0709     27.2721    167.3004   1.3943005601e+02   3.7402237949e+01    0.2956518     0.144653 -67.27  0.001527328    1.663    0.399
       107  -9.6623    121.1998     91.6184   9.8628196390e+01   4.0752596603e+01    0.2578315    0.2016096 -53.34 0.0007229568    1.344    0.256
       108  -8.6718    194.3483     90.3135   8.1822242031e+01   2.3904318982e+01    0.2293985    0.1846026  14.89  0.001095291    1.712    0.416
       109  -8.3428     69.5153     89.5033   1.1333937201e+02   5.0449069865e+01    0.1374258    0.1228253 -33.12 6.162812e-05    1.011    0.011
       110  -9.6787    153.1462     87.4578   8.9503280582e+01   3.4364360645e+01    0.3179142    0.2515012  45.12 0.0007479832    1.269    0.212
       111  -9.5078    238.4997     86.0082   7.3725752667e+01   1.4478264110e+01    0.2188658    0.1279314 -39.52  0.001034846    1.605    0.377
       112 -10.8299     75.8124     83.4838   1.0965286332e+02   5.0752831503e+01    0.4446836    0.2782873 -43.51  0.002228615    1.477    0.323
       113  -8.8709    186.4170     84.3504   8.1761779418e+01   2.6897816933e+01    0.2893901    0.1846426  62.65  0.001288778    1.596    0.373
       114  -9.8381    217.5946     80.1133   7.5417215269e+01   2.0187328879e+01    0.5941266    0.2842482 -26.34  0.002128762    3.153    0.683
       115  -9.6546    160.3709     81.7980   8.6322497282e+01   3.3685137014e+01    0.3839622    0.3036865  85.20   0.00185841    1.464    0.317
       116 -10.4571    134.0947     80.6838   9.2117253555e+01   4.0044720496e+01    0.5718297    0.4130768 -37.09  0.002755693    1.417    0.294
       117 -10.6229    138.7913     77.6479   9.0075435004e+01   3.9529504647e+01    0.5406614    0.2411255 -38.17  0.002045892    2.309    0.567
       118  -8.9839    188.5094     80.0639   8.0263983879e+01   2.7146028142e+01    0.2254649    0.1452457 -40.23  0.000657866    1.556    0.357
       119  -9.0652     88.8649     78.3860   1.0405617437e+02   4.9617089418e+01    0.2693075    0.2095516  25.65 0.0009415328    1.337    0.252
       120  -9.2775     92.5065     77.4774   1.0266807947e+02   4.9147611913e+01    0.2627145    0.2330093 -55.75   0.00102846    1.258    0.205
       121 -10.7174    150.5887     73.2314   8.6049495735e+01   3.7546224612e+01    0.7056731    0.4867917 -17.27  0.003165854    1.900    0.474
       122 -10.6730    151.7509     66.6910   8.3903957750e+01   3.8372529494e+01    0.4689165    0.2619217  48.12 0.0004372435    1.731    0.422
       123 -11.3725    139.7690     68.4079   8.7114434504e+01   4.0915299124e+01     1.029958    0.4692018  55.36  0.003985474    2.201    0.546
       124  -9.6407    132.0690     67.9996   8.8841741646e+01   4.2750300246e+01      0.41279    0.2309668  50.98  0.001456024    1.725    0.420
       125  -9.5144      9.1602    167.3400   1.4347505623e+02   3.9056044416e+01     0.220632    0.1994049   6.41  0.001079959    1.606    0.378
       126  -9.3205     36.9152     75.7996   1.2060352153e+02   5.7216777890e+01    0.2867431    0.1330328 -40.65  0.001400212    1.902    0.474
       127  -9.0300    192.8787     74.0531   7.7940395606e+01   2.7112199196e+01    0.2361335    0.1887271 -69.53  0.000690827    1.281    0.219
       128  -9.1808    131.9445     73.7154   9.0593200682e+01   4.1789976522e+01    0.1961669    0.1854414  53.91 0.0003865857    1.054    0.051
       129  -9.4342    215.2219     71.5650   7.3738600922e+01   2.2165906393e+01    0.2638379    0.2287209 -24.56 0.0009825533    1.381    0.276
       130 -10.5391    250.3854     66.3737   6.7926495754e+01   1.5104614561e+01    0.5950619    0.1584135 -36.19  0.001981107    3.830    0.739
       131  -8.9368    202.3866     68.2573   7.4903008649e+01   2.5763450905e+01    0.2064698    0.1250045 -48.96 0.0005588143    1.618    0.382
       132 -11.2010    164.8656     62.9840   8.0137057529e+01   3.5794421003e+01    0.6271285    0.5449151  31.12  0.002575498    1.291    0.225
       133 -10.5770    165.4995     56.1927   7.8111369245e+01   3.6690799704e+01    0.4860754    0.4724837  16.02  0.002196569    1.150    0.130
       134  -8.1396    189.6399     65.2716   7.6232597034e+01   2.9345269610e+01    0.1519749    0.1070988 -80.12 0.0006999686    1.651    0.394
       135 -11.0760     67.3161     62.1559   1.0597107843e+02   5.6093561712e+01    0.3263054    0.2626681 -14.83  0.000794443    1.163    0.140
       136  -9.2603    185.8059     61.0693   7.5788029660e+01   3.0949595373e+01     0.236726    0.1838674  83.53            0    1.307    0.235
       137 -10.1527    178.8318     58.8470   7.6404141167e+01   3.3009325824e+01     1.030247    0.5418102 -17.28  0.003668144    3.465    0.711
       138 -10.5239    173.9937     57.2549   7.6834783879e+01   3.4443640166e+01    0.3962938    0.2809717 -23.02 0.0005610816    1.713    0.416
       139 -11.0150    178.2006     51.3122   7.4491903547e+01   3.4289893874e+01    0.4723551    0.3701059  41.10  0.001012085    1.425    0.298
       140 -10.3043    221.5249     57.7398   6.9600041638e+01   2.2868361259e+01     0.445822    0.3819679  40.57  0.001777507    1.484    0.326
       141  -9.1319    202.3145     55.6888   7.1797973491e+01   2.7742548738e+01    0.2422173    0.1754083  71.12 0.0007869386    1.313    0.238
       142 -11.0462    150.8799     52.9396   8.0069025939e+01   4.0725331701e+01    0.6695392    0.5419247 -58.64  0.003590628    1.364    0.267
       143 -11.4075    139.9710     51.8329   8.2067996006e+01   4.3476517794e+01    0.8920751    0.3346728  49.14  0.002681697    2.446    0.591
       144  -8.9575    158.4312     58.8616   8.0249451884e+01   3.8008591164e+01    0.3045334    0.1660084  43.42 0.0009331629    1.947    0.486
       145  -9.2432      3.0664     57.4568   1.2830607834e+02   6.3377849051e+01    0.4497285    0.2432911 -61.49  0.002722021    1.687    0.407
       146  -9.0575     10.5159     51.9953   1.2398773048e+02   6.3947657987e+01     0.176799    0.1705971   2.20 0.0008093544    1.374    0.272
       147  -9.5176      7.0247     48.8939   1.2451246449e+02   6.4733254651e+01    0.2901824    0.1757404 -36.32  0.001282638    1.284    0.221
       148  -9.0277    152.7336     45.9969   7.7654806722e+01   4.1268360580e+01    0.2124709    0.1838095  33.57 0.0004781516    1.231    0.188
       149  -9.1490    235.9634     54.9909   6.7169864658e+01   1.9984249117e+01    0.1664981    0.1412496 -76.45 0.0008182145    1.022    0.022
       150 -10.8183    192.8390     53.7596   7.2752405196e+01   3.0335288659e+01     0.459686    0.2583522  68.33 0.0003202154    1.748    0.428
       151  -9.8394    188.7517     49.5724   7.2315726889e+01   3.1946940411e+01    0.3844847    0.3067521  10.12  0.002001903    1.792    0.442
       152 -12.6860     18.1859     60.0874   1.2323952688e+02   6.1904526830e+01    0.8542243      0.55746  -5.76 0.0008630392    1.675    0.403
       153 -10.3248    158.6991     50.6826   7.7850686385e+01   3.9163203539e+01    0.4878339    0.3742837  88.85  0.001705691    1.472    0.321
       154  -8.6407    211.5194     51.9752   6.9589368121e+01   2.6084763367e+01    0.1847302    0.1274694  -1.69 0.0008101203    2.696    0.629
       155  -9.5182    171.2303     49.0495   7.5080905334e+01   3.6330062245e+01    0.2799474    0.1882928 -26.15 0.0007233116    1.746    0.427
       156 -12.7309     47.6295     88.2240   1.2013425853e+02   5.3519192287e+01     2.099634     1.534567 -14.75   0.01208756    1.549    0.354
       157  -9.7804    200.4922     58.9874   7.2890248097e+01   2.7683250450e+01    0.3731328    0.2738169  53.73   0.00147397    1.406    0.289
       158  -9.6612    129.8472     46.2466   8.2624967187e+01   4.6611075671e+01    0.2692399    0.2483912 -11.24 0.0008000975    1.150    0.131
       159  -8.8335    125.7439     47.6191   8.4028912301e+01   4.7344709008e+01    0.1829142    0.1615947  83.79 0.0004187133    1.312    0.238
       160  -9.1096    221.4693     46.2803   6.6971756922e+01   2.4563897400e+01    0.2744312    0.1877929  61.63   0.00147953    1.461    0.316
       161  -8.5668    220.0230     42.4895   6.6282579633e+01   2.5432717591e+01    0.1778042    0.1695102 -54.62 0.0007078726    1.244    0.196
       162  -9.7339    207.8204     42.1198   6.7732133571e+01   2.8367529279e+01     0.645081    0.4295914 -20.00  0.001936486    2.083    0.520
       163  -9.3493    190.8783     40.9169   6.9777035657e+01   3.2629568471e+01    0.3465038    0.2086088 -20.33  0.001582736    2.298    0.565
       164  -9.5197    192.5751     36.2612   6.8358691943e+01   3.2831084030e+01    0.2818383    0.2219337  83.61   0.00160044    1.157    0.135
       165 -10.4171    216.4204     35.2866   6.5066045504e+01   2.7249805284e+01    0.5681593    0.2578189  72.41  0.002229838    2.144    0.534
       166 -10.3025    210.5294     33.1913   6.5283934563e+01   2.8912200857e+01    0.3581352    0.2825323 -45.87   0.00127719    1.306    0.235
       167 -10.3675     14.2504    165.5071   1.4217407527e+02   3.9036294896e+01    0.3155726    0.2343239  80.85  0.001484157    1.193    0.162
       168 -10.2559    201.2424     32.5048   6.6274705630e+01   3.1217177177e+01    0.5219133     0.338749  84.96  0.001547246    1.501    0.334
       169 -10.1613    105.9596     44.4814   8.8047388764e+01   5.2036368688e+01    0.4075769    0.3411784  30.54  0.002406966    1.102    0.093
       170 -10.6554     67.0604     43.5933   9.9721185425e+01   5.9188628055e+01    0.3571598    0.1994753 -34.70  0.000883177    1.713    0.416
       171 -10.0177    232.4909     43.7229   6.5103165834e+01   2.2395422909e+01    0.2269752    0.2258549   9.50 0.0009343842    1.357    0.263
       172  -9.4226    228.5222     44.4538   6.5717740467e+01   2.3194972283e+01    0.2172233    0.1550229  89.00 1.917198e-05    1.319    0.242
       173  -8.6646    212.1846     45.5833   6.7984669101e+01   2.6845837567e+01    0.2060589    0.1931953 -37.94 0.0005373474    1.273    0.214
       174  -8.9892    214.5936     42.2918   6.6905366057e+01   2.6734467486e+01    0.2461419    0.1786601 -31.23  0.001079193    1.596    0.373
       175 -10.3620    135.3353     33.3353   7.7346366988e+01   4.7025559131e+01    0.6617996    0.3048634  39.56  0.001968138    2.424    0.587
       176 -10.1639      2.5463    161.3789   1.4436316011e+02   4.0932180096e+01    0.3687749    0.1825684 -72.42  0.001488819    1.535    0.349
       177  -9.9254    130.3155     40.2548   8.0618012152e+01   4.7312053116e+01    0.2889353    0.2417399 -38.93   0.00127008    1.309    0.236
       178 -10.5052    148.1459     34.9214   7.5269766542e+01   4.3815558345e+01    0.6264474    0.3059477  58.20  0.002799834    1.811    0.448
       179 -10.4319     16.7623    158.9790   1.4091841175e+02   4.0314487538e+01    0.3502902    0.2644907 -26.62  0.002201403    1.924    0.480
       180  -9.9146    159.5557     24.7028   7.0274398661e+01   4.2270895980e+01    0.3157267    0.2369314  64.59 0.0006799804    1.168    0.144
       181  -9.3423     10.0306    157.7545   1.4233312896e+02   4.1164391441e+01    0.2840411    0.1060423 -57.88  0.001112299    2.259    0.557
       182  -9.9211     77.0905    156.0940   1.2568836417e+02   3.3894824560e+01    0.4871573     0.273123  69.90  0.001944856    2.647    0.622
       183 -11.3111    140.4582     42.3377   7.9059103136e+01   4.4687623785e+01     1.045292    0.5010608  70.09  0.003967776    2.801    0.643
       184  -9.4042    142.6869     38.9134   7.7550978994e+01   4.4610158227e+01    0.2697667     0.217255  62.87  0.001013779    1.163    0.140
       185  -9.9520     32.7792    155.2768   1.3667782798e+02   3.9660517910e+01    0.2735757    0.1579766  74.52  0.001371838    2.016    0.504
       186 -12.0832     19.7038    148.2859   1.3898480456e+02   4.2532848174e+01    0.7215499     0.459805 -48.87  0.003048676    1.631    0.387
       187  -9.5662     14.5502    144.4888   1.3978657097e+02   4.3844987699e+01    0.2514552    0.1409298 -54.37  0.001114729    1.621    0.383
       188 -10.0965     34.5489    150.3087   1.3558000827e+02   4.0652086784e+01    0.2545597     0.194867 -84.68  0.001024128    1.154    0.133
       189 -11.2883     38.9527    146.0745   1.3386653604e+02   4.1195447633e+01    0.5577104    0.3169814 -68.66  0.002757418    1.491    0.330
       190  -9.5401    156.9834     44.1532   7.6298088267e+01   4.0492810538e+01    0.2123738    0.1752937  39.76   0.00041148    1.264    0.209
       191 -10.0836    109.8074     37.4126   8.4623816393e+01   5.2186473441e+01    0.3817847    0.2910177 -41.36 0.0008689643    1.491    0.329
       192  -9.6467      1.4226    143.9758   1.4290000835e+02   4.4944878070e+01    0.4742116    0.1329168 -71.94  0.002010382    2.702    0.630
       193  -9.6651      5.1650    147.0480   1.4233910964e+02   4.3981848354e+01    0.3013038    0.1392863 -64.67  0.001541407    1.654    0.395
       194 -10.3354      6.9195    143.1756   1.4149452485e+02   4.4735347955e+01    0.4027317     0.242861  58.92  0.002022439    1.847    0.458
       195 -10.4909      4.1995    136.2130   1.4136702948e+02   4.6512942180e+01    0.4323324    0.3369136  88.62   0.00273692    1.185    0.156
       196 -10.0376      9.0859    134.9165   1.3998526810e+02   4.6462944461e+01    0.2800578    0.2175509   1.76  0.000461228    1.796    0.443
       197 -10.9213     15.3935    132.2088   1.3801442578e+02   4.6608724472e+01    0.4481668    0.2743892 -68.43  0.001642742    1.284    0.221
       198 -11.2418     12.3106    129.9743   1.3852200145e+02   4.7356040884e+01    0.7395784    0.2252961 -66.07  0.002161552    2.416    0.586
       199  -9.0730     61.0799    147.1625   1.2829673838e+02   3.8308045248e+01     0.207052    0.1717823 -43.17 0.0005608908    1.322    0.243
       200 -11.5694     83.0018     32.0661   9.0276660878e+01   5.8120464970e+01    0.6119154    0.3777792  30.02 0.0007032888    1.557    0.358
       201  -9.9957     66.7300    148.3543   1.2702181493e+02   3.7259301528e+01    0.2695674    0.2400014  82.36  0.001251836    1.106    0.096
       202  -9.1761     31.9148    141.1701   1.3496670523e+02   4.3072611319e+01    0.1931167    0.1517468  85.88 0.0004735916    1.242    0.195
       203  -9.1993    246.5258    140.4954   8.4524439829e+01   3.1995209707e+00    0.1397827    0.1246733 -39.09 0.0001605836    1.015    0.015
       204  -9.1205     80.9034    139.6861   1.2163269859e+02   3.7278510861e+01     0.253907    0.1776323 -49.77 0.0005488804    1.371    0.271
       205  -8.3371      1.4346     44.2566   1.2548149441e+02   6.5889024190e+01    0.1170862   0.05918861 -27.60 0.0002136437    1.795    0.443
       206 -10.5632    162.6317     40.6238   7.4252825873e+01   3.9589899275e+01    0.5725709    0.3768636 -56.66  0.001590294    1.743    0.426
       207  -9.7047    196.8493     41.7688   6.9135799662e+01   3.1060248733e+01    0.2441597      0.19443 -63.90  0.000525531    1.219    0.179
       208 -10.3003    179.9704     37.7667   7.0596898592e+01   3.5716072832e+01    0.4778201    0.3303259 -50.44  0.002512103    1.503    0.335
       209 -10.0590    182.1605     34.7711   6.9478535974e+01   3.5563914703e+01    0.2700195    0.2208978  22.78 0.0003714266    1.606    0.377
       210  -9.4342     76.9208     41.2835   9.5581139045e+01   5.7936459415e+01     0.213572     0.175918 -46.73 0.0006939076    1.519    0.342
       211  -8.7727     62.0173     40.7422   1.0044961386e+02   6.0375979558e+01     0.173601    0.1350857  23.71 0.0005256648    1.228    0.186
       212 -10.5329    170.0625     37.3988   7.2079902458e+01   3.8192039207e+01    0.5122396    0.3230816  84.88  0.001386314    1.822    0.451
       213  -8.7145    125.6257     27.8920   7.7683192253e+01   4.9881427132e+01    0.1998248    0.1545119 -49.83 0.0004337113    1.540    0.351
       214  -9.9496    124.7771     37.3021   8.0931682113e+01   4.8944479824e+01    0.3329403    0.2802665   3.87  0.001944137    1.294    0.227
       215  -9.7702    125.5230     32.7292   7.9277459529e+01   4.9340825977e+01    0.3517962    0.2339644   2.53  0.001181919    2.000    0.500
       216 -10.0765     54.7077    138.0397   1.2842517094e+02   4.1310038124e+01    0.3139029    0.2189676 -63.53  0.001090265    1.245    0.197
       217 -10.5262    246.6833     33.0304   6.1374908454e+01   2.0714780943e+01    0.4604764    0.2195195  57.18  0.001096908    2.305    0.566
       218 -11.0350    236.7237     32.5558   6.2251776277e+01   2.2963133830e+01    0.5085449    0.3499162  58.03  0.002934474    1.614    0.381
       219  -9.5355    242.5955     31.1526   6.1380844186e+01   2.1851316995e+01    0.2144246    0.1865898 -55.01 0.0006027768    1.237    0.192
       220 -10.1011    194.4204     31.2213   6.6850614284e+01   3.3024697582e+01    0.3396239    0.2694997  15.56  0.001213967    1.840    0.457
       221  -9.0820    155.0302     33.4606   7.3562113418e+01   4.2341978263e+01    0.2436108      0.19124   8.59 0.0006524491    1.630    0.386
       222 -10.6795    226.8468     28.7607   6.2452805389e+01   2.5682591174e+01    0.5180349    0.2650169 -55.29  0.001532869    1.864    0.463
       223  -9.5261    178.8519     14.9481   6.4805612430e+01   3.8657887107e+01    0.2405253     0.159901  59.46 0.0004141612    1.354    0.261
       224  -9.5134     48.1307    138.0452   1.3019931235e+02   4.2091513369e+01    0.3748372    0.2049233  54.11  0.001768909    2.213    0.548
       225  -9.7715    177.4929     31.5022   6.9317539716e+01   3.7112373595e+01    0.2816601    0.2329699  76.74 0.0007901778    1.077    0.071
       226 -10.5707     21.8085    138.3363   1.3717837292e+02   4.4664378630e+01    0.3432678    0.2089528 -43.56  0.001520312    1.790    0.441
       227 -11.6028     25.0367    128.9089   1.3498141195e+02   4.6575894127e+01    0.5927947    0.4434629 -19.90  0.001483506    1.759    0.431
       228  -8.5004    201.2232     25.9210   6.4695724604e+01   3.2037642927e+01    0.1588651    0.1044149 -39.92 0.0005780947    1.592    0.372
       229 -10.1843     50.8053     25.3901   9.8682298708e+01   6.4116779728e+01    0.5493602    0.1678386  35.25  0.002320318    3.271    0.694
       230  -9.7499     28.0374    120.9210   1.3289088726e+02   4.8160390973e+01    0.4322719     0.205644 -73.54  0.001117233    2.088    0.521
       231  -9.2504    209.9272     18.6976   6.2012333484e+01   3.0827939366e+01    0.2313644    0.1915613  87.10 0.0003915717    1.042    0.040
       232  -9.4567     45.6211    132.3745   1.2992145895e+02   4.3723346471e+01    0.2729566    0.1966464 -51.96  0.001553023    1.272    0.214
       233  -8.9886    193.3586     24.4490   6.5317875110e+01   3.4102209639e+01    0.2332956    0.1567113  22.70  0.001125053    2.483    0.597
       234 -10.6855     47.1538    127.8938   1.2870918887e+02   4.4611077309e+01    0.2974254    0.2200173  55.31  0.001688118    1.548    0.354
       235 -11.0716     56.1457    127.5334   1.2611089823e+02   4.3634512869e+01    0.6483825    0.2922741 -50.62  0.002219174    1.975    0.494
       236  -9.5426     67.9510    115.4472   1.2019769330e+02   4.4919565054e+01    0.2465799    0.1877965  52.48 0.0004952535    1.508    0.337
       237  -9.3946     64.1251    114.1554   1.2104519616e+02   4.5739331412e+01    0.2570774    0.1975319  34.17 0.0007461867    1.452    0.311
       238 -10.6239     72.2644    128.9866   1.2185197618e+02   4.1131055265e+01    0.3395265    0.2792835  32.79   0.00122101    1.363    0.266
       239 -10.1352     74.6757    125.0132   1.2033540984e+02   4.1720825326e+01    0.2575046    0.2388908  86.76 0.0007539573    1.125    0.111
       240  -9.3719     98.6444     22.3515   8.2249279458e+01   5.6263916498e+01    0.2253499    0.1694788  45.81 0.0006339333    1.196    0.164
       241  -9.1270     35.4825    130.0627   1.3231692780e+02   4.5334606550e+01    0.1974068    0.1080959 -64.46 0.0006147686    1.514    0.340
       242  -9.6821    197.6529     16.8192   6.2949005249e+01   3.3944711701e+01    0.3631666    0.1915753  70.00  0.001450423    1.644    0.392
       243  -9.5158     38.7426    127.2064   1.3094095769e+02   4.5676248037e+01      0.18228    0.1348848 -42.04   0.00105339    1.393    0.282
       244  -9.8647     17.3687    122.3676   1.3609426676e+02   4.8713134580e+01    0.3745833    0.2104592 -84.53  0.001459478    1.894    0.472
       245  -8.9589     20.0019    119.5156   1.3492784271e+02   4.9158446387e+01    0.2412384    0.1522607 -48.43 0.0009106169    1.441    0.306
       246 -10.4430     47.4587    120.9907   1.2734537249e+02   4.6197120843e+01      0.26053    0.2231274  84.10 0.0008602228    1.268    0.211
       247 -10.4039    178.7513     26.9836   6.7941794528e+01   3.7347267807e+01    0.4896784    0.2247522  47.14  0.001768968    2.385    0.581
       248  -8.4027      3.5985    246.1791   1.5007120310e+02   2.3018692250e+01    0.1410994   0.07718818 -73.88 0.0009448917    1.681    0.405
       249 -10.0194    142.0331    243.5244   1.2462220236e+02   3.8528862976e+00    0.3018208    0.2115543  19.67  0.001164869    1.911    0.477
       250  -9.8613     37.4225    242.4340   1.4424469188e+02   1.9943265132e+01    0.2538339     0.130978 -48.69    0.0012424    3.564    0.719
       251 -13.1533     14.2014    105.3341   1.3430354718e+02   5.2786303312e+01     2.141854    0.9465843 -39.21   0.01046173    2.407    0.585
       252  -8.8728    211.0067    241.0253   1.1078560565e+02  -7.4798488068e+00    0.1514771    0.1314893   9.60 0.0006875865    1.067    0.063
       253  -9.4826    113.5033    238.9639   1.2966739916e+02   9.5342395490e+00    0.1843659    0.1258168 -65.15  0.001041538    1.616    0.381
       254  -9.8251     14.1193    236.9568   1.4784365211e+02   2.3694496999e+01    0.3749614    0.1207608 -65.24  0.001292042    2.896    0.655
       255 -11.8427     26.3396     52.3889   1.1788928888e+02   6.2660918726e+01    0.5140441    0.2474928 -24.61   0.00227773    2.391    0.582
       256  -9.2177     12.8189    232.6079   1.4779294044e+02   2.4691633947e+01     0.253653    0.1157229  63.36  0.001468743    1.835    0.455
       257  -8.7661     52.3112    224.3439   1.4003384361e+02   2.1718170639e+01    0.1103202     0.092421 -49.37 0.0007045825    1.703    0.413
       258  -8.7061     40.6526    221.6800   1.4200924915e+02   2.3759317872e+01    0.1077605   0.09022486 -49.35 0.0007049032    1.734    0.423
       259 -11.5709     37.8235     29.2032   1.0525263414e+02   6.5246036337e+01    0.4821893    0.3010238 -36.02  0.001718732    1.493    0.330
       260  -7.9951    244.4616    204.5177   9.7998165950e+01  -7.3328388934e+00    0.1308212    0.1101617  -3.58 2.059655e-06    1.039    0.038
       261  -8.9914     10.1733    192.1798   1.4542501943e+02   3.3425357402e+01    0.1702384    0.1091237  73.25  0.001084569    1.334    0.250
       262  -9.5161    241.3863     23.8699   6.0001306337e+01   2.3049813387e+01     0.264007    0.1542016 -66.62 0.0005265608    1.574    0.364
       263 -10.9509      6.1589    185.7760   1.4570815809e+02   3.5194490975e+01    0.4551329    0.1542975  53.17  0.002127562    2.959    0.662
