#   1 NUMBER                 Running object number                                     
#   2 MAG_AUTO               Kron-like elliptical aperture magnitude                    [mag]
#   3 X_IMAGE                Object position along x                                    [pixel]
#   4 Y_IMAGE                Object position along y                                    [pixel]
#   5 X_WORLD                Barycenter position along world x axis                     [deg]
#   6 Y_WORLD                Barycenter position along world y axis                     [deg]
#   7 A_WORLD                Profile RMS along major axis (world units)                 [deg]
#   8 B_WORLD                Profile RMS along minor axis (world units)                 [deg]
#   9 THETA_WORLD            Position angle (CCW/world-x)                               [deg]
#  10 FWHM_WORLD             FWHM assuming a gaussian core                              [deg]
#  11 ELONGATION             A_IMAGE/B_IMAGE                                           
#  12 ELLIPTICITY            1 - B_IMAGE/A_IMAGE                                       
         1 -12.3541    183.9668     59.5333   2.3940004241e+01   3.1852702441e+01     1.996356     0.889913  71.31  0.007669185    2.696    0.629
         2 -12.0507    199.0959     53.8645   2.0330524102e+01   2.9176170875e+01     1.920129    0.8927339 -70.77   0.00648637    4.096    0.756
         3 -11.6658    213.4399     31.6323   1.3663872365e+01   2.8945708981e+01     1.196995    0.6201617  85.98 0.0007782473    2.005    0.501
         4 -11.0440    191.8723     53.4089   2.1248903538e+01   3.0906610414e+01     1.166409    0.4597528 -58.20  0.003938924    3.879    0.742
         5  -9.4426    215.4649      5.7702   8.1982977945e+00   3.1459378120e+01    0.3606628    0.3264951   5.32  0.001716226    1.770    0.435
         6 -11.5409    225.6171     16.9433   9.5250833305e+00   2.8087207666e+01     1.007314    0.4887832 -68.64  0.005241751    2.066    0.516
         7 -13.1189    242.3123      6.4816   6.2917852743e+00   2.5851540464e+01     1.142952    0.8515552 -88.63  0.008368286    1.132    0.117
         8 -11.1943    119.1523      9.3268   2.1367446484e+01   5.2898682265e+01    0.5996487    0.4888793  44.09  0.003010113    1.129    0.114
         9  -9.9210    105.5021      7.5596   2.3572393393e+01   5.6028948964e+01    0.3702101    0.1732731 -15.94  0.001826843    2.733    0.634
        10 -10.6469    101.4481      2.8526   2.2856034048e+01   5.7254299853e+01    0.5933394    0.1737329  60.44   0.00244992    2.757    0.637
        11  -9.8522     97.0724      8.4324   2.5775784715e+01   5.7744799672e+01    0.1942907    0.1759334 -19.23 0.0003824406    1.326    0.246
        12  -9.5924    172.6781      3.4664   1.1844593020e+01   4.1177299949e+01    0.5158717    0.2592355 -64.83  0.002566855    2.356    0.576
        13  -9.8014    178.6514      4.9008   1.1517226673e+01   3.9686855923e+01    0.4203272     0.209103 -59.62  0.002143742    2.233    0.552
        14 -10.9349    221.9731     39.7495   1.4450145644e+01   2.6042172570e+01    0.5234035    0.3804118  44.68 0.0008833332    1.920    0.479
        15  -9.1265     56.0413    238.8668   9.1253871073e+01   1.6769473290e+01    0.4247456     0.266705 -37.52  0.002086728    2.751    0.636
        16  -8.2577     56.7696    243.6001   9.1541870426e+01   1.5664350417e+01    0.2436977    0.1505578  71.34  0.001209823    1.559    0.358
        17  -7.7447     57.5589    250.5442   9.2005641223e+01   1.4113639680e+01     0.200481    0.1214471  68.73 0.0005121059    1.561    0.359
        18  -8.6955     56.2539    247.7533   9.2019474987e+01   1.4862827423e+01    0.2506845    0.2041418 -23.91  0.001516584    2.017    0.504
        19 -12.0932     38.6240    242.2689   9.5058204323e+01   1.8246547966e+01     1.696925    0.7053398 -78.82  0.006653836    2.429    0.588
        20 -12.2043     34.9117    193.5602   9.1399614219e+01   2.9811395083e+01     1.502673    0.5616468  32.12  0.006382413    2.789    0.641
        21 -13.4599     47.1824    185.6514   8.7523694544e+01   3.0342506622e+01     2.801359     1.581377 -86.29   0.01293707    1.901    0.474
        22 -11.3785     30.9127    249.0459   9.7048106881e+01   1.7748219161e+01    0.6341029    0.2895064  49.90  0.003437572    1.805    0.446
        23  -7.4545     85.6866    203.3163   8.0404175051e+01   2.0658056005e+01    0.1511288    0.1025483  69.54 0.0007035319    1.643    0.391
        24  -9.1050    191.5211    192.0455   5.3248546069e+01   4.2861073795e+00    0.5666533    0.3057062 -66.96  0.001641276    5.241    0.809
        25  -9.8346    125.4550    193.5498   6.8975672925e+01   1.6261247340e+01    0.3741785    0.2961972  69.30  0.001825534    1.445    0.308
        26  -7.9878    124.3152    206.3184   7.1480634731e+01   1.3501493645e+01    0.1475211    0.1167837 -11.60 0.0003104916    1.652    0.395
        27  -7.8533    131.0238    191.4688   6.7214512742e+01   1.5729402855e+01    0.2275649    0.1465778  38.95 0.0003859884    1.512    0.339
        28  -8.0692     97.4151    190.8134   7.5557869808e+01   2.1817890233e+01    0.2171844    0.1323146 -48.47  0.000824653    1.721    0.419
        29  -8.2018     66.7919    190.1167   8.3210418493e+01   2.6680560956e+01    0.2075278    0.1710859  77.20 0.0002935491    1.165    0.142
        30  -7.5940    242.4958    185.5684   4.1966840039e+01  -3.0809342914e+00    0.1347136    0.1125166 -20.52 0.0001291892    1.037    0.036
        31  -9.2454     22.2872    182.4714   9.3237076664e+01   3.3815979333e+01    0.3114984    0.1846646  79.88  0.001334655    1.700    0.412
        32 -10.4695     25.2079    177.7850   9.2037553221e+01   3.4683275636e+01    0.6065378    0.2960852 -78.44  0.002846908    1.868    0.465
        33 -10.3056     20.2077    172.3771   9.2686458279e+01   3.6485339655e+01    0.4906219    0.2900861  83.98  0.001765144    1.712    0.416
        34  -9.4079     16.5632    169.7356   9.3309533485e+01   3.7457720049e+01    0.2796912    0.1939642 -80.46  0.001502119    1.206    0.171
        35  -9.6897     30.6263    181.0640   9.1069939111e+01   3.3331402611e+01    0.2617062    0.2025826 -55.77 0.0007653949    1.327    0.246
        36  -9.6878     69.3700    178.6930   8.0880807333e+01   2.9185621080e+01    0.3575094    0.2830645   1.88  0.000514835    1.705    0.414
        37  -8.6778     90.2734    174.5775   7.4653776753e+01   2.7043827215e+01    0.2912147     0.137611  40.29  0.001132649    2.102    0.524
        38  -9.1723     11.1743    173.2349   9.4984017207e+01   3.7058123223e+01    0.3363243    0.1744733 -89.62  0.001662443    1.853    0.460
        39 -11.7575     52.1511    227.6944   9.1005057573e+01   1.9730472173e+01     1.027817    0.7494534  76.65  0.004745853    1.230    0.187
        40  -7.7759    213.1893    171.7516   4.4609313075e+01   4.4218377444e+00     0.187878    0.1558985 -11.09 0.0006475271    1.248    0.199
        41  -9.4965     61.1439    169.5642   8.1664760542e+01   3.2637494260e+01    0.2721673    0.2587963 -14.33 0.0005672508    1.238    0.192
        42 -10.4971     66.7858    164.3704   7.9291229552e+01   3.3198637661e+01    0.5181685    0.3391317 -33.59  0.001484141    1.944    0.486
        43  -8.4982    110.9174    168.0961   6.7900136866e+01   2.5112858807e+01    0.2328761    0.2242946  83.90 0.0004617176    1.030    0.029
        44 -13.5133     30.9574    209.1472   9.3831225493e+01   2.6531078750e+01     3.315589     1.429508  62.14    0.0143377    2.603    0.616
        45 -11.2501     83.6806    150.6688   7.2001291612e+01   3.4190871581e+01     0.625553    0.4617938 -17.91  0.001770659    1.796    0.443
        46 -11.5867     80.6732    161.8407   7.4990508848e+01   3.1809715604e+01    0.8989536    0.5481926  56.47  0.003855307    1.935    0.483
        47 -11.5097     77.2640    156.3061   7.4929203538e+01   3.3746151710e+01    0.7195834    0.5541142 -28.30  0.002550412    1.549    0.355
        48  -9.5524      2.5052    152.6074   9.5075561006e+01   4.2718915366e+01     1.359866    0.2272461  46.32  0.003227525   10.598    0.906
        49  -9.0529      8.4493    165.7965   9.4916416925e+01   3.9085371938e+01    0.2255614    0.1864267 -82.51 0.0003235566    1.034    0.033
        50  -9.1835     11.4736    161.5110   9.3714705995e+01   3.9896088388e+01    0.4482953    0.2487633 -18.81   0.00207351    3.092    0.677
        51  -9.3365     34.6603    162.4467   8.7766443785e+01   3.7566209154e+01    0.3682391    0.2177829 -89.59  0.001658152    1.836    0.455
        52  -9.0664     22.4594    157.4660   9.0386387297e+01   3.9979261430e+01    0.4680181    0.1860427 -38.24  0.001672649    3.983    0.749
        53  -9.7444    246.1226    158.4018   3.5919823065e+01   1.2430872485e+00     0.312778    0.1997165 -12.04  0.001451781    2.282    0.562
        54  -8.9796     20.3649    162.1638   9.1501909904e+01   3.8996116489e+01    0.2375125    0.1393394 -75.69  0.001235117    1.456    0.313
        55  -8.3129     42.0790    155.8119   8.4803781424e+01   3.8457398184e+01    0.2097583    0.1715119  79.66 0.0004867818    1.252    0.202
        56 -10.5503    239.0325    152.5390   3.5897932967e+01   3.5237826399e+00    0.4230988    0.3626047 -32.82  0.001804004    1.047    0.045
        57 -12.3369     68.7896    144.6413   7.5174165230e+01   3.7963029508e+01     1.030108    0.7893556 -81.35  0.003104472    1.423    0.297
        58  -9.2742    139.6779    148.8903   5.6145163769e+01   2.4196136339e+01    0.3841039    0.2820627 -33.40  0.001142285    1.484    0.326
        59 -10.2209     96.1987    147.0589   6.7644352326e+01   3.3022608562e+01     0.575111    0.2402871 -60.52   0.00192486    2.684    0.627
        60 -12.8490      9.7132    208.6517   9.8313794076e+01   2.8809448810e+01     1.345944    0.8709627  87.88  0.008252548    1.268    0.211
        61  -9.6222     54.0726    149.6447   8.0405702916e+01   3.8632847123e+01    0.2866451      0.23244 -83.35  0.001554522    1.235    0.190
        62 -10.8686     63.7360    151.7703   7.7980201725e+01   3.6842819489e+01    0.4850042    0.3349476 -29.97 0.0009938556    1.790    0.441
        63  -9.5416    133.8053    145.7592   5.6949125827e+01   2.6152926863e+01     1.204188    0.3214016 -55.74  0.002501576    6.684    0.850
        64  -9.7291      5.4586    145.2280   9.3491738943e+01   4.4312565423e+01    0.3369376    0.1777151 -57.63  0.001791861    1.563    0.360
        65  -8.4412     11.7977    144.1807   9.1635914078e+01   4.4124748820e+01    0.2571651   0.07434108  29.53  0.001029559    3.569    0.720
        66  -8.9672     17.2649    142.4630   8.9888779121e+01   4.4133672013e+01    0.1948072    0.1590488  66.04 0.0008358076    1.340    0.254
        67  -7.6891     83.3682    142.2669   7.0369926551e+01   3.6370047851e+01    0.1534713     0.116853 -16.60 0.0006991236    1.659    0.397
        68  -9.1549     99.4690    137.2094   6.4512744427e+01   3.4901528707e+01     0.382125    0.2308865  13.89  0.001403605    2.632    0.620
        69  -9.9486     86.1868    136.4381   6.8272329444e+01   3.7375842265e+01    0.3164909    0.2779758 -37.15 0.0003617986    1.137    0.121
        70 -10.7514     60.4031    134.2286   7.5664220064e+01   4.1734215900e+01    0.4645177    0.3075593  52.60  0.001116598    1.797    0.444
        71 -10.0230      7.4767    124.4930   9.0291489312e+01   4.9195864945e+01    0.4691629     0.230977  38.84  0.002364291    2.420    0.587
        72 -11.4270      2.2358    133.1017   9.2951323935e+01   4.7448656828e+01     1.552498    0.2471938 -67.77  0.005109215    3.917    0.745
        73  -8.7597     24.9145    135.4456   8.6676262224e+01   4.5242774329e+01    0.2937977    0.1669019 -72.03 0.0003986126    1.584    0.368
        74  -9.1271    238.8691    131.7702   3.1606484590e+01   7.4198969191e+00    0.2692757    0.1573208 -60.27 0.0009844512    2.056    0.514
        75  -7.7889    118.4923    132.5742   5.7966300425e+01   3.2415668039e+01    0.1557093    0.1544472 -34.64 2.297981e-05    1.011    0.011
        76 -10.2099    245.7410    128.0060   2.9771052730e+01   6.8610561032e+00    0.3071567    0.2783967 -34.48  0.001869575    1.134    0.118
        77  -8.0279    223.5112    129.0446   3.3535009900e+01   1.0852496784e+01    0.2194412    0.1284847 -42.46 0.0004276283    1.530    0.346
        78  -8.8860    135.6694    126.5390   5.1803021268e+01   3.0266199535e+01     0.395735    0.1462884 -50.52  0.001121279    2.864    0.651
        79  -7.9378     96.0730    124.7340   6.2569747447e+01   3.8549868113e+01    0.2113821     0.195185  20.72 0.0003423432    1.124    0.110
        80  -9.1029     58.1428    125.1580   7.4514384488e+01   4.4279926695e+01    0.2206658     0.179077 -32.10 0.0003837162    1.250    0.200
        81  -7.3118    202.0253    125.0000   3.6473245877e+01   1.6039599563e+01    0.2309276   0.08595925  49.80  0.000467058    2.873    0.652
        82 -10.2075     46.7127    122.4673   7.7625515592e+01   4.6309302644e+01     0.301619    0.2773233  71.31 -2.424584e-07    1.240    0.193
        83  -8.4239    230.3354    117.1277   2.9842949628e+01   1.1752756774e+01    0.3845234   0.09362658 -48.30  0.001095986    4.306    0.768
        84  -9.3498      2.3135    114.0640   9.0389293679e+01   5.1967584053e+01    0.1874219    0.1344709 -64.11  0.001164791    1.106    0.096
        85  -8.6188    207.8997    110.9397   3.2176009886e+01   1.7528690960e+01     0.444032    0.2122852 -31.02  0.001630355    2.728    0.633
        86  -9.2804    236.9968    108.7476   2.7054192596e+01   1.1972657420e+01    0.3510402    0.1541736 -54.35  0.001403362    2.447    0.591
        87  -8.9303    134.6304    106.0869   4.6740082444e+01   3.4999345855e+01    0.3615716     0.148077 -44.24  0.001244236    2.452    0.592
        88  -8.2043    203.4620    101.1549   3.0684855218e+01   2.0331992467e+01    0.2770419    0.1713125  80.56  0.001153344    2.314    0.568
        89  -7.8959    140.3124    101.6810   4.4091370720e+01   3.4647655872e+01    0.1572375    0.1236734 -85.61 0.0007036637    1.647    0.393
        90  -9.0218    193.0846     93.6504   3.0727643452e+01   2.4036718468e+01    0.2542654    0.2064797 -38.01 0.0003447269    1.275    0.216
        91  -7.6092    126.7000     92.3289   4.5025922792e+01   3.9559878140e+01    0.1522739    0.1221105 -84.41 0.0004552767    1.642    0.391
        92  -7.8355    206.1234     91.1518   2.7917264687e+01   2.1558981293e+01    0.1933247    0.1514756 -72.87  0.001017462    1.299    0.230
        93  -9.1642    152.6692     89.6942   3.7872883553e+01   3.4164265597e+01    0.2637518     0.214004  38.90 0.0007604624    1.290    0.225
        94  -9.3897    155.0028     87.2426   3.6684713389e+01   3.4075723631e+01    0.3252774    0.2615836  60.00  0.001210338    1.229    0.186
        95  -7.2996    137.5708     88.8508   4.1234916893e+01   3.7804432344e+01    0.2007196    0.1433628 -53.48 0.0004639441    1.532    0.347
        96  -7.9767    120.0396     89.0216   4.5887585374e+01   4.1655744509e+01    0.2098722    0.2035222  11.16  0.001153336    1.013    0.013
        97  -7.9949      3.2853     89.6626   8.6038564345e+01   5.7479749474e+01    0.1125724   0.08877763  81.15 0.0002462151    1.629    0.386
        98  -9.5766    243.1787     85.8658   2.1470496096e+01   1.4701586471e+01    0.3626876    0.1403514 -49.21  0.001531632    2.277    0.561
        99  -8.5231    236.0821     83.5195   2.1889639637e+01   1.6503936856e+01     0.206172     0.159025 -53.41  0.000560562    1.126    0.112
       100  -9.2796    233.2882     79.5480   2.1420108246e+01   1.7725923500e+01    0.3956993    0.2208172  77.89  0.001399826    2.206    0.547
       101  -9.0947    163.8776     79.0295   3.2593723083e+01   3.3455871481e+01    0.3084749    0.2515679  86.44    0.0011457    1.325    0.245
       102 -10.9619    168.4419     74.7770   3.0566109544e+01   3.3101144345e+01    0.6195241     0.442133  52.49  0.001945038    1.368    0.269
       103  -8.2726      2.4659     80.5014   8.4556436221e+01   5.9510647116e+01    0.1221432   0.09456926 -46.80 0.0001678281    1.011    0.011
       104  -8.5745    246.7664     75.9311   1.9036807674e+01   1.5606076644e+01    0.3225219    0.1619921 -33.73  0.001498857    2.307    0.567
       105  -8.2346    184.9513     77.3490   2.8183182755e+01   2.8779845516e+01    0.2036236    0.1761988  70.29 0.0006391343    1.115    0.103
       106  -9.2972    147.5891     76.7186   3.5450884502e+01   3.7695110241e+01    0.3669355    0.2467391 -53.61  0.001163801    1.656    0.396
       107  -8.4436     91.6984     74.9802   5.0071156778e+01   5.0047144202e+01    0.1901211    0.1705767 -16.77 0.0002014628    1.082    0.076
       108  -8.1999    218.3173    248.8893   5.8232120810e+01  -1.0087282783e+01    0.1744933    0.1378613  -8.72 0.0005973715    1.109    0.099
       109 -14.5645     10.9399    235.9832   9.9928789032e+01   2.2663452293e+01     1.973387     1.628682  84.45  0.006850381    1.161    0.139
       110 -11.6516    186.8296     36.9265   1.8034928336e+01   3.4305199774e+01    0.8506035    0.5027993  86.31  0.004247525    1.795    0.443
       111 -11.5817    206.7331     47.7169   1.7926648386e+01   2.8314817513e+01    0.9854705    0.6071368  84.16  0.005138647    1.645    0.392
       112 -10.7821    163.5463     63.4258   2.8501970266e+01   3.6097609034e+01    0.5239307    0.3904356 -69.27  0.002224889    1.515    0.340
       113  -9.1916    229.6433     61.2832   1.8055698914e+01   2.1352042118e+01    0.1992804    0.1506246  89.76  0.001189005    1.241    0.194
       114  -9.9928    144.0410     59.5080   3.1356439674e+01   4.1317800835e+01    0.3079337     0.272294 -80.03 0.0006171033    1.224    0.183
       115  -8.7954    141.6609     54.7750   3.0502457362e+01   4.2575440562e+01    0.2309976    0.1999756 -26.85 0.0009971815    1.290    0.225
       116 -11.0776    204.7439     39.5052   1.6347897730e+01   2.9871352502e+01    0.7428741    0.3753623 -76.71 0.0008082112    2.666    0.625
       117 -10.1603    185.5156     41.4978   1.9308584352e+01   3.4023286767e+01    0.3204434     0.242798 -86.08 0.0008412324    1.257    0.204
       118  -8.0893    226.3378     47.1557   1.5507363042e+01   2.4099301071e+01    0.2873591    0.1311069 -86.86  0.001089609    3.551    0.718
       119  -8.9807    110.9543    244.1403   8.0138097121e+01   7.5783933592e+00    0.1964364    0.1837744  72.35 0.0002828961    1.105    0.095
       120 -10.0705    218.4974     38.5183   1.4567239157e+01   2.6956940782e+01    0.3055372    0.2604381  41.71  0.001225459    1.643    0.391
       121  -7.5880     96.4484    238.4795   8.2589211395e+01   1.1026376196e+01    0.1357008     0.116873  59.40 -4.104194e-05    1.024    0.023
       122  -7.5318    238.6795     68.3619   1.8452356484e+01   1.8403635379e+01    0.1414808   0.08288463 -67.76 0.0007042076    1.774    0.436
       123  -8.1841     48.9556    236.5000   9.2496304100e+01   1.8200148283e+01    0.1890422    0.1437851 -88.52 0.0005984083    1.194    0.162
       124  -8.8184     76.8513    233.7345   8.6310064426e+01   1.4994150063e+01    0.2318966    0.1766247 -83.29 0.0004826878    1.309    0.236
       125  -9.8056    123.6751    228.0628   7.5074194933e+01   8.8234372634e+00      0.40393    0.2002076 -63.72  0.001667926    2.526    0.604
       126  -8.5599    125.6356     14.7472   2.1807960715e+01   5.0974628939e+01    0.2545841    0.1521272  59.92  0.001101403    1.378    0.274
       127  -8.7813     96.4846    228.4869   8.1314837584e+01   1.3170055744e+01    0.1385524     0.122842  60.65 -1.832598e-05    1.004    0.004
       128  -8.4676     93.3326     13.3209   2.8426323967e+01   5.8105877325e+01    0.1332819   0.07664993  31.76  0.000704946    1.699    0.411
       129  -7.8183     81.1936     13.1136   3.1624231715e+01   6.0549705217e+01    0.1464728   0.09231172 -16.03 0.0008505522    1.770    0.435
       130  -8.2019    135.4779    225.5112   7.1989221011e+01   7.3549359872e+00    0.1426743    0.1294134  46.68 -8.073035e-07    1.050    0.048
       131 -11.3521     77.4471    221.4223   8.4738671065e+01   1.7655882686e+01    0.8738546    0.3826551  34.72  0.003708448    2.262    0.558
       132  -9.0622    156.3023    218.2492   6.6034497032e+01   5.2378019885e+00    0.5968651    0.2427393  46.14  0.002199703    2.604    0.616
       133  -9.0141     75.3206    216.7861   8.4656661877e+01   1.9034074682e+01    0.3767846    0.2079157 -71.58  0.001760519    1.874    0.466
       134  -9.0833     96.5287    223.0232   8.0579809047e+01   1.4374189350e+01    0.2029781    0.1355105 -64.07 0.0005930985    1.566    0.362
