#   1 NUMBER                 Running object number                                     
#   2 MAG_AUTO               Kron-like elliptical aperture magnitude                    [mag]
#   3 X_IMAGE                Object position along x                                    [pixel]
#   4 Y_IMAGE                Object position along y                                    [pixel]
#   5 X_WORLD                Barycenter position along world x axis                     [deg]
#   6 Y_WORLD                Barycenter position along world y axis                     [deg]
#   7 A_WORLD                Profile RMS along major axis (world units)                 [deg]
#   8 B_WORLD                Profile RMS along minor axis (world units)                 [deg]
#   9 THETA_WORLD            Position angle (CCW/world-x)                               [deg]
#  10 FWHM_WORLD             FWHM assuming a gaussian core                              [deg]
#  11 ELONGATION             A_IMAGE/B_IMAGE                                           
#  12 ELLIPTICITY            1 - B_IMAGE/A_IMAGE                                       
         1 -14.7800    179.4216     29.8845   7.1503611130e+01   3.6806557462e+01     1.243066    0.9583873   8.72  0.004857663    1.764    0.433
         2 -13.5646    183.3786     23.3643   6.9155483826e+01   3.6600548806e+01    0.5800893    0.4839723  81.59  0.001442913    1.082    0.076
         3 -10.6035    168.5593    248.7634   1.2337715494e+02  -1.0805381665e+00    0.1591505    0.1216338 -69.35  0.000559662    1.764    0.433
         4 -19.6294     42.9844    160.5489   1.3744266257e+02   3.7076218721e+01     19.81591     5.361792 -69.63   0.06933709    3.588    0.721
         5 -11.6347    207.8069    185.9733   1.0483189757e+02   2.2676183681e+00    0.3330489    0.2594193  14.29  0.000972049    1.406    0.289
         6 -11.9888    212.5183    182.1422   1.0312521134e+02   2.0342684374e+00    0.3886236    0.2805087   0.09  0.001387073    1.750    0.428
         7 -12.1967     99.6676    186.1888   1.2820659654e+02   2.3136709280e+01    0.3395222    0.2516404 -86.70  0.001375979    1.369    0.269
         8 -12.2378     99.5124    180.8466   1.2740854329e+02   2.4368695434e+01    0.3294311    0.2447117 -72.56   0.00175856    1.307    0.235
         9 -10.9862    147.2055    185.8592   1.1756792577e+02   1.4439973335e+01    0.2203024    0.1922387  81.04 0.0004069371    1.192    0.161
        10 -11.2985    198.5590    178.0289   1.0506596578e+02   5.5782138639e+00    0.3408951    0.2688724 -53.98 0.0009594608    1.420    0.296
        11 -12.1643    126.6977    172.8161   1.1978378511e+02   2.1288247042e+01    0.3955223    0.2537436  56.59  0.001651311    1.606    0.377
        12 -11.6570    137.1678    170.8316   1.1699026556e+02   1.9689051606e+01    0.2332886    0.2017194  81.76 0.0007106143    1.191    0.160
        13 -11.9205     95.6908    209.3775   1.3232733327e+02   1.8747276321e+01     0.335234    0.1763156  61.92  0.001550608    2.024    0.506
        14 -12.9714     93.2337    206.5612   1.3246688309e+02   1.9737787782e+01    0.6414821    0.3587301 -38.24  0.002672145    3.367    0.703
        15 -10.3750      2.1280    162.5499   1.4661228989e+02   4.0472314868e+01    0.1323074    0.1117545  41.69 0.0005096084    1.515    0.340
        16 -12.8989    102.0884    156.5696   1.2260723385e+02   2.9551496707e+01    0.6701309    0.4136116 -41.44  0.003007392    1.903    0.475
        17 -11.5966    163.4747    155.6580   1.0781520882e+02   1.7546472481e+01    0.3549156    0.2818186 -70.21  0.001697248    1.441    0.306
        18 -10.5887    139.8734    156.3467   1.1342537977e+02   2.2387735912e+01    0.2357645    0.2041907 -74.69 0.0003708837    1.193    0.162
        19 -10.5056    166.0589    208.6501   1.1760299603e+02   6.2234842690e+00      0.23216    0.1574603  55.11   0.00116346    1.484    0.326
        20 -13.7439     10.6522    206.4692   1.4840278465e+02   3.0380404168e+01    0.5613008    0.2931089  33.93  0.003419477    2.376    0.579
        21 -10.8717    174.8116    148.8468   1.0375927962e+02   1.6518026322e+01    0.2178825    0.1867542  87.82 0.0005257314    1.343    0.256
        22 -11.8678    133.7812    144.8971   1.1241390199e+02   2.6239738647e+01     1.000158    0.2350139 -53.47  0.002377611    5.434    0.816
        23 -11.8744    125.8724    204.7533   1.2537624355e+02   1.4529279821e+01    0.2698067     0.173993  88.04  0.001235699    2.119    0.528
        24 -10.8008     88.9740    147.0829   1.2409011199e+02   3.3990327681e+01    0.2111822    0.1910702 -77.55 0.0003370692    1.002    0.002
        25 -12.3297    111.2055    141.3151   1.1726708981e+02   3.1494343625e+01     0.522594    0.3221802 -35.46  0.002205043    2.043    0.510
        26 -12.7874    104.0632    202.0446   1.2959018852e+02   1.8919867293e+01    0.4159649    0.2247443  40.80  0.001968897    1.826    0.452
        27 -12.5944    100.6273    141.4782   1.2000702285e+02   3.3361638577e+01     0.276307    0.2644987  40.07 0.0005519585    1.156    0.135
        28 -13.0669    196.9009    197.0439   1.0918863404e+02   2.4011808775e+00    0.7207683     0.491961  50.90   0.00256954    1.511    0.338
        29 -11.6399    189.0038    187.8072   1.0900051968e+02   5.6556656159e+00    0.6141012    0.3828756 -60.00  0.002331572    2.158    0.537
        30  -9.7859      1.3348    250.7462   1.5244517880e+02   2.2810684204e+01    0.1060846   0.04982164  66.29 0.0006943489    1.565    0.361
        31 -11.5030    117.5009    130.9573   1.1335010062e+02   3.2705630273e+01    0.3250321    0.2473744 -23.80 0.0008954265    1.684    0.406
        32 -11.8846    105.7724    129.0504   1.1597950517e+02   3.5356341201e+01    0.5655618    0.2928184 -56.08  0.001610668    1.909    0.476
        33 -11.0170    160.5007    128.0040   1.0205422393e+02   2.4202732922e+01    0.2497086    0.1549681 -45.07  0.001037986    1.605    0.377
        34 -11.6691    141.6895    126.8184   1.0625334492e+02   2.8652399410e+01     0.431469    0.2835362  81.47  0.001618894    2.532    0.605
        35 -11.7614    111.2515    197.3459   1.2736783620e+02   1.8695720112e+01    0.3774129    0.1932494  28.00  0.001433782    3.161    0.684
        36 -10.6004     10.5850    213.7124   1.4890437534e+02   2.8916087978e+01    0.1372861   0.09904448  13.93  0.000876559    2.726    0.633
        37 -10.3677    112.1172    119.8821   1.1214002368e+02   3.6281554548e+01    0.2200456    0.1988602 -86.85 0.0003279118    1.170    0.146
        38 -13.2369    110.6139    208.0412   1.2906357894e+02   1.6539297675e+01    0.4093539     0.345965  36.33  0.001545506    1.355    0.262
        39 -11.1974    168.7410    113.6705   9.6560540094e+01   2.5324042575e+01    0.3916431    0.2889462 -80.04 0.0007696541    1.808    0.447
        40 -10.5144    164.1861    111.3908   9.6995744493e+01   2.6867511723e+01    0.2891891    0.2296433  73.35  0.001225706    1.434    0.303
        41 -10.6246    205.3916    110.1175   8.8121092139e+01   1.7333919966e+01    0.2621705    0.2113269  43.03 0.0007708701    1.323    0.244
        42 -10.9850    180.4465    194.0874   1.1198773725e+02   6.1699257159e+00    0.3648633    0.2489857 -75.90  0.001596023    2.387    0.581
        43 -12.4462     99.7980    192.8945   1.2918443144e+02   2.1623399654e+01    0.5173458    0.2674466  69.87  0.001615081    2.885    0.653
        44 -13.8192    165.8991     44.7780   7.7993939199e+01   3.8224508445e+01    0.7390018    0.5268329 -27.60  0.001956821    1.559    0.359
        45 -10.0611    158.2986    193.6650   1.1658539086e+02   1.0640063648e+01    0.1460529    0.1111331  80.69 0.0007032481    1.653    0.395
        46 -10.8086     15.0227     36.9794   1.2077626895e+02   6.5815135633e+01    0.1892697    0.1356598   7.02 0.0006914114    1.472    0.321
