#   1 NUMBER                 Running object number                                     
#   2 MAG_AUTO               Kron-like elliptical aperture magnitude                    [mag]
#   3 X_IMAGE                Object position along x                                    [pixel]
#   4 Y_IMAGE                Object position along y                                    [pixel]
#   5 X_WORLD                Barycenter position along world x axis                     [deg]
#   6 Y_WORLD                Barycenter position along world y axis                     [deg]
#   7 A_WORLD                Profile RMS along major axis (world units)                 [deg]
#   8 B_WORLD                Profile RMS along minor axis (world units)                 [deg]
#   9 THETA_WORLD            Position angle (CCW/world-x)                               [deg]
#  10 FWHM_WORLD             FWHM assuming a gaussian core                              [deg]
#  11 ELONGATION             A_IMAGE/B_IMAGE                                           
#  12 ELLIPTICITY            1 - B_IMAGE/A_IMAGE                                       
         1 -12.5437      2.1220     80.2300   8.8821218230e+01   5.8345161822e+01      1.29287          nan -65.30  0.003819996    5.771    0.827
         2 -13.2721    219.7541     54.6367   2.3507942820e+01   2.2852219196e+01     1.315411     1.210039 -74.31  0.007590009    1.016    0.016
         3 -13.2987    239.6480     41.1370   1.7705735568e+01   2.0036352530e+01     1.258714    0.8953784  48.53  0.006726184    1.677    0.404
         4 -10.0977      2.0000     11.4711   7.1345941824e+01   7.1763143555e+01    0.2384306   0.04784402 -52.53 0.0003030412    4.026    0.752
         5 -10.9346    227.4308    246.7805   6.3404347276e+01  -8.9335115965e+00    0.1927373    0.1641961  18.18  0.001433194    1.169    0.144
         6 -15.6394      9.1528    237.1633   1.0069038729e+02   2.4682446922e+01     9.769668     4.119594 -80.26   0.06186389    2.027    0.507
         7 -10.3975    110.0303    229.4794   8.2529009632e+01   1.2833706132e+01    0.1956749    0.1025209  44.08  0.001036867    1.606    0.377
         8 -11.0428     78.5927    206.1040   8.6048106269e+01   2.2125630728e+01     0.328796    0.1949844 -86.30 0.0007972731    1.763    0.433
         9 -12.4190      1.7665    195.4221   9.9818776071e+01   3.3319161360e+01    0.2796921    0.1409238 -81.49 0.0008980212    1.557    0.358
        10 -11.8034     37.0744    172.0805   9.1113905708e+01   3.4764933147e+01    0.2949722    0.2674068 -56.19 0.0005064114    1.452    0.311
        11 -10.5557    241.1667    172.5732   4.7744160860e+01  -1.2361241635e+00    0.3156909    0.1081284  37.07  0.001150053    3.248    0.692
        12  -8.5673    110.5590    167.4706   7.3872913251e+01   2.5224217852e+01    0.1425125     0.127455  77.65 0.0001257545    1.015    0.014
        13 -14.8939      8.3685    190.3218   9.8312833034e+01   3.3759045494e+01     2.687901    0.8461295 -73.16  0.009536253    2.515    0.602
        14 -11.7413     45.4330    166.1980   8.8667371584e+01   3.5129167025e+01    0.2810929    0.2371394 -78.29 0.0005076077    1.164    0.141
        15  -9.1024    230.3103    166.3244   4.8378720921e+01   1.7391534658e+00    0.1422003    0.1006996   5.51  0.000287956    1.655    0.396
        16 -11.7701     73.7144    137.3908   7.7759623525e+01   3.8148106504e+01    0.4368201    0.2864382 -70.98 0.0004099481    1.442    0.306
        17 -12.1186     68.4723    151.4757   8.1354249300e+01   3.5578798260e+01    0.5925602    0.4640419  60.50  0.001376312    1.248    0.199
        18 -13.0002     68.2181    143.6757   8.0212869419e+01   3.7440953111e+01     1.086958    0.6155695  73.72  0.002843353    2.368    0.578
        19 -10.7442     59.2412    157.3624   8.4409663864e+01   3.5447840375e+01    0.2338577    0.2149379  88.10 0.0004541589    1.158    0.136
        20 -13.0365     43.7163    153.2437   8.7553425067e+01   3.8275889008e+01    0.4587168    0.3415641 -28.67  0.001464332    2.084    0.520
        21 -11.6635    239.6452    145.7009   4.2323358868e+01   3.3041000526e+00    0.3447741    0.2450584  55.67  0.001784777    1.655    0.396
        22  -8.7213    197.5707    223.4569   6.5076863216e+01  -1.1279563061e+00    0.1259811     0.105684  31.07 0.0001984071    1.021    0.020
        23 -10.8350    249.5141    140.4754   3.9534964645e+01   2.2518258600e+00    0.3026449    0.1241691 -35.31  0.001230491    2.235    0.552
        24 -10.4394     86.5075    139.9930   7.4917408229e+01   3.5597394117e+01    0.2969011    0.2445837 -68.42 0.0007714686    1.123    0.110
        25  -9.2788     90.7760    136.9432   7.3245937509e+01   3.5626600635e+01    0.2428353    0.2068779  14.81 0.0005369907    1.522    0.343
        26 -11.7389    243.2387    132.3775   3.8762718806e+01   4.7885935105e+00    0.3296771    0.2253532 -27.05  0.001675972    1.408    0.290
        27 -10.3890    104.5465    130.0127   6.8253907795e+01   3.4878916203e+01    0.5762387    0.3298009  47.54  0.002055019    1.793    0.442
        28 -10.7044     66.8804    126.0421   7.7557328050e+01   4.1790361320e+01       0.3191    0.2199354 -85.09  0.001642834    1.561    0.360
        29 -10.2185     88.1665    125.1621   7.1598052079e+01   3.8825332028e+01      0.24381    0.2362264  84.53   0.00043723    1.092    0.084
        30  -8.8872    134.0000    248.0409   8.0209427097e+01   5.8899622228e+00    0.1604769   0.06903873 -55.29  0.000579588    2.908    0.656
        31 -12.2815    244.1583    117.8462   3.5309322092e+01   7.0087843649e+00    0.6094636    0.2224312 -35.19  0.002258225    2.533    0.605
        32  -9.3995    101.7396    118.0693   6.6361234622e+01   3.8160052538e+01    0.2216413    0.2049575  54.65 0.0003250709    1.121    0.108
        33 -11.2896     51.8432    112.1157   7.9201078546e+01   4.6969276511e+01    0.6560404    0.1395316 -64.26  0.001817695    5.135    0.805
        34  -9.3840    204.4589    110.9034   4.0489502893e+01   1.6989501076e+01    0.4269274     0.192839  38.56  0.001460418    2.863    0.651
        35 -12.4734    243.3449    105.1678   3.2491175459e+01   9.2819942044e+00    0.8948969    0.4161186 -54.72  0.003244064    3.027    0.670
        36  -8.8046     34.2277     97.0004   8.1623074740e+01   5.2304392996e+01    0.1758132    0.1364359 -66.34 0.0003300656    1.082    0.076
        37 -10.8852     51.6678    102.0910   7.7299302219e+01   4.9322206111e+01    0.4067005    0.1504787 -56.69  0.001692604    2.216    0.549
        38  -9.3371    172.0000    240.9879   7.2410927481e+01   6.8358826282e-01    0.1685577   0.07144789 -46.08 0.0008030467    2.947    0.661
        39 -10.3102     53.1806     90.2414   7.4260909701e+01   5.1852347381e+01    0.3275051    0.1662048 -41.99  0.001342347    1.977    0.494
        40 -10.1982    249.6110     87.6039   2.7468413382e+01   1.0802097759e+01    0.2747048    0.1285076 -21.52 0.0009556739    3.308    0.698
        41  -9.8280    167.5893     87.7329   4.1794803200e+01   3.0288394026e+01    0.2244789    0.1449353 -48.61 0.0009384954    1.594    0.373
        42  -9.0688    102.2092     82.9363   5.7081209796e+01   4.5894926251e+01      0.21679    0.1931732 -69.40 0.0004911135    1.226    0.184
        43 -11.5138    241.6398     77.9160   2.6268518411e+01   1.4092554013e+01    0.2996819     0.236488  79.79  0.001618441    1.394    0.283
        44  -9.4831    184.5107     77.4703   3.5454644420e+01   2.7953071438e+01    0.1522533    0.1503256  83.53 8.393758e-06    1.037    0.036
        45 -10.5451     80.6542    249.0738   8.9710081814e+01   1.3847664144e+01    0.2159949    0.1382739  46.42 0.0008090461    1.356    0.262
        46 -14.6475      8.6412    208.2616   9.9319807483e+01   3.0137879021e+01     3.402802     1.366833 -56.71   0.01745012    3.431    0.709
        47  -8.4265     96.4373     61.5513   5.2134774342e+01   5.1240721812e+01    0.1399578    0.1328794 -23.70 0.0003478889    1.046    0.044
        48 -10.5825     13.4273     59.9822   8.0980346496e+01   6.2004937081e+01    0.1861324    0.1695443 -15.59 0.0004933446    1.265    0.209
        49  -9.8503     41.5884     91.9489   7.8325102022e+01   5.2738404880e+01    0.2042733    0.1874678  47.17 0.0004240113    1.277    0.217
        50  -8.9307     42.5367     54.8526   6.8563794646e+01   6.0570756423e+01    0.2104094    0.1575009  75.34   0.00115451    2.290    0.563
        51  -8.3180     94.7323     46.3539   4.7370497617e+01   5.4246194300e+01    0.1333224    0.1090198 -64.68 0.0006990802    1.629    0.386
        52  -9.8982      3.2287     39.5578   7.9951165478e+01   6.6675132851e+01    0.1813403    0.1019746  21.26  0.001152492    2.161    0.537
