#   1 NUMBER                 Running object number                                     
#   2 MAG_AUTO               Kron-like elliptical aperture magnitude                    [mag]
#   3 X_IMAGE                Object position along x                                    [pixel]
#   4 Y_IMAGE                Object position along y                                    [pixel]
#   5 X_WORLD                Barycenter position along world x axis                     [deg]
#   6 Y_WORLD                Barycenter position along world y axis                     [deg]
#   7 A_WORLD                Profile RMS along major axis (world units)                 [deg]
#   8 B_WORLD                Profile RMS along minor axis (world units)                 [deg]
#   9 THETA_WORLD            Position angle (CCW/world-x)                               [deg]
#  10 FWHM_WORLD             FWHM assuming a gaussian core                              [deg]
#  11 ELONGATION             A_IMAGE/B_IMAGE                                           
#  12 ELLIPTICITY            1 - B_IMAGE/A_IMAGE                                       
         1 -14.8588    163.0922     44.3605   7.8263720831e+01   3.9020115229e+01     1.309433      1.08339 -13.71  0.004018092    1.414    0.293
         2 -14.9286    179.4140     11.2926   6.6376055882e+01   3.8937390870e+01     1.906463     1.056541  65.17  0.006722891    1.535    0.349
         3 -10.1779    139.6905    250.1863   1.2872444896e+02   3.6771509978e+00    0.2171391    0.1543423 -82.58  0.001270736    1.816    0.449
         4 -20.0990     75.2378    174.0379   1.3174441487e+02   2.9794481502e+01      17.7812     6.946378 -64.76   0.07204706    2.449    0.592
         5 -11.3397    121.9417    198.7053   1.2506200930e+02   1.6554295345e+01    0.2275362    0.1937599 -60.28 0.0004375167    1.255    0.203
         6 -12.1604    134.7652    243.2386   1.2876996261e+02   5.6910736212e+00    0.4370128    0.1926475 -45.65  0.001984622    3.006    0.667
         7 -12.5728    153.3159    186.2290   1.1605335638e+02   1.3210536741e+01    0.3362367    0.2898807 -76.22 0.0008122035    1.262    0.208
         8 -11.1617    138.6487    242.8552   1.2798057836e+02   5.0921576537e+00    0.3808138    0.3532452  24.57  0.001853461    1.301    0.231
         9 -11.1552    127.0109    250.5184   1.3112476912e+02   5.7483125614e+00    0.1640769    0.1118457  47.37 2.913787e-05    1.205    0.170
        10 -10.5114     25.0073    185.4896   1.4392778732e+02   3.3398081692e+01    0.1694938    0.1225005 -80.83 0.0003392562    1.123    0.110
        11 -11.5132     12.8953    240.9832   1.5007860803e+02   2.3395996068e+01    0.1647596    0.1191966 -75.12  0.001260386    1.496    0.332
        12 -10.6427     31.2790    182.7358   1.4239484663e+02   3.3348157119e+01    0.2956427    0.1949624  16.51  0.001673862    2.537    0.606
        13 -11.9458    150.8462    180.6431   1.1554872603e+02   1.4878548832e+01    0.2782139    0.2137793 -61.68 0.0006580328    1.400    0.286
        14 -10.4856    163.4820    249.9858   1.2423391286e+02  -3.5080164400e-01    0.1704417    0.1513989  42.67 0.0005114041    1.089    0.082
        15 -10.7761     28.4116    238.3549   1.4742986117e+02   2.2177279764e+01    0.1253464   0.08055551  83.66 0.0002591781    1.195    0.163
        16 -11.4906    188.0188    175.1835   1.0638466239e+02   8.3653897590e+00    0.3527065    0.2054787 -60.60  0.001404279    2.423    0.587
        17 -11.1399    166.8337    174.7972   1.1085918879e+02   1.2841494777e+01    0.3625992    0.2098296 -71.81  0.001255109    3.284    0.695
        18 -12.9373    177.5303    170.8997   1.0772792513e+02   1.1410576365e+01    0.5966371     0.298906 -60.69  0.002048056    3.153    0.683
        19 -11.9005     26.1177    173.6011   1.4255644996e+02   3.5910938931e+01    0.2375147    0.1802205  88.65 0.0003503782    1.056    0.053
        20 -10.9164     33.9447    169.5755   1.4044901119e+02   3.6011451799e+01    0.2720136     0.149953 -73.47    0.0013629    1.503    0.335
        21 -11.0937    163.7920    169.7908   1.1051056448e+02   1.4523990389e+01    0.2127551    0.1780195  76.99   0.00106406    1.353    0.261
        22 -11.7645    230.2184    167.1250   9.6317049604e+01   1.3493471621e+00    0.4351157    0.1709489 -50.61  0.001435032    3.645    0.726
        23 -10.5110    185.2881    169.6364   1.0580214091e+02   1.0035525217e+01    0.1510216    0.1194616 -84.62 0.0007023924    1.695    0.410
        24 -11.6934     21.6461    236.6485   1.4842486102e+02   2.3264878294e+01    0.1764104   0.09935976 -80.38  0.001169244    1.501    0.334
        25  -8.2767     13.3608    236.3507   1.4973967643e+02   2.4215770154e+01    0.1019866   0.07442946  80.30 0.0003486001    1.097    0.088
        26 -10.9849    160.1606    247.6545   1.2453785211e+02   5.8735340402e-01    0.3251527    0.1955875  29.13  0.001301155    1.844    0.458
        27 -12.1673    131.0479    234.5441   1.2835302082e+02   7.8719323468e+00    0.2111904    0.1785346 -72.49 0.0006270299    1.315    0.240
        28 -11.5994     18.1238    156.3828   1.4250069639e+02   4.0522206932e+01    0.4367365    0.2118668 -71.20  0.002262206    1.616    0.381
        29 -11.0090     22.9827    156.0977   1.4137792952e+02   4.0150216049e+01    0.1975148    0.1586703 -83.64 0.0004394173    1.034    0.033
        30 -11.9960    141.6476    229.2262   1.2553756207e+02   6.9805932986e+00    0.3635107    0.3159676  59.09  0.001289643    1.044    0.042
        31 -12.4853     23.0380    219.6553   1.4705389652e+02   2.6432963682e+01    0.3220198    0.1309007 -64.79  0.001745201    2.307    0.567
        32 -11.5747    152.9439    151.1688   1.0901165683e+02   2.0857393551e+01    0.2380989    0.2069172  83.04 0.0003399545    1.252    0.201
        33 -10.7960     17.6499    222.7836   1.4819241749e+02   2.6386990109e+01   0.08713637   0.08065281 -83.79 0.0006827615    1.543    0.352
        34 -11.7928    174.3067    148.7185   1.0359980567e+02   1.6725278064e+01    0.3631803    0.3207541  88.83  0.001267851    1.264    0.209
        35 -12.3802    161.4373    152.7703   1.0740499368e+02   1.8676487688e+01    0.3061959     0.290197  52.18 0.0008087149    1.039    0.038
        36 -10.5854    218.4578    220.0113   1.0894742362e+02  -5.2745143411e+00    0.1839235    0.1256122 -36.38 0.0004565224    1.579    0.367
        37 -12.6242     27.6258    145.4507   1.3902234656e+02   4.2146731390e+01    0.2974388    0.2424261 -50.05  0.001213463    1.351    0.260
        38 -11.5946      8.6464    138.4510   1.4270860421e+02   4.5308892333e+01    0.3674883    0.1868893 -56.24  0.001191722    1.700    0.412
        39 -12.7261    160.5564    127.9797   1.0181934913e+02   2.4254762831e+01    0.5175039    0.3486578 -52.53  0.001839269    1.534    0.348
        40 -12.9024     28.5064    126.9045   1.3623922039e+02   4.6314116787e+01    0.4443023    0.3056869  11.21  0.002643093    2.032    0.508
        41 -10.6173     16.3814    209.1378   1.4747290814e+02   2.9267190058e+01    0.1526066   0.09135564 -50.33 0.0008974877    2.442    0.590
        42 -11.0414    167.5560    112.5551   9.6329340274e+01   2.5891987397e+01    0.3584289     0.241521 -83.11  0.001368164    2.388    0.581
        43 -11.6787      4.1116    112.3697   1.4062473282e+02   5.1392788162e+01    0.3219601    0.2055345  16.02  0.002081934    2.107    0.525
        44 -10.8271    205.4583    110.1742   8.7896196128e+01   1.7381495685e+01     0.328194    0.2196365  44.46   0.00100949    1.588    0.370
        45  -9.7737    144.6197    109.2847   1.0087684119e+02   3.1870094342e+01      0.16224    0.1237642  86.04 0.0007012754    1.728    0.421
        46 -12.8561     11.5470    206.1090   1.4811780049e+02   3.0370312582e+01     0.362578    0.2434933  39.25  0.002066425    1.769    0.435
        47  -9.8619     22.4333    205.4323   1.4610416778e+02   2.9406849856e+01    0.1144426   0.08664569  86.37 0.0002818802    1.055    0.052
        48 -11.5859     13.1913    100.8524   1.3637030413e+02   5.3329345703e+01    0.2884223    0.1746315  24.13  0.001774122    2.071    0.517
        49 -10.8261     32.4344     99.0254   1.3033098526e+02   5.2235008430e+01    0.2060126    0.1588174 -20.78 0.0004805048    1.493    0.330
        50 -11.3872    138.7143    200.3457   1.2171021124e+02   1.3116910569e+01    0.3579049      0.24981  74.89  0.001119965    1.749    0.428
        51 -10.6207    144.4927     81.0562   9.3081492511e+01   3.7542565220e+01    0.2350511    0.2035052  51.29 0.0005375597    1.139    0.122
        52 -14.4190    151.9063     58.9788   8.4860313307e+01   3.9586130686e+01     1.235261     1.060192  19.43 0.0009395017    1.299    0.230
        53 -12.3227    125.1990    240.7897   1.3028192612e+02   7.7462601829e+00    0.5692384    0.1701213 -55.03  0.002231329    3.834    0.739
        54 -12.9604    167.4775     36.1950   7.5104963505e+01   3.9027166957e+01    0.3991436    0.3750724  39.62 0.0009291882    1.135    0.119
        55 -11.1088     13.5265     59.9847   1.2795565940e+02   6.1741579018e+01    0.1691589    0.1569638  42.80 0.0005726957    1.465    0.317
        56 -11.3772    141.5533    198.7305   1.2083031993e+02   1.2911944933e+01    0.2974843    0.2436347 -82.89 0.0007392875    1.347    0.258
        57 -10.4191    142.1533     32.9298   7.8941043857e+01   4.5587415636e+01     0.196992    0.1781161  86.42 0.0003366257    1.203    0.169
        58 -11.1335    160.8372    240.1274   1.2334601007e+02   1.6899033348e+00    0.2418753    0.2069893   0.41  0.001513531    1.471    0.320
