#   1 NUMBER                 Running object number                                     
#   2 MAG_AUTO               Kron-like elliptical aperture magnitude                    [mag]
#   3 X_IMAGE                Object position along x                                    [pixel]
#   4 Y_IMAGE                Object position along y                                    [pixel]
#   5 X_WORLD                Barycenter position along world x axis                     [deg]
#   6 Y_WORLD                Barycenter position along world y axis                     [deg]
#   7 A_WORLD                Profile RMS along major axis (world units)                 [deg]
#   8 B_WORLD                Profile RMS along minor axis (world units)                 [deg]
#   9 THETA_WORLD            Position angle (CCW/world-x)                               [deg]
#  10 FWHM_WORLD             FWHM assuming a gaussian core                              [deg]
#  11 ELONGATION             A_IMAGE/B_IMAGE                                           
#  12 ELLIPTICITY            1 - B_IMAGE/A_IMAGE                                       
         1 -14.5027     68.5849    144.3074   9.8582497718e+01   3.7491477837e+01     4.805911     2.587446  70.40  0.005924862    3.425    0.708
         2 -13.1743    201.2543     42.5535   4.0523507960e+01   3.0294178350e+01     1.050748    0.8927288 -53.74  0.003256889    1.135    0.119
         3 -13.5294    211.9887     32.4404   3.6939497139e+01   2.9205523913e+01    0.8830459    0.7911623  45.68  0.001946047    1.433    0.302
         4 -11.9334      2.4949     29.2981   9.6735943147e+01   7.0058106199e+01    0.6359558     0.300377 -38.54  0.003558663    1.629    0.386
         5 -11.5334      2.1389     20.7816   9.3786387344e+01   7.1574982921e+01    0.4994749    0.2954956 -55.77  0.003066099    1.878    0.468
         6 -11.6614      1.7420     47.8298   1.0279841520e+02   6.6538258931e+01     1.366516     0.216135 -63.17  0.003934829    6.470    0.845
         7 -11.8676    240.6841      8.6725   2.9517422358e+01   2.5963064399e+01    0.4745054    0.3921574  37.43  0.002938523    1.919    0.479
         8 -12.6547    236.5600      4.9120   2.9063898793e+01   2.7191407028e+01    0.7113468    0.5639941  64.90  0.004809571    1.504    0.335
         9 -12.2797      2.0812      7.5925   8.8121060311e+01   7.3694049502e+01    0.9888526    0.4308827 -45.57  0.005620508    2.121    0.529
        10  -9.4165     33.3426    206.0804   1.1559837249e+02   2.6524447958e+01     0.419978    0.1311386  56.20  0.001502894    3.777    0.735
        11 -11.2043    139.7181    248.2440   9.6818667205e+01   3.2876595145e+00    0.4871045    0.2901894 -57.05  0.002619758    2.096    0.523
        12 -11.1367    127.8656    249.3174   9.9441110131e+01   4.8511659523e+00    0.4522019    0.2280452  36.20  0.002280931    1.656    0.396
        13 -10.3412    106.7101    250.0129   1.0395565093e+02   7.8006337747e+00    0.3652376    0.1352869  40.77  0.001616214    2.187    0.543
        14 -10.1664    102.0000    249.0457   1.0483384334e+02   8.6506691948e+00    0.2517928    0.1954092 -63.35  0.001138835    1.494    0.330
        15 -11.4367    101.1959    242.9220   1.0432847952e+02   9.9203607475e+00    0.6489536    0.2851965 -52.27  0.001333838    2.619    0.618
        16 -12.8681     53.1319    185.9809   1.0891597224e+02   2.9007457350e+01    0.9371395    0.8453434 -40.07  0.004867528    1.323    0.244
        17 -13.9305     40.5846    195.4292   1.1297909677e+02   2.8204160082e+01     3.475138      1.31562  62.95   0.01143273    3.883    0.742
        18 -15.4797      6.6781    163.0663   1.1836391579e+02   3.9158454524e+01     8.711268     1.281632 -74.14   0.02554167    5.119    0.805
        19 -10.8636    202.4377    200.1436   7.5877036324e+01   2.0334694967e+00    0.3330652    0.1503242  32.05  0.001428572    2.261    0.558
        20 -10.1488    122.4370    198.9583   9.3512771207e+01   1.5728237705e+01    0.3273557    0.2614994 -84.43  0.001019345    1.515    0.340
        21  -9.6527     58.8269    196.1690   1.0867937484e+02   2.5858780093e+01    0.2090525    0.1925975 -59.94 0.0002849546    1.215    0.177
        22  -9.3328     20.8413    195.1172   1.1754169783e+02   3.0313143397e+01    0.2970918    0.1554863  38.71  0.001130893    1.838    0.456
        23  -8.6519     82.7788    194.4159   1.0256988198e+02   2.3010533255e+01    0.1873292    0.1349059  21.25 0.0008267467    1.618    0.382
        24 -10.5993    147.9834    189.4803   8.5765124867e+01   1.3389150182e+01    0.8048723    0.4953842  86.51   0.00242225    5.156    0.806
        25  -9.5719    118.4401    190.7769   9.3140503227e+01   1.8228898665e+01     0.273232    0.1465171 -61.63  0.001132698    2.117    0.528
        26  -9.2839     84.9181    186.0736   1.0085060414e+02   2.4681977554e+01    0.2736804    0.2300728  78.36  0.001267971    1.203    0.169
        27  -9.7907     81.2057    182.1324   1.0122775233e+02   2.6183451905e+01    0.4594092    0.2433029  41.40  0.001269523    1.814    0.449
        28  -9.4865     99.4241    180.9454   9.6318808654e+01   2.3668109641e+01    0.2786528    0.2155384  34.71 0.0006675477    1.290    0.225
        29 -10.8152    239.7686    177.1461   6.4487444063e+01   2.0021592313e-01    0.2941747     0.153434  31.82  0.001440655    2.158    0.537
        30 -10.4265    186.7918    174.8749   7.4166947042e+01   9.4221800798e+00    0.3746652    0.3463468 -59.65  0.001147485    1.276    0.216
        31 -10.6450     41.2993    175.9327   1.1077219112e+02   3.2835709049e+01    0.4661161    0.3390775  -6.36  0.002455424    2.011    0.503
        32 -12.8163     68.7851    153.8529   1.0018150134e+02   3.5026892149e+01     0.600184    0.4768613 -53.70  0.001130676    1.221    0.181
        33 -11.7519    114.7384    245.7762   1.0177948708e+02   7.4186034097e+00    0.5070869    0.4000248 -65.89  0.003164632    1.493    0.330
        34  -8.6960     34.9190    171.6981   1.1195038558e+02   3.4558576401e+01    0.1784131    0.1552568  74.28  0.000332024    1.079    0.073
        35 -10.7057    240.6523    168.9098   6.2716101861e+01   1.4471644820e+00    0.2192817    0.1719749  11.14 0.0006918269    1.351    0.260
        36  -9.0498    110.9540    167.9702   9.1017876173e+01   2.4868191537e+01    0.2410563    0.1817872  75.79 0.0004883899    1.659    0.397
        37 -10.1119     33.4261    156.1880   1.1056019319e+02   3.8588765131e+01    0.2997688     0.263519  79.64 0.0009677152    1.091    0.084
        38 -11.4709     87.9051    152.1406   9.4381963982e+01   3.2628187249e+01    0.6557144    0.4596577 -21.93  0.002906201    1.952    0.488
        39 -10.4599    133.8703    145.3375   8.0275132540e+01   2.6020651916e+01     1.123155    0.3081572 -54.83  0.002701133    5.221    0.808
        40  -8.4544    112.0583    150.5108   8.7261189913e+01   2.8919081403e+01    0.2260529    0.1517269  38.64 0.0004721714    1.500    0.333
        41  -9.2980    174.9012    149.1454   7.1239598394e+01   1.6948569020e+01    0.2275904    0.2087199 -85.24 0.0005869598    1.286    0.223
        42 -10.3114     30.0349    143.6823   1.0994261964e+02   4.2074916373e+01    0.4057391    0.3119247   3.99  0.002299086    1.640    0.390
        43 -10.2358    101.8992    138.3306   8.7522423569e+01   3.3733074485e+01    0.6107898    0.3637442 -23.31   0.00219377    2.794    0.642
        44 -10.1994    106.0536    131.1148   8.4686897349e+01   3.4752675878e+01    0.4192992    0.3342974 -59.78  0.001537366    1.278    0.217
        45  -9.5912    111.3757    129.1179   8.2678649366e+01   3.4242133327e+01    0.3386773    0.2532548   4.78 0.0009170315    1.773    0.436
        46 -11.5501     89.2256    137.7738   9.1130757229e+01   3.6031861193e+01    0.3017916    0.2661964 -38.03 0.0004308254    1.153    0.133
        47 -10.9570     26.2018    137.2709   1.1022866768e+02   4.4038314916e+01    0.3768545    0.2480424  48.55  0.001178664    1.667    0.400
        48 -10.3727    134.7921    128.9142   7.6180005887e+01   2.9641416153e+01    0.5321591    0.3229764 -59.25  0.002128921    1.928    0.481
        49 -10.6423     44.2648    129.7361   1.0350957491e+02   4.4211469246e+01    0.2748819    0.2058352 -41.41  0.001314683    1.351    0.260
        50 -13.8241     19.3559    220.2607   1.1962919045e+02   2.4820061120e+01    0.9045909    0.7554126  57.89  0.006414113    1.159    0.137
        51 -10.1937     98.3320    125.0274   8.5547737092e+01   3.7631464574e+01     0.326678    0.2539514 -15.18 0.0007504876    1.577    0.366
        52 -11.4616     67.6899    171.6887   1.0326794190e+02   3.0667680924e+01    0.4868543     0.323691 -26.98  0.002214026    2.177    0.541
        53 -10.1387    118.1477    123.3615   7.9350536783e+01   3.4296902190e+01    0.3893266    0.2453137  17.65  0.001489104    2.321    0.569
        54 -11.4168     72.0693    167.1128   1.0139429009e+02   3.1212346210e+01    0.4578175    0.2971208 -52.30  0.001107883    1.531    0.347
        55  -7.9829    163.3072    121.2932   6.7274522608e+01   2.5257282259e+01    0.1536835    0.1227677   1.15 0.0003048376    1.582    0.368
        56  -9.0217    135.0000    119.9971   7.3902913750e+01   3.1620946508e+01    0.2617569   0.08869174 -46.05 0.0006508222    2.909    0.656
        57  -8.7184     85.4263    119.2939   8.8177435543e+01   4.1244256870e+01    0.2496281    0.1809023  59.53 0.0006326067    1.691    0.409
        58 -11.0093     33.6382    108.5531   1.0324909379e+02   5.0588855328e+01    0.3803198    0.2365006 -83.29  0.001816937    1.908    0.476
        59 -10.3984     32.6224    118.2400   1.0532952047e+02   4.8272607085e+01    0.2384763    0.1829609 -72.61  0.001131743    1.211    0.174
        60 -11.8754     80.6579    158.7964   9.7644945429e+01   3.2065462873e+01    0.8264194    0.5127563  64.52 0.0005521602    2.075    0.518
        61  -9.1743    107.8021    118.2103   8.1052756514e+01   3.7520027626e+01    0.2130158    0.2097877 -88.17 0.0003734195    1.061    0.058
        62  -9.9088    231.3938    113.6256   5.2659611095e+01   1.2650378131e+01    0.2668974    0.2371394 -41.72 0.0008388821    1.027    0.027
        63  -9.2639    205.5857    110.0901   5.6054567862e+01   1.8404802863e+01    0.2572988    0.2122803  41.43 0.0007096085    1.349    0.259
        64 -10.3056    115.7247    107.7327   7.6006756118e+01   3.8375199690e+01    0.4595023    0.2061466 -33.22  0.001452151    3.152    0.683
        65  -8.8972    134.6058    106.8000   7.0553483910e+01   3.4609190533e+01    0.2290886    0.1457415 -54.50 0.0009509728    1.718    0.418
        66 -10.5328     33.4996    100.0272   1.0162393917e+02   5.2684452033e+01    0.3155192    0.2275069  30.36  0.001337799    1.560    0.359
        67 -10.6927     38.8699    102.7780   1.0025125516e+02   5.1502176793e+01    0.4632136    0.1596703  33.60   0.00178583    3.032    0.670
        68 -16.9820     13.7202    242.6698   1.2200705221e+02   2.0744248297e+01       6.4943     2.215832  23.53   0.02601018    4.798    0.792
        69  -9.4696     52.8141     90.8454   9.2358594801e+01   5.2784585935e+01    0.1857863    0.1678169 -86.72 0.0004968543    1.326    0.246
        70 -10.1839    111.0583    203.4865   9.6957385453e+01   1.6587121733e+01    0.2445069    0.1938246  87.29 0.0004023934    1.479    0.324
        71  -9.0353     75.1820     85.0030   8.2576429768e+01   5.0899023308e+01    0.2123697    0.1979307  87.57 0.0007318139    1.313    0.238
        72  -8.9901    151.0076     82.9940   5.9930831581e+01   3.5681936275e+01    0.2397181    0.1817545 -77.64 0.0006341295    1.686    0.407
        73  -7.8130     69.4170     81.4510   8.3600874754e+01   5.2579620189e+01    0.1395312     0.133091 -32.49 0.0001977527    1.103    0.094
        74  -8.9652    110.0661     79.8909   6.9644602694e+01   4.5429572729e+01    0.2244857    0.2052427  86.00 0.0006317431    1.289    0.224
        75  -8.7272     54.1076     65.4995   8.4539319019e+01   5.8128732882e+01    0.1884436    0.1297625  28.29 0.0005143496    1.489    0.328
        76 -10.5227     13.4284     59.7373   1.0044921566e+02   6.3411339635e+01    0.2252987    0.1944559 -38.01 0.0004395811    1.098    0.089
        77 -12.7727    191.1967     49.8930   4.3656982565e+01   3.1589462340e+01    0.9125957    0.7721468  29.18  0.001342412    1.531    0.347
        78 -14.5697      9.6557    207.3266   1.2083685607e+02   2.8568146528e+01     1.105724    0.8626673   3.05  0.007201782    1.915    0.478
        79 -11.0347    119.9983    245.1699   1.0059030200e+02   6.7570727587e+00    0.2557237    0.2110056 -89.11 0.0008930804    1.483    0.326
        80 -11.0905    194.1903    197.2164   7.7002290076e+01   3.8901738794e+00     0.831346    0.4525806 -63.72  0.002713417    4.959    0.798
        81 -10.3122    107.5240    204.4591   9.7949945081e+01   1.6934004034e+01    0.2725884    0.1388138 -58.28 0.0007735305    2.081    0.520
        82  -8.8927    198.2113     23.2428   3.6273675226e+01   3.3393507247e+01    0.1776895    0.1260691 -68.09 0.0004966953    1.310    0.237
        83 -10.8099    184.2195    212.1175   8.1793092661e+01   2.8021882822e+00    0.2830366    0.1902098 -10.20  0.001421245    1.752    0.429
        84  -8.9684    189.5062     14.9626   3.5220029557e+01   3.6300377034e+01    0.1738951    0.1192837 -37.17 0.0006521404    1.541    0.351
        85  -8.8383     88.8293    210.0965   1.0317562595e+02   1.8529432714e+01    0.2028995    0.1684859  67.98 0.0003343047    1.173    0.147
        86  -9.2789    142.4841    208.5217   9.0360635068e+01   1.0350344517e+01    0.1405379    0.1292373  25.85 0.0002843153    1.001    0.001
