#   1 NUMBER                 Running object number                                     
#   2 MAG_AUTO               Kron-like elliptical aperture magnitude                    [mag]
#   3 X_IMAGE                Object position along x                                    [pixel]
#   4 Y_IMAGE                Object position along y                                    [pixel]
#   5 X_WORLD                Barycenter position along world x axis                     [deg]
#   6 Y_WORLD                Barycenter position along world y axis                     [deg]
#   7 A_WORLD                Profile RMS along major axis (world units)                 [deg]
#   8 B_WORLD                Profile RMS along minor axis (world units)                 [deg]
#   9 THETA_WORLD            Position angle (CCW/world-x)                               [deg]
#  10 FWHM_WORLD             FWHM assuming a gaussian core                              [deg]
#  11 ELONGATION             A_IMAGE/B_IMAGE                                           
#  12 ELLIPTICITY            1 - B_IMAGE/A_IMAGE                                       
         1 -13.9499     57.7807     63.3396   6.2287338057e+01   5.8555875021e+01     1.879712     1.075731 -23.82  0.007460541    2.826    0.646
         2 -13.0185      7.8428      2.6706   6.2781439946e+01   7.6708141210e+01    0.5241305    0.5136341  32.73  0.004028094    1.449    0.310
         3 -15.7584     11.1665     23.4674   7.0919339018e+01   7.2420699986e+01     1.886968    0.9021943 -39.70  0.007820547    1.813    0.448
         4 -14.4741     27.0978     11.7417   5.5058381757e+01   7.3096210269e+01    0.9060537    0.5885559 -19.28  0.005196942    1.555    0.357
         5 -13.7863    122.1852     36.8330   3.0895936779e+01   5.0414997986e+01     1.027841    0.5471055  36.21  0.002631038    2.356    0.575
         6 -14.1511    166.5737     29.3657   1.9744397318e+01   3.9865287007e+01     1.127878    0.8115059  67.71   0.00399485    1.380    0.275
         7 -14.1622    147.8146     29.5352   2.2829703162e+01   4.4802616598e+01     1.261231    0.8042201  68.84  0.004237676    1.585    0.369
         8 -12.5750    139.5178     21.4133   2.1255436783e+01   4.7995146803e+01    0.8609161    0.2896188  63.96   0.00237112    2.778    0.640
         9 -12.3803    224.9308      3.9715   6.3070673550e+00   2.7995672241e+01    0.4406081    0.2550663  41.50       0.0019    2.423    0.587
        10 -14.2847    217.1110     11.7117   8.9042011534e+00   2.9046832738e+01     1.033936    0.6863472 -72.87  0.003633089    1.476    0.323
        11 -15.0728     99.1920     11.5328   2.5476199100e+01   5.9373188559e+01     1.453381    0.9355838  58.18  0.004436116    1.501    0.334
        12 -12.1621     85.6389     13.8395   3.0352707223e+01   6.2274239314e+01    0.4181504    0.3631729 -53.16  0.002185811    1.341    0.254
        13 -12.2909     60.3145     15.0214   4.0030280865e+01   6.7370645783e+01    0.5247616    0.3104374  25.93  0.002057323    1.983    0.496
        14 -13.2876    187.8408     11.0517   1.1264579054e+01   3.6385577573e+01     1.041232    0.4512289 -37.02  0.004405612    2.044    0.511
        15 -11.6965     46.9296     12.9407   4.4883816083e+01   7.0034527438e+01     0.284505    0.2417654  28.29  0.001261234    1.227    0.185
        16 -13.7797     41.9922      4.3058   4.1983901799e+01   7.2086252259e+01    0.6845087     0.525724   2.64  0.003588519    1.222    0.181
        17 -11.9443     75.3413      8.5803   3.0814701193e+01   6.5165659243e+01    0.3923883    0.2383233 -16.15  0.001921677    1.688    0.408
        18 -11.5853    152.6916      8.6591   1.4468323269e+01   4.5863410484e+01    0.3232564    0.2091032  38.86  0.001524741    1.739    0.425
        19 -10.8383     80.4439      7.6791   2.8699852055e+01   6.4149112779e+01    0.2374416    0.1237037 -27.94 0.0007748998    1.875    0.467
        20 -12.0332    118.4617      2.4474   1.7221332796e+01   5.5435957199e+01     0.432481    0.2569892 -82.75  0.001899811    2.171    0.539
        21 -11.0927     67.3106      3.0140   3.0365819269e+01   6.7486548039e+01    0.2547141    0.1610752  29.96  0.001320675    1.592    0.372
        22 -11.4717    232.4868      1.8572   5.3030865444e+00   2.6473317539e+01    0.2362646    0.1779245  77.96  0.001103089    1.394    0.283
        23 -13.4975    188.7383     25.0271   1.5445543689e+01   3.4612353451e+01     1.267413    0.4712585 -49.21  0.004509917    2.808    0.644
        24 -11.8912     78.1137      2.0757   2.6325208168e+01   6.5249728614e+01    0.8213006    0.1190618  53.84  0.002485853    4.409    0.773
        25 -11.3992     61.6068      1.4638   3.1501675357e+01   6.8821897863e+01    0.3728723    0.1231795  55.53  0.001402254    3.076    0.675
        26 -11.3133    123.0359     10.6638   1.9921799646e+01   5.3484027251e+01    0.3162695     0.207127 -63.58  0.001461102    1.863    0.463
        27 -11.1914    109.3389    183.3327   7.2178780280e+01   2.2504088788e+01     0.127285    0.1041633  -6.19 0.0007051773    1.745    0.427
        28 -12.9479    107.6164    246.4582   7.9597480942e+01   1.1794585041e+01    0.5475793    0.3584839  74.66  0.003605294    1.881    0.468
        29 -12.0998      2.8481    249.6511   9.8032600101e+01   2.3366400721e+01    0.3172681    0.1636085  51.98   0.00173942    1.285    0.222
        30 -13.6840      9.7320    245.6077   9.6791339923e+01   2.3382692286e+01    0.7440527     0.288238  53.48  0.003557875    1.685    0.406
        31 -11.8249     48.7168    181.6428   8.5734159168e+01   3.1389013269e+01     0.332505    0.1830767 -54.96  0.001762912    2.174    0.540
        32 -12.7581    198.4528    181.2270   5.3495390330e+01   7.6912926032e+00    0.2869346     0.269518  76.71  0.001805524    1.482    0.325
        33 -12.6731    124.6116    167.7923   6.6335157261e+01   2.3077903785e+01    0.5487421    0.2518842 -55.27  0.002326816    2.380    0.580
        34 -10.6981    102.0060    161.0000   7.0553527098e+01   2.8361464451e+01    0.2300188   0.07442562  38.32 0.0008034084    2.949    0.661
        35 -12.3111     77.2237    156.7787   7.6073877010e+01   3.3172377175e+01    0.4808051    0.3189773  31.05  0.001579589    1.683    0.406
        36 -13.4413     73.7106    153.4216   7.6497195416e+01   3.4455208904e+01    0.7039306    0.5065027  32.03  0.002973359    1.542    0.351
        37 -12.7553    208.8754    154.4952   4.6388923154e+01   9.9398111453e+00    0.6619604    0.3193788  33.14  0.002895325    2.284    0.562
        38 -11.6455     85.7254    153.0860   7.3365619622e+01   3.2740715839e+01    0.4933486     0.223759 -44.57  0.001909241    2.977    0.664
        39 -12.2942    164.3251    195.4905   6.2450452761e+01   1.1208982979e+01    0.3037444    0.2016242 -83.48  0.001315906    3.603    0.722
        40 -11.5427    103.3741    149.7800   6.8336867634e+01   3.0617601131e+01      0.33427    0.2496855 -37.15   0.00143022    1.651    0.394
        41 -12.2951      9.2331    149.6879   9.2701495352e+01   4.2529015592e+01    0.4762448    0.2729493  11.59  0.002582417    2.640    0.621
        42 -12.4055     60.3126    147.4416   7.9181082582e+01   3.7700827520e+01    0.3515174    0.2750388  17.81   0.00179852    1.686    0.407
        43 -12.2720    111.9684    156.3325   6.7356122617e+01   2.7690125573e+01    0.4381211    0.2711637  80.17  0.001823854    2.541    0.606
        44 -10.7728     38.2211    145.6083   8.4846501004e+01   4.0776205861e+01    0.1560888    0.1265619  18.65 0.0005028322    1.611    0.379
        45 -12.4841     41.0124    137.6070   8.3184592769e+01   4.2398060541e+01    0.3781774    0.1984039  64.74  0.001775122    2.036    0.509
        46 -12.7279    246.5796    134.0020   3.5899587208e+01   6.2659175342e+00    0.3692158    0.3489816 -23.32  0.002491722    1.247    0.198
        47 -12.2732     44.1698    132.8033   8.1696242764e+01   4.3216835271e+01    0.2325117     0.166391 -80.45  0.001012775    1.228    0.186
        48 -12.7323    136.4052    132.2647   5.6619997960e+01   2.8298993699e+01    0.5511621    0.3055973  40.79  0.002332379    1.822    0.451
        49 -11.0873      5.4346    128.8225   9.2270074758e+01   4.7722863251e+01    0.2271808    0.1277455 -45.86  0.001213522    2.232    0.552
        50 -13.7082    234.7727    126.9457   3.6110158881e+01   9.3656613359e+00     0.561936    0.3511756 -55.97   0.00264608    2.386    0.581
        51 -14.6623    105.9325    105.0816   5.8104698596e+01   4.0475880151e+01     1.334119     1.145347 -50.25  0.005807179    1.137    0.121
        52 -13.1224     28.6173    121.9053   8.4884314221e+01   4.7518372790e+01    0.4724545    0.2740783 -63.45  0.002501216    1.533    0.347
        53 -12.5442    180.8607    120.5863   4.4031876227e+01   2.1250425765e+01    0.4453235    0.2263443  53.03  0.001516311    2.146    0.534
        54 -12.9832    223.2486    128.0461   3.8170429776e+01   1.1355733769e+01    0.4083872    0.3263668 -79.38  0.002180225    1.943    0.485
        55 -11.8380      8.4848    114.4940   9.0197122876e+01   5.0979042528e+01    0.2239901    0.1501044  37.11  0.000946633    1.645    0.392
        56 -12.0490      6.2181    118.9242   9.1267889609e+01   5.0054129148e+01    0.3595122      0.27942 -49.90  0.002331854    1.486    0.327
        57 -11.1224      1.5429    119.5007   9.2686783391e+01   5.0219320931e+01    0.2273789    0.1326793 -75.10 0.0007894153    1.386    0.278
        58 -13.1256     84.7214    114.8491   6.6631218286e+01   4.1992258998e+01    0.8765219    0.3766166  37.96  0.002685677    2.438    0.590
        59 -12.3915     78.5312    110.4959   6.7553818519e+01   4.4063183346e+01    0.3730361    0.2885696 -84.01   0.00173225    1.354    0.261
        60 -12.5089     42.2702     90.3840   7.5352896062e+01   5.4015208617e+01    0.3109119    0.2309301 -68.17 0.0003719756    1.170    0.145
        61 -12.5772     36.8896     92.8986   7.7784199820e+01   5.3962967181e+01    0.4491457    0.3148581  11.19  0.001539743    1.888    0.470
        62 -13.4977      2.3359     97.0284   9.0487675238e+01   5.5642796530e+01    0.8568558    0.3663657 -83.18  0.003221801    1.954    0.488
        63 -14.1600     18.1979    111.7679   8.6901114707e+01   5.0932622442e+01     0.782324     0.571852 -52.08  0.003890067    1.449    0.310
        64 -14.1936     11.5516    102.5429   8.7996151106e+01   5.3709855924e+01    0.8585741    0.6280521  87.91  0.004979087    1.171    0.146
        65 -14.7288     22.8146     94.8351   8.3122005321e+01   5.4779435122e+01     1.196371     1.174476 -55.87  0.008190271    1.225    0.184
        66 -12.5965    121.4659    112.0753   5.5608543184e+01   3.5765186990e+01    0.3700654    0.2946671  74.00  0.001359594    1.450    0.310
        67 -11.7263     62.5661    110.5163   7.2540919987e+01   4.6441758905e+01    0.4467408    0.2526681  58.61   0.00195692    2.108    0.526
        68 -12.9660     29.6163     89.4474   7.9782735913e+01   5.5534123950e+01     0.824315    0.4028068  70.09  0.003249961    3.145    0.682
        69 -10.5019     46.3219    110.3111   7.7695576769e+01   4.8560318275e+01    0.1375363    0.0977978 -40.56 0.0007037655    1.651    0.394
        70 -11.0928    222.9374    109.0000   3.3761749528e+01   1.4357959772e+01    0.2134801   0.08063579  52.95 0.0008022754    2.941    0.660
        71 -11.3643     42.7395    106.6793   7.8243735459e+01   4.9878788369e+01    0.2431642    0.1975772 -30.39  0.001383196    1.531    0.347
        72 -12.9439    136.2130    103.1895   4.9489615324e+01   3.4555236385e+01    0.6979255    0.3680087  49.22  0.001887159    1.947    0.486
        73 -12.2077     61.4930     97.7557   7.0218904855e+01   4.9764228211e+01    0.5228169    0.3575566  78.52   0.00195473    1.810    0.448
        74 -14.5131    105.3144    122.2465   6.2377379394e+01   3.6598036588e+01     1.511019     0.918638  43.44   0.00677637    1.659    0.397
        75 -13.1491    120.8944    101.6917   5.3053001920e+01   3.8197800843e+01     0.413848    0.3194859 -30.14  0.001954144    1.461    0.316
        76 -12.1523     49.0018     93.4353   7.3586736736e+01   5.2470546682e+01     0.403904    0.2854474  86.35  0.002065743    1.577    0.366
        77 -11.7919     52.8336     97.6256   7.3136368400e+01   5.0949729429e+01    0.4654803    0.3090172 -15.49  0.001834678    2.443    0.591
        78 -11.1172     48.6628    100.6869   7.5174438466e+01   5.0698321477e+01    0.2601931    0.1969021 -29.86  0.001380997    1.661    0.398
        79 -11.8294     46.1631     98.8175   7.5664686757e+01   5.1462425240e+01    0.3087816    0.2370982 -66.69  0.001298176    1.136    0.120
        80 -11.1792    249.6780     99.3455   2.7695029380e+01   1.0560189149e+01    0.1362876   0.09165226 -53.48  0.000704987    1.734    0.423
        81 -12.2312    163.2182     97.6759   4.1719476979e+01   2.9512156642e+01     0.404189    0.3646286  73.65 0.0006607635    1.200    0.166
        82 -13.2801    137.0926     94.8473   4.6948151096e+01   3.6110878325e+01    0.5385344     0.466043  82.96  0.001794338    1.296    0.228
        83 -13.2591    112.0095    116.8211   5.9304437218e+01   3.6581036321e+01    0.5935314     0.363307  34.15  0.002546926    1.857    0.462
        84 -14.0021    188.2923     82.9099   3.2707227146e+01   2.6254412793e+01     1.623671     1.050397  89.81  0.006558204    2.448    0.591
        85 -13.9911    164.3358     71.5858   3.3855241521e+01   3.4043068696e+01     1.270306     1.014605 -81.37  0.006088911    1.475    0.322
        86 -13.7705    160.8747     80.7543   3.7345790102e+01   3.3252821815e+01     1.214935    0.7025048  21.94  0.003185933    3.451    0.710
        87 -14.0344    169.1717     77.1662   3.4592201246e+01   3.1869260335e+01    0.9035115    0.6007854  35.69   0.00254103    1.795    0.443
        88 -13.0500    237.2796     80.0953   2.4660888138e+01   1.5731854675e+01    0.4570018    0.3059593 -86.91  0.002226542    2.208    0.547
        89 -10.8951     97.9694     84.0660   5.4641659698e+01   4.6861065105e+01    0.2400729    0.1904786  -8.25    0.0011258    1.680    0.405
        90 -12.9716     28.7785    245.9171   9.3583787852e+01   2.1429562090e+01    0.3951254    0.2153715  68.42   0.00279948    1.465    0.317
        91 -13.0401     65.6096     49.3428   5.4102973226e+01   6.0369419868e+01    0.6707245     0.604489 -79.43  0.003634673    1.321    0.243
        92 -13.5128     92.1281     57.5583   4.7615094806e+01   5.3717310968e+01    0.5885766    0.4896401 -34.72  0.001716038    1.160    0.138
        93 -12.8829     54.2448     80.9323   6.8758928724e+01   5.4889384071e+01    0.5754882    0.4786529 -66.88  0.003254768    1.101    0.091
        94 -13.9338     61.3230     75.5471   6.4646084963e+01   5.5196052889e+01     0.774891    0.5321487 -40.17  0.001347567    1.475    0.322
        95 -13.6325     87.4775     65.2642   5.1954112015e+01   5.3055003525e+01     1.043355    0.6714463  12.34  0.003927971    2.722    0.633
        96 -13.1267     70.9975     75.2084   6.0988551691e+01   5.3778687728e+01    0.5994495    0.4227269 -19.06  0.001650303    1.962    0.490
        97 -12.3140     77.1715     73.1046   5.8134073067e+01   5.3223284325e+01    0.5873778    0.3503482 -32.66  0.001882522    2.032    0.508
        98 -12.4255    214.4398     71.3418   2.5429662650e+01   2.1984622496e+01    0.3609053    0.2848031  75.24  0.001835834    1.447    0.309
        99 -13.1201    216.5065     80.7218   2.7618537676e+01   2.0100040419e+01    0.5563295    0.4816273 -23.68  0.002511647    1.103    0.093
       100 -12.8552    210.2965     76.7338   2.7467601242e+01   2.2112707444e+01    0.5949374    0.3959993 -57.04  0.002668383    1.679    0.405
       101 -11.9394    114.0096     80.0153   4.8624351885e+01   4.4403149081e+01    0.4712782    0.3439982 -48.15  0.001652229    1.328    0.247
       102 -12.5703    135.2600     79.1839   4.2711150431e+01   3.9724571861e+01    0.7786334    0.3870735  55.46  0.002923262    2.168    0.539
       103 -11.3890     41.7059     75.9336   7.2310989533e+01   5.7646356694e+01    0.2881762    0.1796021 -62.79 0.0006036316    1.398    0.285
       104 -14.8353      6.3318     70.9134   8.5682287531e+01   6.1821201778e+01    0.9280002     0.686657 -57.98  0.003844441    1.174    0.148
       105 -14.2078      4.2478     63.1400   8.5284429856e+01   6.3810822363e+01    0.7731569    0.6298122 -42.05  0.004112251    1.271    0.213
       106 -10.1708     97.3241     78.6779   5.3186753955e+01   4.8193463486e+01    0.1556988    0.1202114 -87.14 0.0004422677    1.681    0.405
       107 -11.3165     26.9292     75.1602   7.8039250912e+01   5.9316424446e+01    0.5243758    0.2255351 -83.31  0.001906856    3.361    0.702
       108 -13.5764    198.8497     70.0605   2.7359315484e+01   2.5824739721e+01    0.9252397    0.5522067  41.33  0.003185221    1.988    0.497
       109 -10.8819    117.7106     72.0741   4.5012532508e+01   4.5225850970e+01    0.2248653    0.1962478 -38.77 0.0007067943    1.118    0.106
       110 -12.6843    134.9906     65.7965   3.8421841058e+01   4.2358910226e+01    0.6122783    0.5130212  15.68  0.002057305    1.416    0.294
       111 -11.9378     39.1257     67.7541   7.1255546658e+01   5.9910038573e+01    0.4446717    0.2245571  34.49  0.002080949    2.208    0.547
       112 -11.5741     99.9916     65.2494   4.7882450910e+01   5.0514981453e+01    0.2682112    0.2208913 -42.44 0.0007662296    1.161    0.139
       113 -11.3130    199.9270     62.0829   2.4942916200e+01   2.6786550428e+01    0.3340005     0.210351 -25.69  0.001520355    1.591    0.372
       114 -13.0026     79.1375     60.2196   5.3071648766e+01   5.5707873396e+01     0.727167    0.4663699 -42.59  0.003354387    1.462    0.316
       115 -13.4987    177.9759     57.5706   2.7034244730e+01   3.2919933642e+01    0.8739206    0.5827237 -44.43  0.002533178    1.435    0.303
       116 -12.0903     35.4708     54.1378   6.8898371219e+01   6.3501546545e+01    0.4597009    0.3260916  -1.11  0.002497238    1.788    0.441
       117 -11.6849     38.8074     59.9622   6.9188211615e+01   6.1787061230e+01    0.3092519    0.2017858  59.54  0.001526298    2.103    0.525
       118 -11.7661     24.8866     59.3508   7.5223611731e+01   6.3313499402e+01    0.3890049    0.2397121 -59.50  0.001743259    1.332    0.249
       119 -13.8972    100.8439     49.5981   4.1786725310e+01   5.3371528853e+01     1.105466     0.819098  73.22  0.005192337    1.735    0.424
       120 -11.4360    111.2148     58.7683   4.2202804270e+01   4.9321568126e+01    0.2829582    0.2442665  -5.94 0.0005745575    1.300    0.230
       121 -14.3856    120.2516     54.8190   3.8276205933e+01   4.7930779272e+01    0.9150805    0.6547362  37.14    0.0042223    1.538    0.350
       122 -11.4724     17.5718     55.7243   7.7675624804e+01   6.4757276141e+01    0.3365412    0.1737377 -62.10  0.001639309    1.550    0.355
       123 -12.1029    247.8390     54.0013   1.7050259616e+01   1.7095679953e+01    0.5402291    0.2139673 -41.07  0.002346744    2.051    0.512
       124 -11.5117    249.2377     48.5670   1.5592425405e+01   1.7500109110e+01    0.2603779      0.21404  32.42   0.00148439    1.546    0.353
       125 -11.5802     34.9457     59.8633   7.0858290393e+01   6.2229737732e+01    0.5440111    0.1618538 -51.54  0.002049205    2.653    0.623
       126 -11.2759    231.2546     55.4442   1.9144076326e+01   2.0458637632e+01    0.3074663    0.1414076  70.10  0.001294928    2.608    0.616
       127 -12.2442    135.7026     50.0993   3.2773983268e+01   4.4927187287e+01    0.5085635     0.310372  38.10  0.001921935    1.912    0.477
       128 -10.5371     23.5474     49.9567   7.3254638293e+01   6.5623638687e+01    0.1931391    0.1074965 -59.31 0.0004510819    1.486    0.327
       129 -12.1299    151.9970     47.0000   2.8260605683e+01   4.1237619520e+01     0.523193    0.2199014  60.86  0.001650863    2.402    0.584
       130 -12.6707    158.7138     42.9438   2.5623140937e+01   4.0093091646e+01    0.6161512    0.4826584  51.42  0.002353852    1.312    0.238
       131 -10.7453     38.7488     45.9965   6.4606354537e+01   6.4953492505e+01     0.190152    0.1513724 -47.31 0.0004210527    1.083    0.077
       132 -13.2951    204.6654     39.7704   1.7938425189e+01   2.8767263405e+01     1.183219    0.5401524 -85.47  0.003803934    4.084    0.755
       133 -12.6115    212.5484     43.1208   1.7962688806e+01   2.6416951729e+01    0.4745889    0.3476802  57.97  0.001926229    1.487    0.327
       134 -13.7010    219.5442     41.4891   1.6738957621e+01   2.4973270892e+01    0.9564819    0.5628035  86.06  0.003486102    2.042    0.510
       135 -13.1407      6.5567     43.0213   7.9939767093e+01   6.8424393381e+01    0.8250433    0.3981102  17.78  0.004317296    2.483    0.597
       136 -12.5406     55.9968    246.4761   8.8869372725e+01   1.8325487878e+01    0.2550273    0.1293989  43.53  0.001617144    1.457    0.314
       137 -13.7779    171.7764    242.5429   6.7682452074e+01   3.3798575140e+00    0.7090317    0.4118445  27.29  0.004453994    1.504    0.335
       138 -13.2633     98.7013    238.5454   8.0527661234e+01   1.4209362193e+01    0.7323202    0.3232957  36.47   0.00399279    1.887    0.470
       139 -10.7344     25.6377     44.3465   7.0459944689e+01   6.6708779720e+01    0.1890872    0.1502937  79.81  0.001109684    1.642    0.391
       140 -11.0334     68.8725     42.8450   5.0143600528e+01   6.1097326637e+01    0.2106381    0.1808049 -12.53 0.0003244132    1.185    0.156
       141 -11.8843    134.8352     39.2590   2.8971226558e+01   4.6842602404e+01    0.4991251    0.3138694  75.03  0.001490344    1.879    0.468
       142 -12.6468    131.6705     33.2019   2.7334842195e+01   4.8528027246e+01    0.5256001    0.4213429  12.84  0.001575677    1.451    0.311
       143 -12.4871    109.8100     41.9074   3.6108698481e+01   5.2641276456e+01    0.5226589    0.2324631  51.95 0.0006606121    2.233    0.552
       144 -14.0142     92.4328    230.2497   8.0968939545e+01   1.6401732649e+01    0.5149781    0.4529823  53.65  0.003905873    1.160    0.138
       145 -12.7392    113.7436     37.8274   3.3398905009e+01   5.2347458016e+01    0.4650134    0.3276298  55.69  0.001469626    1.430    0.301
       146 -13.0110     43.8297     33.0151   5.6855101235e+01   6.6996203539e+01    0.8304464    0.5405278  30.50  0.004477371    1.694    0.410
       147 -12.1325     40.9342     40.3389   6.1391518258e+01   6.5895884523e+01    0.4597808    0.2982583  23.99  0.002445993    1.769    0.435
       148 -12.7533     32.9489     40.2116   6.5290423785e+01   6.6871755163e+01    0.3256334    0.2692252  -5.21  0.000663463    1.315    0.239
       149 -11.4232    182.0966     38.3000   2.0406797245e+01   3.4651317445e+01    0.2619819    0.2087283 -14.07  0.001330432    1.390    0.280
       150 -12.6713     75.7770     36.9944   4.4933563308e+01   6.0888059039e+01    0.4780967    0.3183568  38.54  0.001365061    1.577    0.366
       151 -11.9109     70.9617     36.2251   4.6419698845e+01   6.1946514215e+01    0.2781373    0.2690621  73.34 0.0009479071    1.222    0.181
       152 -13.0286    242.1729     35.8874   1.3105321502e+01   2.0569367013e+01    0.5821178    0.3728352  80.49  0.002108823    1.764    0.433
       153 -10.9772    104.4201     36.6969   3.5459742876e+01   5.4750867228e+01    0.2866979    0.1338804 -37.38  0.001125746    2.070    0.517
       154 -12.3080    147.6740    239.0958   7.1562687989e+01   7.2588558522e+00    0.1596075    0.1365604  68.82  0.001014365    1.443    0.307
       155 -12.5902     23.7136    216.3666   9.3199911254e+01   2.7151480451e+01    0.6826968     0.248033  52.33  0.003760165    1.999    0.500
       156 -13.8115     26.3598    226.2447   9.3162166066e+01   2.5068165825e+01    0.6191159    0.3392019 -58.07  0.003869066    2.528    0.604
       157 -13.6631    218.0051     28.9384   1.3492078708e+01   2.6897723404e+01    0.8081348    0.4084592 -62.15  0.003478141    2.223    0.550
       158 -13.9298     20.7211    223.9395   9.4096593256e+01   2.6059068630e+01     0.612407    0.4157748  50.26  0.004086471    1.198    0.165
       159 -13.2906    223.9043     20.6264   1.0738330148e+01   2.6472668654e+01    0.3508349    0.2985023  43.01  0.001556354    1.437    0.304
       160 -14.0314     65.4992    223.2253   8.5575624086e+01   2.1133993123e+01    0.8041147    0.6017659  40.47  0.005642049    1.288    0.224
       161 -10.3560     87.7489     27.9526   3.6605122813e+01   5.9885017754e+01    0.1756026    0.1181659 -28.45 0.0004532145    1.454    0.312
       162 -12.3815    120.7013     26.0227   2.6848512345e+01   5.2302332383e+01    0.4920748    0.3957644  56.80  0.002190619    1.220    0.180
       163 -12.4439     31.1028     25.3271   5.9917139959e+01   7.0127754893e+01    0.3752252    0.2194113  11.57  0.001707549    2.239    0.553
       164 -11.8301     36.1302     23.3866   5.6212663545e+01   6.9868918771e+01     0.315504    0.2263644 -32.48  0.001851292    1.218    0.179
       165 -13.5591     57.4951     26.7025   4.7453292663e+01   6.6035451914e+01     1.018069    0.4082262  38.79  0.003281792    2.711    0.631
       166 -14.0009     64.6426    214.2267   8.5050234732e+01   2.2884726266e+01    0.5261608    0.3016049  62.20  0.003070921    1.543    0.352
       167 -12.2109     94.2181    217.9996   7.9468438816e+01   1.8253517325e+01    0.2252118    0.1468687  43.65   0.00139651    1.252    0.201
       168 -12.3447     49.2001     20.1447   4.7848731292e+01   6.8522071997e+01    0.6651058     0.212035  43.91    0.0025078    3.449    0.710
       169 -11.6392     71.0318     16.5620   3.6667876217e+01   6.5060417147e+01    0.2573626    0.2325535 -26.55 0.0007433906    1.139    0.122
       170 -12.6175      4.6370    212.1058   9.6625775032e+01   2.9782415578e+01    0.3700628    0.1928679 -73.73  0.002409615    1.956    0.489
       171 -11.0279    136.6151    210.8017   7.0170799901e+01   1.3181966050e+01     0.152808    0.1180507 -73.40  0.000940112    1.670    0.401
       172 -11.3035    175.8955     13.8250   1.3395975662e+01   3.9199773480e+01    0.1962505    0.1880303  60.44 0.0002639269    1.122    0.109
       173 -13.0342     59.6613    212.4677   8.5913123120e+01   2.3836497967e+01    0.3468204    0.2240085 -53.00  0.001406088    2.080    0.519
       174 -12.5846     57.5947    203.3910   8.5624176515e+01   2.5839301003e+01    0.4897346    0.2310059  84.44  0.002380721    2.571    0.611
       175 -10.2319     55.3487     11.2926   4.0012060388e+01   6.8812561568e+01    0.1369218    0.0926325  12.29 0.0007029725    1.671    0.401
       176 -13.3895     16.0727    198.0273   9.3830690466e+01   3.1461080341e+01    0.8056791    0.2080969 -62.36   0.00337656    4.299    0.767
       177 -14.7406     29.9616    169.2648   8.9051665050e+01   3.6178692393e+01     1.747856     1.089987 -42.97  0.009502875    2.428    0.588
       178 -13.7926     22.2407    181.0197   9.1610920231e+01   3.4385619469e+01    0.7762529    0.3205708 -65.17   0.00397423    2.404    0.584
       179 -15.3312      8.8150    183.0510   9.4629412407e+01   3.5200609680e+01     1.173235    0.9662971  77.77  0.008822937    1.163    0.140
       180 -15.4407     15.5647    174.8023   9.2725721507e+01   3.6355458505e+01     2.127465    0.7505567  57.45   0.01012024    2.433    0.589
       181 -11.8460    200.9868    191.3962   5.4846542108e+01   5.7992365377e+00    0.2898241    0.2056582  23.14  0.001487404    1.278    0.218
       182 -13.9809     39.9348    195.7020   8.8753356697e+01   2.9459601804e+01     0.741972    0.3099416  53.95  0.003830012    1.985    0.496
       183 -11.6852    194.7368     23.0182   1.4167826375e+01   3.3316993246e+01    0.3159655    0.2693962 -36.13  0.001781643    1.138    0.121
       184 -12.0956     97.9944    187.5200   7.5260063532e+01   2.3437785796e+01     0.204306    0.1141355  39.97  0.001026776    1.603    0.376
       185 -12.1021    155.8776    184.8902   6.2423483463e+01   1.4404353867e+01    0.2090716     0.173882  13.36  0.001248665    1.276    0.216
