#   1 NUMBER                 Running object number                                     
#   2 MAG_AUTO               Kron-like elliptical aperture magnitude                    [mag]
#   3 X_IMAGE                Object position along x                                    [pixel]
#   4 Y_IMAGE                Object position along y                                    [pixel]
#   5 X_WORLD                Barycenter position along world x axis                     [deg]
#   6 Y_WORLD                Barycenter position along world y axis                     [deg]
#   7 A_WORLD                Profile RMS along major axis (world units)                 [deg]
#   8 B_WORLD                Profile RMS along minor axis (world units)                 [deg]
#   9 THETA_WORLD            Position angle (CCW/world-x)                               [deg]
#  10 FWHM_WORLD             FWHM assuming a gaussian core                              [deg]
#  11 ELONGATION             A_IMAGE/B_IMAGE                                           
#  12 ELLIPTICITY            1 - B_IMAGE/A_IMAGE                                       
         1 -13.3230    244.5760    110.2746   3.2561032529e+01   8.8517200815e+00     1.569919     1.098906 -58.00  0.007866803    1.644    0.392
         2 -11.0312     39.5151      8.2273   5.1384356501e+01   6.9210348807e+01      0.46669    0.2010628 -29.62  0.002155195    2.121    0.528
         3 -13.1712     44.9946     23.0853   5.5800661692e+01   6.6405879936e+01     1.578194    0.7939181 -50.76  0.007456963    2.841    0.648
         4 -12.0672     78.0943     14.0125   3.8993324774e+01   6.2424461689e+01    0.5482768    0.2832333 -12.79    0.0025778    2.282    0.562
         5 -11.3765     75.9624     25.7241   4.4802950332e+01   6.1324129041e+01    0.4544239    0.3125452 -12.32  0.002537591    1.451    0.311
         6 -10.9457    227.1711     16.3508   1.2259322426e+01   2.6689511216e+01    0.5182959    0.3035684  87.61  0.002628433    1.690    0.408
         7 -10.0885    128.5044     18.0684   2.7081452655e+01   5.1149569554e+01    0.3070201     0.229125  73.05  0.001636948    1.445    0.308
         8  -9.9606     20.1763     15.3782   6.4061678770e+01   7.0265643663e+01    0.4328621    0.1960849  -8.30  0.001831006    3.918    0.745
         9 -12.0067    156.2059     11.7548   1.9777069718e+01   4.4952690719e+01    0.5853224    0.4614872 -88.23  0.003258922    1.329    0.248
        10 -11.9258    177.5749      3.3866   1.4243886024e+01   4.0335225707e+01    0.5099507    0.3830724 -43.81  0.002755062    1.408    0.290
        11 -12.7596    164.9318     11.9345   1.8489492607e+01   4.2720585290e+01    0.9084764    0.4691818  61.40  0.004203338    1.678    0.404
        12 -12.2455    158.5011      3.7355   1.6891178086e+01   4.5129122289e+01    0.9855983    0.3541808  59.66  0.004012887    2.239    0.553
        13 -12.5349    169.5811      2.5806   1.5018397377e+01   4.2432681572e+01    0.8957951    0.5574223 -49.28  0.004609847    1.739    0.425
        14 -10.9479    232.0343      9.3764   1.0185131668e+01   2.6336117603e+01    0.4392553    0.2676593 -77.23  0.002345245    1.582    0.368
        15 -10.7181    223.2488      4.9805   9.9233188906e+00   2.8881201550e+01    0.3618715     0.192525 -50.99  0.001837728    1.745    0.427
        16 -10.7940    121.8786      5.3367   2.3787687891e+01   5.3969928669e+01    0.6095967    0.2174326  63.49  0.002382139    2.612    0.617
        17  -9.6779    121.6817      1.6829   2.2460403628e+01   5.4328760083e+01    0.2584327    0.1632545  37.90  0.001274444    1.492    0.330
        18 -11.5984     85.6888      3.6317   3.1994813668e+01   6.2041533118e+01    0.5927575    0.3141853  48.19  0.002021458    1.653    0.395
        19 -11.1674     79.5178      3.4989   3.3792397489e+01   6.3264190595e+01     0.297213    0.2396507  48.40  0.001312632    1.298    0.230
        20 -11.0167     71.0726      5.8131   3.7619340253e+01   6.4605451808e+01    0.3941368    0.2031467  48.42   0.00184313    1.885    0.470
        21 -11.1513    206.0946      4.4758   1.1396075006e+01   3.3087314790e+01     0.571936     0.136484  66.55  0.002010932    3.310    0.698
        22 -10.1577    116.6600     16.9823   2.9351717008e+01   5.4043275725e+01    0.3135652    0.1918091 -45.31    0.0015209    2.008    0.502
        23 -10.9311    131.2657      3.8471   2.1403664971e+01   5.1862793377e+01    0.6938983    0.1966875  52.93  0.002601945    2.695    0.629
        24 -10.5439    106.3539      4.6884   2.6982399048e+01   5.7578613043e+01    0.4153183    0.2328419  83.29  0.001700381    3.259    0.693
        25 -10.7816     60.8986      2.1313   3.9478629343e+01   6.6751899087e+01    0.4387617    0.1742311  39.36  0.002108366    2.264    0.558
        26  -9.3405     17.5817      1.7549   5.9019979322e+01   7.2520450464e+01    0.1420194   0.09024321 -39.85 0.0009423871    1.592    0.372
        27 -11.4000    143.7012      3.7785   1.9197388841e+01   4.8826564204e+01    0.5922998    0.4078303 -88.84   0.00309129    1.659    0.397
        28  -9.7596     20.9558    155.5036   9.3444586121e+01   4.0221895631e+01    0.1951939    0.1345606 -80.63  0.001239587    1.158    0.136
        29 -10.1839    162.9991    151.7329   5.8142216123e+01   1.8724966427e+01    0.2249652    0.2037913  43.58  0.001183728    1.073    0.068
        30  -9.9060     53.5393    143.5167   8.4037998300e+01   3.9662415115e+01    0.2489439    0.2033305 -77.01  0.001513047    1.054    0.051
        31 -12.0444     11.0007    140.0544   9.4321365410e+01   4.4554334964e+01    0.4838136    0.2432732  80.83   0.00253379    2.025    0.506
        32 -10.2926      2.7745    138.6041   9.6166521063e+01   4.5464536501e+01    0.1473463   0.09523718  48.43 0.0009510951    1.663    0.399
        33 -13.3646    240.9730    125.3719   3.6615966217e+01   7.0615806396e+00     1.376797     1.121425  62.70  0.007579776    1.459    0.315
        34  -9.3525     23.5171    125.9743   8.9563823477e+01   4.6828543385e+01    0.1862697   0.06767004 -52.21 0.0008101445    2.541    0.606
        35 -10.3819      4.6951    124.6671   9.4372666026e+01   4.8498185564e+01    0.2414749    0.1290653  68.05  0.001328296    2.052    0.513
        36 -11.2170     10.3739    121.8740   9.2584350342e+01   4.8764578878e+01    0.2650936    0.1811696  55.20  0.001694007    1.605    0.377
        37 -10.2648    154.8106    120.8725   5.2815896547e+01   2.7086783178e+01    0.2462765    0.2235946   2.43  0.001237352    1.231    0.188
        38 -11.2763    190.1739    114.3000   4.3266742611e+01   2.0249618189e+01     1.000055    0.5102367 -20.88  0.003106228    3.584    0.721
        39  -9.4344      2.3359    116.3074   9.4117762697e+01   5.0542495114e+01    0.1192885   0.06936857 -50.14 0.0007041701    1.675    0.403
        40 -10.8729    212.9472    113.1169   3.8556892839e+01   1.5221931034e+01    0.5732672    0.3031914 -33.93  0.002342977    1.877    0.467
        41 -10.6686      3.4335    230.3509   1.0169937379e+02   2.6330217152e+01    0.1918606    0.1038141  48.45  0.001091483    1.573    0.364
        42 -11.5712    221.9362    107.3554   3.5547671433e+01   1.4229131122e+01     0.538236    0.3136962  40.37   0.00232574    1.956    0.489
        43 -10.1372    148.6060    111.1564   5.1821363179e+01   3.0566889730e+01    0.4057988    0.1893842 -46.29  0.001372473    2.154    0.536
        44 -10.3192     16.8873    104.2133   8.8474096056e+01   5.2385362460e+01    0.2310687     0.157369  45.07  0.001430273    1.731    0.422
        45  -9.8805     46.0209    101.4961   7.9055889935e+01   5.0489276867e+01       0.2929    0.1582067 -81.17  0.001270804    2.471    0.595
        46  -9.9121     30.6814    101.8178   8.3899997888e+01   5.1873938688e+01    0.2581814    0.1550673 -46.02  0.001421701    1.573    0.364
        47  -9.3383    112.4969    100.9873   5.8667372803e+01   4.0504676598e+01    0.2212596    0.1331852 -69.93 0.0008106036    2.604    0.616
        48  -9.4002    209.0963     94.1303   3.4469271222e+01   1.9530998952e+01    0.2313465    0.2076397   2.66 0.0008359432    1.261    0.207
        49  -8.6922    164.7135    134.3579   5.3790374082e+01   2.2004983756e+01    0.1588343     0.123918 -81.80 0.0007022667    1.678    0.404
        50  -9.8656    178.5145     92.5307   3.9930182132e+01   2.7227799238e+01    0.3119898     0.227917 -48.31  0.001426386    1.387    0.279
        51 -10.4971     13.0612     89.8648   8.7444953709e+01   5.5906277064e+01    0.1808649    0.1479618 -88.51  0.001121312    1.256    0.204
        52 -12.3138      4.4677     75.4679   8.7894986643e+01   5.9578480014e+01    0.6775136    0.4055575 -86.98  0.003806015    1.843    0.457
        53 -12.8776     15.0467     73.4344   8.3797337007e+01   5.9431006037e+01    0.7171221    0.6124792  37.24  0.005112495    1.473    0.321
        54 -10.6117      2.6930     88.3817   9.0526125796e+01   5.6819168799e+01    0.3370731    0.1990644 -80.33  0.002025489    1.512    0.339
        55 -10.7331      2.5668     83.6766   8.9866221417e+01   5.7869173976e+01    0.3250144    0.1654747 -67.07  0.001496137    1.476    0.323
        56 -12.8302     42.8779     80.7076   7.5559362068e+01   5.5560692309e+01     1.060177    0.7124419 -31.51  0.005927425    1.554    0.356
        57 -10.0365    193.5467     87.0401   3.5444701186e+01   2.4549896351e+01    0.3869075    0.2285877  68.91  0.001248488    2.080    0.519
        58  -9.4714    100.4172     83.7630   5.7354779496e+01   4.6570051819e+01    0.2143842    0.1336409 -35.61 0.0007211035    1.649    0.393
        59  -9.5155    144.8142     81.0050   4.4266187177e+01   3.7604906009e+01     0.234871    0.1818415  78.77    0.0010656    1.614    0.380
        60  -9.7256    215.1593     79.7189   2.9732530234e+01   2.0568829820e+01    0.2792298    0.1898223 -48.69   0.00131573    1.434    0.303
        61 -10.1363    221.3110     78.2430   2.8385131389e+01   1.9352220697e+01    0.3333374     0.202206 -75.10  0.001323696    2.506    0.601
        62  -9.8923    169.4930     76.4862   3.7289830239e+01   3.2418081567e+01    0.3098094    0.2270865  55.18  0.001436994    1.352    0.260
        63 -10.4070     17.9396    127.8277   9.1270748726e+01   4.6841875504e+01    0.1882526    0.1419216 -59.17 0.0007906971    1.252    0.201
        64  -9.3412    218.4957     71.5184   2.7104017108e+01   2.1114476532e+01    0.1478041    0.1349336 -63.40 0.0008101338    1.035    0.034
        65 -10.6064     75.3498     69.0488   6.0973223230e+01   5.3923323698e+01    0.4524823    0.3151983   8.28  0.002256184    1.810    0.448
        66  -9.9632     83.9626     68.8186   5.7993355269e+01   5.2579069395e+01    0.2639999    0.2000605 -40.22  0.001403459    1.231    0.188
        67 -11.3853    214.4744     66.5780   2.6440829323e+01   2.2872883926e+01    0.3366498    0.2431947 -11.70  0.001580375    1.819    0.450
        68  -9.3420    179.4721     66.4988   3.2387611494e+01   3.1629502056e+01    0.2760607    0.1503426  71.14  0.001036206    2.299    0.565
        69 -10.7166    232.8431     64.1051   2.3203150664e+01   1.8892891020e+01      0.31713    0.1983455  58.24  0.001542249    1.672    0.402
        70  -9.0876    200.2202     63.9561   2.7996380841e+01   2.6806784364e+01    0.2006486    0.1188761 -36.04  0.000868761    1.663    0.399
        71 -10.7913    209.9437     60.6510   2.5576502117e+01   2.4909091423e+01    0.5208607    0.2033485 -40.47  0.001940515    2.378    0.580
        72  -9.0483    132.4750     63.5373   4.1912654729e+01   4.3722832633e+01    0.1493941    0.1453594  22.72 0.0003265205    1.005    0.005
        73 -10.9162     25.4267     65.2507   7.8150551367e+01   6.0473734600e+01    0.3965881     0.206568 -56.98  0.002052089    1.548    0.354
        74 -10.5851    228.6768     60.3236   2.2827009602e+01   2.0439478783e+01    0.2365456    0.1522171 -65.20  0.001106636    1.731    0.422
        75  -9.6801     76.4975     58.9866   5.7298969108e+01   5.5728851309e+01    0.2165353    0.1260668 -42.77  0.001037438    1.604    0.376
        76 -10.6853    198.2036     52.9020   2.5298580140e+01   2.9019049022e+01    0.6361206    0.3855654  -8.22  0.002500679    2.722    0.633
        77  -9.1755    138.2303     55.7651   3.7933618464e+01   4.3679917833e+01    0.2513692    0.1047141  44.10 0.0008855216    2.462    0.594
        78 -11.1378    214.9879     51.5018   2.2452642239e+01   2.5042915917e+01    0.4587421    0.3389623  -0.98  0.002213556    1.944    0.486
        79  -9.5017    164.4795     54.4961   3.1746493607e+01   3.7373229155e+01    0.1498704    0.1443542  57.40 0.0001367422    1.023    0.022
        80  -9.7785    220.7014     53.7386   2.2245421677e+01   2.3323992237e+01    0.2221081    0.1190971  80.60 0.0008955618    2.356    0.575
        81 -10.1871     34.5871     52.8072   7.1147327082e+01   6.2260297546e+01    0.2633414    0.1644164  27.29  0.001531401    1.829    0.453
        82 -11.0463     85.1275     47.8734   5.0398573179e+01   5.6275227043e+01    0.5026388    0.3882726  37.81  0.002701958    1.325    0.245
        83 -11.5517     81.8065     39.7472   4.8454499916e+01   5.8206951035e+01    0.7293167    0.3969219 -42.22  0.003467007    1.916    0.478
        84  -9.4796    196.6670     43.6916   2.2997640040e+01   3.0740681581e+01    0.1470675    0.1093491  33.11 0.0003186989    1.670    0.401
        85 -11.3782      3.3334     41.1787   8.0998755253e+01   6.6765484068e+01    0.4161129    0.3292743 -65.64    0.0027152    1.320    0.242
        86 -10.8417      6.0519     35.4075   7.8170605346e+01   6.7740147692e+01    0.3205605    0.2157577  34.32  0.002150417    2.000    0.500
        87 -11.4865    248.5123    224.5101   5.5385629559e+01  -9.0812788639e+00    0.5015595    0.3107608 -15.17  0.003022531    1.602    0.376
        88 -11.5162     40.1919     29.5917   6.0611472099e+01   6.5944911633e+01    0.4741128    0.2617328 -41.03  0.002008775    1.593    0.372
        89 -11.1588    163.6790    227.2711   7.1597213775e+01   4.3749428937e+00     0.233614    0.1886151  57.48    0.0014474    1.282    0.220
        90 -10.5748    182.4364     39.7759   2.4097062229e+01   3.4918978631e+01    0.4515116     0.179471  67.05  0.001620199    2.603    0.616
        91  -9.4541     97.2879     37.1107   4.2415856837e+01   5.5675375976e+01     0.225362    0.1669566  -5.93 0.0009865889    1.441    0.306
        92  -9.7571    190.6003     35.8031   2.1700347412e+01   3.3358709842e+01    0.2127355     0.122258 -43.95 0.0009567097    1.742    0.426
        93 -10.6370     86.0906     31.8227   4.3883475040e+01   5.8623781439e+01    0.2663218    0.1877112 -25.34  0.001141393    1.380    0.275
        94 -10.0348     90.1692     28.3970   4.1186146605e+01   5.8320928572e+01    0.3008848    0.2330076   6.50  0.001557845    1.276    0.216
        95  -9.4710    229.3092     29.3525   1.5157454085e+01   2.4602453030e+01    0.1302355    0.1032656  31.51 0.0007043782    1.719    0.418
        96  -9.7575     67.3806     28.7530   4.9187976258e+01   6.2335419840e+01    0.1856557     0.108993 -23.95 0.0009535948    1.675    0.403
        97  -9.0814    111.4845    228.5160   8.2008772780e+01   1.2871597613e+01    0.1265167    0.1029937  57.21 7.516584e-05    1.007    0.007
        98  -9.7208     31.7812    227.3966   9.6781086946e+01   2.3958484269e+01    0.1353586   0.09841854  36.97 0.0007295257    1.680    0.405
        99  -9.2241    102.9530     25.9799   3.6404697388e+01   5.6028015291e+01     0.167447    0.1489516  21.18 0.0009996003    1.004    0.004
       100 -11.3878    178.1898     23.8982   2.0114526164e+01   3.8023626458e+01    0.4641186    0.3558376  60.00  0.002503787    1.216    0.178
       101 -11.1407    173.2675     20.8428   1.9943349494e+01   3.9637865252e+01     0.351383    0.2137197  69.73  0.001030049    1.528    0.346
       102  -9.6325    224.3318     22.7507   1.4081553343e+01   2.6608502890e+01    0.2360973    0.1844615  78.79   0.00136944    1.202    0.168
       103  -9.6583    187.4998     19.6390   1.7586668875e+01   3.6132542422e+01     0.282656     0.164791  73.20  0.001335371    1.613    0.380
       104 -12.5180    209.0338    216.0119   6.1037224280e+01  -1.6863861683e+00    0.6787905    0.4488601  14.29  0.003696324    1.651    0.394
       105 -12.9084    183.3006    216.5932   6.6094520833e+01   2.6769144053e+00    0.5321681    0.4681209  -3.15  0.003388642    1.218    0.179
       106  -9.9360     94.2007     17.1699   3.5340151558e+01   5.8915880738e+01    0.2995517     0.209174 -89.40  0.001386695    2.825    0.646
       107 -11.1210     50.6024    218.1817   9.2720281247e+01   2.3531401048e+01    0.3219766    0.2152492  54.29   0.00211382    1.259    0.206
       108  -9.2012     64.6346     16.3157   4.4794909827e+01   6.4496735006e+01    0.1116155    0.1021423 -73.21 0.0007039456    1.771    0.435
       109 -10.1925     66.8831    217.3060   8.9538839728e+01   2.1601084229e+01    0.2100907    0.1214799  58.56  0.001209529    1.469    0.319
       110 -11.2229    158.8605    225.3991   7.2270592841e+01   5.5093976315e+00    0.2302712     0.195418 -34.13  0.001210121    1.421    0.296
       111  -9.7737    141.1406    206.2964   7.3035431000e+01   1.1998590873e+01    0.2512522    0.1562158 -37.24  0.001224595    2.125    0.529
       112 -12.2182    247.3295    183.3793   4.7960034382e+01  -3.3639397250e+00     1.077059    0.4559622 -40.83  0.004739058    2.502    0.600
       113 -12.2582    244.0734    200.4472   5.1820810423e+01  -5.2647132941e+00    0.8037235    0.6434622 -32.28  0.004611317    1.387    0.279
       114  -9.5249    250.5204     11.5228   9.1512261851e+00   2.1897186169e+01     0.126784    0.1030433 -69.39 2.379343e-05    1.002    0.002
       115 -10.2691    247.8884     16.1485   1.0369054453e+01   2.1941830066e+01    0.2115047    0.1430262 -62.86 0.0008933819    1.291    0.225
       116 -11.0655    247.4728    192.6168   4.9738635114e+01  -4.7162880150e+00    0.4288248    0.3173151  40.06  0.002581069    1.454    0.312
       117  -8.8214    203.3421    205.3097   6.0249119086e+01   9.2167718883e-01    0.1385756   0.09479707  10.73  0.000704474    1.695    0.410
       118  -9.1069    146.3173    202.3389   7.1334387251e+01   1.1815918327e+01    0.1342293    0.1067639   3.48 0.0004526042    1.705    0.414
       119 -10.0999     24.0189    198.7433   9.6315744379e+01   3.0490499153e+01    0.1389109   0.08732305  44.09 0.0008937771    1.578    0.366
       120  -9.5115    202.8356    197.1048   5.8854888735e+01   2.3224209613e+00    0.1979686    0.1854002  48.36  0.001224748    1.242    0.195
       121  -9.4982     86.5051    197.5113   8.3442877642e+01   2.2863632339e+01     0.130457    0.1117914  71.43 0.0001079286    1.031    0.030
       122 -10.4042    204.5105    192.8179   5.7725021558e+01   2.7169255737e+00    0.4547753    0.1571272  35.59  0.001604268    3.114    0.679
       123 -11.0158    194.8992    186.0080   5.8335040106e+01   5.6675474797e+00    0.6296783    0.2343059  42.79  0.002391572    2.503    0.600
       124 -10.2682     37.2910    185.6023   9.2622200591e+01   3.1876097714e+01    0.1859599    0.1527277  36.17 0.0009582621    1.507    0.336
       125  -9.7035     26.5231    180.5101   9.4432602618e+01   3.4117407022e+01    0.1203759    0.0921712  83.41 0.0001657685    1.006    0.006
       126  -9.5810    172.4872    163.4965   5.8532671657e+01   1.4337390221e+01    0.1477335    0.1415319  44.65 7.287222e-05    1.037    0.036
       127  -9.9280     14.7173    160.1491   9.5271593593e+01   3.9714124651e+01    0.2000022     0.118274  84.77  0.001033758    1.447    0.309
       128 -10.6605    219.7011    155.8584   4.7236863578e+01   6.0960449154e+00    0.4840488    0.2699496  59.31  0.001975024    2.563    0.610
