#   1 NUMBER                 Running object number                                     
#   2 MAG_AUTO               Kron-like elliptical aperture magnitude                    [mag]
#   3 X_IMAGE                Object position along x                                    [pixel]
#   4 Y_IMAGE                Object position along y                                    [pixel]
#   5 X_WORLD                Barycenter position along world x axis                     [deg]
#   6 Y_WORLD                Barycenter position along world y axis                     [deg]
#   7 A_WORLD                Profile RMS along major axis (world units)                 [deg]
#   8 B_WORLD                Profile RMS along minor axis (world units)                 [deg]
#   9 THETA_WORLD            Position angle (CCW/world-x)                               [deg]
#  10 FWHM_WORLD             FWHM assuming a gaussian core                              [deg]
#  11 ELONGATION             A_IMAGE/B_IMAGE                                           
#  12 ELLIPTICITY            1 - B_IMAGE/A_IMAGE                                       
         1 -12.9304    204.2979     28.6173   4.2167486679e+01   3.0934282702e+01     8.543916    0.3196961 -33.23   0.02168977    6.702    0.851
         2 -14.0467    170.8831     81.7168   6.2107660187e+01   3.1167390850e+01     2.465477     2.089044  36.66  0.007645669    1.243    0.196
         3 -15.0461    223.0891     81.1605   5.2817258164e+01   1.9078946319e+01     10.39665     1.784422 -44.62   0.02469721    6.286    0.841
         4 -14.6701    219.7314     31.2385   4.1091270369e+01   2.7007195340e+01     3.072042     1.326686 -28.84   0.01335042    2.474    0.596
         5 -15.1092    238.8812     29.1049   3.8707521018e+01   2.3009401590e+01     2.839348     0.875437 -30.90   0.01106001    3.254    0.693
         6 -16.2155    244.4625     56.1700   4.4203126202e+01   1.8246125606e+01     7.495913     3.086971  56.43  0.009003611    2.621    0.618
         7 -14.2931    249.4026     23.5751   3.6606358683e+01   2.1451681118e+01     1.413209      0.37357 -36.68  0.005791052    2.976    0.664
         8 -11.4417    126.4923     29.4002   5.5136946586e+01   4.9928813232e+01     0.943792    0.2192172 -35.08  0.002992016    4.088    0.755
         9 -11.4091    129.6495     21.8997   5.1804118552e+01   5.0031848368e+01    0.5152972     0.468068  21.97  0.001717864    1.116    0.104
        10 -10.1421    135.6701     14.9120   4.8203831040e+01   4.9296361839e+01    0.4228333    0.3116134  28.20  0.002318939    1.460    0.315
        11 -11.0603    142.7593     11.4797   4.5807721893e+01   4.7893406237e+01     1.144336     0.344454 -19.50  0.003765478    4.291    0.767
        12 -10.0822    125.3974     14.6129   5.0090065276e+01   5.1798045278e+01    0.3380805    0.2979358 -33.13  0.002060516    1.271    0.213
        13 -11.9542    118.7320      9.3165   4.9527639097e+01   5.3868252249e+01    0.7474542    0.6119086  66.15  0.002569027    1.200    0.167
        14  -9.3168    156.0539     12.1497   4.3921331505e+01   4.4553615252e+01     0.340168     0.197691  -2.49  0.001110733    2.450    0.592
        15  -9.7459     92.5478      9.8056   5.5959118857e+01   5.9702851910e+01     0.252634    0.1699168 -20.73  0.000725368    1.573    0.364
        16 -10.1354    248.6030      1.7908   3.2159010461e+01   2.4045914945e+01    0.2784511    0.1627261 -87.74 0.0007941735    1.579    0.367
        17 -14.2632    244.7778     76.8587   4.8855013483e+01   1.5142835184e+01     2.118015    0.7680696 -33.74 0.0009958396    2.556    0.609
        18  -7.9394    243.7060    244.6820   8.3370690331e+01  -1.0152720239e+01    0.1189823   0.07070953   3.34 0.0002811041    1.606    0.377
        19  -8.4541    214.6780    234.0936   8.6860156691e+01  -4.8002367934e+00    0.1669805     0.132134   2.38 0.0004869852    1.096    0.088
        20  -9.1550    213.0970    216.4073   8.4146022909e+01  -2.0327677101e+00    0.2775737    0.2296777  74.04  0.001278408    2.243    0.554
        21 -10.5298    232.9914    210.0832   7.9302679146e+01  -4.1478141825e+00    0.2622559    0.2084878 -16.32            0    1.163    0.140
        22  -9.0661    201.2927    211.1138   8.5496004505e+01   6.6567013364e-01    0.2257482    0.1695596  35.90 0.0001815386    1.288    0.224
        23  -9.0199    202.5525    206.5426   8.4425333686e+01   1.1897008618e+00     0.225881    0.1933796   7.65  0.000166546    1.014    0.014
        24  -9.5942    204.2456    174.8375   7.7935595148e+01   6.2858969915e+00    0.3919078    0.2974748  88.98  0.001788787    2.583    0.613
        25  -7.6270    120.2576    172.2984   9.6358792877e+01   2.2526226143e+01    0.1381976    0.1136953 -17.98 0.0002391499    1.503    0.335
        26  -8.2325     56.5068    172.1233   1.1215465560e+02   3.2216369262e+01    0.1777825    0.1184677 -69.56 0.0003361073    1.376    0.273
        27  -8.7643    187.5403    170.0749   8.0383056822e+01   1.0285764687e+01    0.2647512    0.2013962  54.65 0.0006788304    1.558    0.358
        28 -11.8908     11.2929    165.3630   1.2226392733e+02   3.8356080037e+01    0.6042708     0.426918  57.94  0.002726064    1.367    0.269
        29 -11.7281     15.4983    160.8967   1.2089971112e+02   3.9050655773e+01    0.6258106    0.3449126  86.91  0.002345054    1.673    0.402
        30 -11.6171      9.7336    160.0277   1.2219127151e+02   3.9709503118e+01    0.5377159    0.3659877 -47.75  0.002449708    1.709    0.415
        31  -8.4856    214.1199    167.6234   7.4489199829e+01   5.7582880164e+00    0.2610029    0.1306083  50.53  0.001071525    2.487    0.598
        32  -9.1246    203.6685    160.8894   7.5100328685e+01   8.9178172263e+00    0.2636874    0.2093455  43.99 0.0006650786    1.348    0.258
        33  -8.3403    178.2199    155.8473   7.9332590470e+01   1.4897199857e+01    0.2512396    0.1748773  89.47 0.0009561057    2.931    0.659
        34  -9.0799    204.7860    153.3371   7.3220258097e+01   1.0094794626e+01    0.4361033    0.2621552 -61.83     0.001677    2.921    0.658
        35  -8.8762    136.1134    154.6937   8.8974512781e+01   2.3557514762e+01    0.2890296    0.2144822 -70.42  0.001279249    1.651    0.394
        36  -8.4695    198.5464    153.4642   7.4501671204e+01   1.1296713970e+01    0.1482027    0.1350529  -7.15  0.000171124    1.024    0.024
        37  -9.6416    192.3273    152.6679   7.5604246604e+01   1.2686273285e+01    0.2661105    0.2025087 -47.81 0.0008643027    1.396    0.284
        38  -9.1656    190.6658    149.3479   7.5203446468e+01   1.3663816150e+01    0.2956011    0.2125206 -68.38  0.001301052    2.089    0.521
        39 -12.3513     67.6963    143.5484   1.0506465066e+02   3.7702429831e+01     1.695977     1.192281 -78.21  0.006179593    1.451    0.311
        40 -11.1763     41.9409    150.0370   1.1305693863e+02   3.9181577764e+01    0.3400847    0.3174393 -13.27 0.0008401825    1.339    0.253
        41 -12.4001     50.1464    146.5391   1.1037342371e+02   3.9137592922e+01    0.8717487    0.7238698 -75.71  0.002968092    1.061    0.057
        42 -11.5788     57.0992    143.8482   1.0805917093e+02   3.8980917845e+01    0.7190859    0.3928544 -77.41  0.001684241    1.970    0.492
        43  -9.1976    172.7021    150.0477   7.9260417761e+01   1.7196482544e+01    0.2194973    0.2012969 -32.47  0.001164257    1.080    0.074
        44  -9.5367    134.0959    147.3180   8.7893593545e+01   2.5617719487e+01    0.4932148    0.2201952 -55.32  0.001735817    2.547    0.607
        45 -10.0955    133.2480    140.6184   8.6612456164e+01   2.7309832480e+01    0.6931699    0.2485293 -49.03   0.00226536    2.794    0.642
        46  -9.9416    144.4548    146.5544   8.5130606505e+01   2.3725599849e+01    0.4704111    0.2960789 -82.13  0.001571045    3.487    0.713
        47  -9.6705    192.1137    144.0289   7.3684506637e+01   1.4401875804e+01     0.249685    0.2412519 -58.06 0.0003999036    1.163    0.140
        48  -8.8190    166.9439    143.9164   7.9163295230e+01   1.9660547658e+01    0.2352228    0.1923403 -87.50  0.000665576    1.654    0.396
        49  -9.6943    211.0448    136.8842   6.8270739993e+01   1.1888448608e+01    0.2966169    0.1957002  49.48  0.001403613    1.664    0.399
        50 -12.3844    184.4762    126.7149   7.1161814738e+01   1.9422423280e+01     1.104553    0.7366991 -40.22  0.003376838    1.450    0.310
        51 -10.2929    186.1465    119.5105   6.9022597871e+01   2.0473103970e+01    0.3949525     0.289488 -54.01   0.00112879    1.492    0.330
        52 -10.7715    135.8411    127.5769   8.2854632148e+01   2.9739867757e+01    0.7519873    0.3233081 -50.41  0.002617239    2.421    0.587
        53  -8.7331    140.3006    132.2734   8.2851132728e+01   2.7761892782e+01    0.2253907    0.2032219 -56.00 0.0002944866    1.140    0.123
        54  -8.9268    139.5784    128.5439   8.2128781345e+01   2.8745773831e+01    0.2545584    0.2215207 -35.29 6.957711e-05    1.150    0.130
        55 -10.7477    160.4324    128.7600   7.7050176811e+01   2.4246680666e+01    0.4751934    0.3976595 -22.94  0.002334868    1.257    0.204
        56 -10.2357    196.2890    128.2369   6.9099881048e+01   1.6577231229e+01    0.3623666    0.2691303 -49.66 0.0003538441    1.408    0.290
        57 -10.2814    204.1845    127.2114   6.7303076846e+01   1.5096476614e+01    0.3647905    0.2459766 -38.91  0.001516003    1.398    0.285
        58  -9.6765    201.4629    124.3473   6.7139273134e+01   1.6210829590e+01    0.3178711    0.2586361  31.95   0.00093083    1.306    0.234
        59  -8.5277    225.9646    130.4830   6.4087799106e+01   1.0063924991e+01    0.1961422     0.143334  49.54  0.001005491    1.533    0.347
        60  -9.3285    154.3996    125.7102   7.7732798605e+01   2.6206349409e+01    0.3764527    0.1938308 -48.46  0.001429825    2.001    0.500
        61  -8.0421     94.8304    127.2148   9.4090264423e+01   3.7606345724e+01    0.2004951    0.1719588 -27.26 0.0004756733    1.268    0.211
        62  -8.8028    217.2930    121.4062   6.3494833015e+01   1.3421051464e+01    0.2343411    0.1654866 -55.13 0.0003316244    1.611    0.379
        63  -8.5127    143.2494    122.5649   7.9701658591e+01   2.9294173478e+01     0.315048    0.1525945  48.63  0.001150564    2.179    0.541
        64  -7.9358    102.4926    121.9803   9.0662157984e+01   3.7526853555e+01    0.2003079    0.1345963 -80.51 0.0005505444    2.216    0.549
        65 -11.3393    134.7269    110.9497   7.8879629592e+01   3.3668173467e+01    0.9702893     0.377745 -42.64  0.003248871    2.547    0.607
        66 -10.5072    134.2507    100.4222   7.6115169717e+01   3.6034193968e+01    0.5928917    0.3719765 -63.00  0.001528582    2.219    0.549
        67  -8.5965    215.5191    116.9491   6.2747033860e+01   1.4589131979e+01    0.2169803    0.1980841  46.12 0.0006307309    1.187    0.158
        68  -9.8518    164.1952    116.4963   7.3063816592e+01   2.5984247444e+01    0.3096871    0.2237329 -40.69  0.001411805    1.357    0.263
        69 -10.2352    175.5957    114.6235   7.0023382059e+01   2.3797681454e+01     0.679099    0.3957715  74.73   0.00216064    3.737    0.732
        70  -9.8595    169.1640    115.1670   7.1587018512e+01   2.5139104960e+01    0.3522077    0.2889867 -79.60   0.00136303    1.546    0.353
        71 -11.0206    207.9204    102.4529   6.0545196924e+01   1.8822134810e+01        1.106     0.580599  71.78  0.003798143    3.514    0.715
        72 -10.0731    202.5395    104.4121   6.2005736107e+01   1.9666477219e+01    0.4286644    0.3048892 -61.81    0.0017329    1.694    0.410
        73  -7.9892    178.4633    110.4984   6.8337536599e+01   2.3963189472e+01    0.1556884     0.147364  -9.56 0.0001810163    1.065    0.061
        74  -8.7029    172.9139    108.1739   6.8925215332e+01   2.5687841180e+01    0.2293084    0.2051947 -72.01 0.0004363389    1.251    0.200
        75 -11.0219    113.6406    105.0958   8.3119712068e+01   3.9329449183e+01    0.5601608    0.4162336 -84.44  0.002429939    1.995    0.499
        76  -9.7630    147.6473    104.2703   7.3756611020e+01   3.2246547913e+01    0.3212225    0.2753893  45.84 0.0008874722    1.183    0.155
        77  -8.6494     86.1133    101.6448   9.0554375860e+01   4.5135747428e+01    0.1978155    0.1833315  20.68 0.0003190638    1.137    0.120
        78 -10.4157    156.9128    100.4565   7.0466089882e+01   3.0910679523e+01     0.530407     0.289612  41.74  0.002089877    1.915    0.478
        79 -11.4573    171.7449     94.6761   6.5542109194e+01   2.8574691337e+01    0.8135484    0.5834633  21.66   0.00357263    1.813    0.448
        80 -10.1842    141.0430     95.0085   7.2812865496e+01   3.5643583425e+01     0.347381    0.3128378 -87.47   0.00098991    1.284    0.221
        81  -9.5911    196.8700     96.5920   6.1053927483e+01   2.2362232753e+01    0.2667299    0.2021697 -27.18  0.001297438    1.355    0.262
        82 -10.8143    155.3731     91.8040   6.8397326860e+01   3.2976981406e+01    0.3465871    0.2728056 -32.35  0.001149578    1.283    0.221
        83  -9.1397    193.8550     91.1165   6.0183615971e+01   2.4037418026e+01    0.2281535    0.1963703 -59.62 0.0004251826    1.202    0.168
        84 -10.9052    207.1188    109.9583   6.2552994094e+01   1.7649454401e+01     0.735179    0.4382326  53.01  0.003277855    1.813    0.449
        85 -10.3296    102.9592     81.9522   7.9597421511e+01   4.6433735624e+01    0.2262183    0.2120333 -19.76  0.001233407    1.014    0.013
        86 -13.8535    249.5028     34.0222   3.8824031894e+01   2.0150817568e+01    0.5088701    0.4627067 -38.15  0.001153519    1.254    0.203
        87  -8.0663    131.6439     71.7067   6.8191520367e+01   4.2291820674e+01    0.1593345    0.1168875  16.56 0.0007030746    1.690    0.408
        88  -9.9631    125.5067     69.6905   6.9164789703e+01   4.4052730391e+01    0.3806933    0.1442336 -40.16  0.001313004    2.635    0.620
        89  -9.5584    203.3169    201.9165   8.3424986900e+01   1.8135054465e+00    0.2415066    0.1756761  24.52 0.0002751552    1.257    0.205
        90  -9.0212    131.4745     66.4922   6.6565405136e+01   4.3259895437e+01    0.1505734    0.1442082  16.10 6.551656e-05    1.012    0.012
        91 -10.0210    141.7567     64.5897   6.3421661484e+01   4.1170205604e+01    0.3894186    0.1478473  55.33  0.001317327    2.720    0.632
        92 -10.9154    220.7079    176.9563   7.5171234064e+01   2.9881302954e+00    0.5294273     0.427871 -77.91  0.002500825    2.180    0.541
        93 -10.0540    220.2607    171.5071   7.4132129479e+01   3.9860328499e+00    0.3795827    0.3452979  74.21  0.001386461    1.563    0.360
        94  -9.3394    187.1609     59.0487   5.2697175440e+01   3.0953151508e+01    0.2498152    0.2104395  63.79 0.0006799714    1.178    0.151
        95  -9.9183    195.6336    175.1526   7.9747538057e+01   7.8145228106e+00    0.5576042    0.3796686  86.73  0.001968341    4.263    0.765
        96  -9.9434    166.0096     35.6272   4.9488380031e+01   3.9463910818e+01    0.5230335    0.3813309  17.39  0.002596962    1.794    0.443
        97  -9.5289    158.5128     37.2605   5.1289860510e+01   4.1123409689e+01    0.3695571    0.1713381  59.96  0.001523725    1.992    0.498
        98  -8.2323     92.0000     33.9929   6.6088617024e+01   5.6995316942e+01    0.2159398   0.07578523 -31.79 0.0007970053    2.905    0.656
        99  -8.8578    159.3439     32.9199   4.9801963581e+01   4.1463220074e+01    0.1910286    0.1771761 -21.76 0.0005351703    1.171    0.146
       100 -10.4552    242.2450    199.9831   7.5766205695e+01  -4.0746408167e+00    0.3718909    0.2886596  55.85  0.002113788    2.100    0.524
       101 -10.1001    192.7354    194.4740   8.4159978631e+01   4.8831026436e+00     0.814122     0.410969 -60.64  0.002481688    5.646    0.823
       102 -10.2721    134.0383     20.0199   5.0265394424e+01   4.9173954431e+01    0.3131177    0.2919844  35.36  0.001072848    1.068    0.064
       103 -10.1089    170.6861    196.9102   8.9239106477e+01   8.3468576361e+00    0.2431141    0.2290898 -16.49 0.0003875348    1.115    0.103
       104  -9.2740    112.1598     30.0603   5.8829524488e+01   5.3173857737e+01    0.2227992    0.1724439  20.96 0.0007478614    1.313    0.238
       105  -8.8750    161.8478     27.6604   4.7769140696e+01   4.1468767839e+01    0.2125953    0.1910014   6.43 0.0003543068    1.270    0.213
       106  -8.8113    177.4063     25.5020   4.4777738017e+01   3.7848838901e+01    0.2557868    0.1578682  53.12 0.0007382227    1.573    0.364
       107  -9.5433    113.1262     22.3046   5.5661647106e+01   5.3867084240e+01    0.3768713   0.09200904 -25.62  0.001163295    4.564    0.781
       108  -8.0279    122.8299    195.2256   9.9622662560e+01   1.7088532296e+01    0.1691285    0.1556064  -0.10 0.0002587095    1.241    0.194
       109  -9.6139    210.5404     16.3221   3.8437961313e+01   3.0876134649e+01    0.2415018    0.1948359 -79.01 0.0005047217    1.105    0.095
       110  -9.5034    229.5135    194.1001   7.6935241804e+01  -1.2337292397e+00    0.3712732     0.168801  52.40  0.001352354    4.197    0.762
       111  -8.8193     55.3477    188.0242   1.1427068824e+02   2.8677947336e+01    0.1774407    0.1657354  58.93 0.0002702166    1.189    0.159
       112  -8.1445    163.1560     14.1397   4.3489215695e+01   4.2600534759e+01    0.1687911    0.1430545 -67.90 0.0003321002    1.223    0.182
       113 -10.5446    208.3245    184.4421   7.9073162680e+01   3.8808929484e+00    0.5076139    0.3269642 -63.17  0.002140436    3.030    0.670
       114 -10.6296    215.9588    183.1214   7.7323826974e+01   2.7773435070e+00    0.2963007    0.2721126  -9.20 0.0007636879    1.137    0.121
       115  -8.8996    192.1436    181.6821   8.1792515979e+01   7.2664362574e+00    0.2143283    0.1861161 -39.28 0.0003048392    1.244    0.196
