#   1 NUMBER                 Running object number                                     
#   2 MAG_AUTO               Kron-like elliptical aperture magnitude                    [mag]
#   3 X_IMAGE                Object position along x                                    [pixel]
#   4 Y_IMAGE                Object position along y                                    [pixel]
#   5 X_WORLD                Barycenter position along world x axis                     [deg]
#   6 Y_WORLD                Barycenter position along world y axis                     [deg]
#   7 A_WORLD                Profile RMS along major axis (world units)                 [deg]
#   8 B_WORLD                Profile RMS along minor axis (world units)                 [deg]
#   9 THETA_WORLD            Position angle (CCW/world-x)                               [deg]
#  10 FWHM_WORLD             FWHM assuming a gaussian core                              [deg]
#  11 ELONGATION             A_IMAGE/B_IMAGE                                           
#  12 ELLIPTICITY            1 - B_IMAGE/A_IMAGE                                       
         1 -16.6416    189.1752     90.1125   4.4979603810e+01   2.4672659032e+01     3.550733      2.22246 -29.50  0.008109806    1.696    0.410
         2 -15.3389    215.7185     26.3724   2.2613728383e+01   2.7371613316e+01      1.91423     1.074243  41.14  0.007327406    2.157    0.536
         3 -18.6597    242.4674     44.0983   2.4001040876e+01   1.8337339236e+01      10.0767     5.829226 -24.78   0.04181771    1.839    0.456
         4 -15.7814    232.5884     37.4923   2.3499245138e+01   2.1649514006e+01     1.724945    0.9834605  -8.76  0.006988186    2.652    0.623
         5 -11.7366    176.6724     24.7156   2.7715487336e+01   3.7944237819e+01    0.5143632    0.4039433  24.77  0.002608152    1.439    0.305
         6 -11.8447    211.9300     13.5831   1.9568126915e+01   2.9838257017e+01    0.3574582    0.2500329 -65.37 0.0004031858    1.480    0.324
         7 -11.8068    208.0553      8.3308   1.8567011978e+01   3.1411555386e+01    0.3036916    0.2470224 -24.98 0.0005501087    1.359    0.264
         8 -11.9211    156.5275     11.0341   2.6602012990e+01   4.4769908425e+01    0.5905882    0.2879747  -4.65  0.002228192    2.994    0.666
         9 -13.6688    191.4594    151.9038   5.9752448033e+01   1.2929328824e+01    0.8116669    0.3817273 -56.83  0.002624461    3.975    0.748
        10 -13.3005    209.2370    186.8391   6.3308966570e+01   3.6058998458e+00    0.5643647    0.4112477 -73.64   0.00275355    2.555    0.609
        11 -13.7747     67.8252    142.3406   8.6004937214e+01   3.8070865318e+01      1.13672    0.8828136  65.72  0.005133898    1.244    0.196
        12 -13.1533     40.2160    151.1237   9.3455152197e+01   3.9435286196e+01    0.3000574    0.2737819 -40.66 0.0009795218    1.520    0.342
        13 -14.3304     48.2663    147.5336   9.1244470707e+01   3.9329508404e+01    0.7552267    0.5828305 -74.82  0.002758329    1.135    0.119
        14 -13.6209     55.1708    145.1446   8.9362461878e+01   3.9048042772e+01    0.6282011    0.3486413 -75.25  0.001529713    1.644    0.392
        15 -12.4460    172.9195    150.1584   6.3228936882e+01   1.7271020718e+01    0.3175866    0.2199879 -36.32  0.001013604    1.589    0.371
        16 -11.8227    133.3855    143.8223   7.0707044491e+01   2.6804215488e+01     1.045842    0.2575341 -55.61  0.002425061    6.905    0.855
        17 -13.2608    190.3161    131.5265   5.5378587722e+01   1.6850491903e+01    0.4560453    0.3790048  79.04   0.00226942    1.469    0.319
        18 -12.2013    136.0011    128.5681   6.6832695061e+01   2.9489066141e+01    0.7048315    0.1925318 -49.54   0.00207047    3.867    0.741
        19 -11.6482    135.1528    120.4951   6.5176429167e+01   3.1374877543e+01    0.4583541    0.2072801 -48.10  0.001379146    2.241    0.554
        20 -13.3989    134.7589    107.5855   6.2098626708e+01   3.4183454808e+01     1.292635    0.2515093 -46.28  0.003163215    5.225    0.809
        21 -11.9328    134.2856     99.9825   6.0228533478e+01   3.5871041320e+01    0.3585718    0.3118047 -79.40 0.0007988419    1.291    0.225
        22 -13.2518    217.3596    188.4595   6.2108314143e+01   1.8146108737e+00    0.4865526     0.307163  15.63  0.002409222    1.925    0.481
        23 -12.3237    218.8824    128.7742   4.9133128024e+01   1.0822578940e+01    0.3042456    0.2752475 -55.68 0.0004436181    1.266    0.210
        24 -13.1593    161.3315    128.1585   6.0837602025e+01   2.4099771091e+01    0.5054445    0.4427338  23.13  0.002107017    1.242    0.195
        25 -11.8510    218.3800    122.5525   4.7736028288e+01   1.1975108692e+01    0.2628919    0.2305791 -37.35 0.0005571754    1.171    0.146
        26 -11.4298    178.5403    122.8524   5.5766853287e+01   2.1194699119e+01    0.3126525    0.2045083  66.41 0.0008540939    1.913    0.477
        27  -9.5335     47.6833    172.6849   9.4118435457e+01   3.4062857877e+01    0.1057625   0.08575861 -51.20 0.0005068677    1.648    0.393
        28 -11.8083    218.7377    171.1287   5.8476797545e+01   4.0840422092e+00     0.236102     0.178236  49.72 0.0005509018    1.358    0.263
        29 -12.8462    167.4996    115.7769   5.6427423644e+01   2.5140355825e+01    0.5227065    0.3929669   8.14  0.002317221    1.817    0.450
        30 -14.2352    205.2545    109.9768   4.7086843707e+01   1.7204043995e+01    0.7379675    0.6584168 -50.58  0.003853331    1.192    0.161
        31 -11.2999    211.3484    110.9526   4.6178391156e+01   1.5581053697e+01    0.2734523    0.2237608  61.37 0.0005802935    1.308    0.236
        32 -11.5494    125.3159    113.8949   6.6047224425e+01   3.4806907984e+01    0.2623719    0.2491608 -37.42  0.001142493    1.105    0.095
        33 -13.4510    127.3226    105.7796   6.3520501784e+01   3.6130240989e+01     0.649083     0.455036 -65.23  0.002962393    1.682    0.405
        34 -12.9142    120.1117    103.1236   6.4711811622e+01   3.8163259875e+01    0.3896222    0.2559536 -51.10  0.001503205    1.509    0.337
        35 -11.8798    113.2762    105.9630   6.7230453254e+01   3.8886830902e+01    0.4232119    0.2869027  -8.29  0.001694305    2.731    0.634
        36 -14.7622      9.4270    164.0169   1.0097043412e+02   3.9648295101e+01    0.7662402    0.5548424  87.16  0.003812753    1.015    0.015
        37 -11.5159    147.9513    104.4778   5.8047299799e+01   3.1913470586e+01     0.318059     0.275114  42.79 0.0006703007    1.154    0.133
        38 -11.4027    211.1893    103.9230   4.4417309415e+01   1.6822890151e+01    0.2164566    0.2025944 -61.48 0.0002465669    1.153    0.133
        39 -10.0823    139.6829    168.3401   7.3932372780e+01   2.0591969187e+01    0.1453219    0.1041964  78.46 0.0007048764    1.708    0.414
        40 -15.1594    172.2626     81.2455   4.5979623894e+01   3.0523598067e+01     1.664888     1.246507   8.78  0.003160359    1.755    0.430
        41 -12.7817    112.7652     95.8530   6.4780622473e+01   4.1159821553e+01    0.5879599    0.3980373 -14.00  0.002103548    2.375    0.579
        42 -12.6521    123.7084     93.5789   6.1230994184e+01   3.9445042220e+01    0.4650923    0.2442529 -55.11  0.001811528    2.193    0.544
        43 -13.4488    118.6838     92.6958   6.2329033776e+01   4.0657409702e+01     1.698336    0.8038054  35.07  0.006272431    2.612    0.617
        44 -11.9829    141.3513     94.9342   5.7079715766e+01   3.5340855402e+01    0.3506998    0.3025096  69.01  0.001768305    1.257    0.204
        45 -12.8349    156.1342     91.5695   5.2567971367e+01   3.2566970549e+01    0.3778277    0.3133481 -27.70 0.0008396234    1.270    0.213
        46 -12.9999    140.4719     87.4689   5.5189339585e+01   3.7030626561e+01    0.5173032    0.4018967  46.08  0.002502225    1.285    0.222
        47 -12.5209    130.2733     66.0198   5.1264104871e+01   4.3431265886e+01    0.3642794    0.3555247  -5.74  0.001042273    1.018    0.018
        48 -12.8041    199.2763    163.0092   6.0536367131e+01   9.3576782232e+00    0.5640866    0.3490911 -70.33  0.002046439    3.772    0.735
        49 -12.4933    180.1403     57.0998   3.7175803544e+01   3.2549416478e+01    0.3587229    0.2232244 -32.12  0.000854102    1.644    0.392
        50 -10.8963    141.3506     51.3058   4.3627348663e+01   4.3355398706e+01    0.1611753    0.1133095  22.33 0.0007042093    1.706    0.414
        51 -12.7598    232.1872    186.2393   5.9008370737e+01  -6.6124886349e-01    0.3737448    0.1963652  55.20    0.0016705    2.473    0.596
        52 -11.6301    182.6813     41.7008   3.1997477778e+01   3.4146468324e+01    0.3360067    0.2070791  37.67  0.001421963    1.837    0.456
        53 -12.1412    166.8556     35.7310   3.2980519840e+01   3.9155415490e+01    0.4437022    0.2563924 -32.54  0.001547659    1.778    0.438
        54 -12.7873    159.0452     30.7022   3.2811885341e+01   4.1858533428e+01    0.4492391    0.3313505  44.97  0.001328486    1.297    0.229
        55 -12.5397    134.1726     30.2113   3.7927015762e+01   4.8185890124e+01    0.3109504    0.2487148 -17.50 0.0005455881    1.291    0.225
        56 -13.5141    215.1959    185.0992   6.1873071970e+01   2.7104900774e+00    0.4470066    0.3011115 -10.40  0.002317394    1.819    0.450
        57 -11.7594    116.8510     22.2656   3.9151863193e+01   5.3254313609e+01    0.2725052     0.169254  11.45  0.001039602    2.023    0.506
        58 -10.4724    175.6546     17.7364   2.5669641089e+01   3.9017346972e+01    0.2496468    0.1780775  -2.79  0.001203026    1.702    0.413
        59 -10.2116     79.1352     16.8221   4.7964358145e+01   6.1563089385e+01    0.1787139    0.1324074   3.42 0.0003513909    1.287    0.223
        60 -11.4610    135.3844     15.8214   3.2360800504e+01   4.9629055688e+01    0.2012347    0.1328814  -3.22 0.0009532073    1.749    0.428
        61 -11.8468    127.1367     15.3728   3.4000955430e+01   5.1674639250e+01    0.2350468    0.1850612   2.76 0.0005566416    1.319    0.242
        62 -11.9916    247.0960    202.2191   5.9402501405e+01  -5.3273214647e+00    0.2203791    0.1644828  49.42 0.0009112916    1.591    0.372
        63 -12.8725    192.3242    194.0900   6.7815879348e+01   5.7822100956e+00    0.8782268    0.4408569 -62.02  0.002755091    6.076    0.835
        64 -15.7987    208.5506     78.2824   3.8078639615e+01   2.1775020568e+01     2.111287     1.439291 -62.36  0.009168449    1.828    0.453
