#   1 NUMBER                 Running object number                                     
#   2 MAG_AUTO               Kron-like elliptical aperture magnitude                    [mag]
#   3 X_IMAGE                Object position along x                                    [pixel]
#   4 Y_IMAGE                Object position along y                                    [pixel]
#   5 X_WORLD                Barycenter position along world x axis                     [deg]
#   6 Y_WORLD                Barycenter position along world y axis                     [deg]
#   7 A_WORLD                Profile RMS along major axis (world units)                 [deg]
#   8 B_WORLD                Profile RMS along minor axis (world units)                 [deg]
#   9 THETA_WORLD            Position angle (CCW/world-x)                               [deg]
#  10 FWHM_WORLD             FWHM assuming a gaussian core                              [deg]
#  11 ELONGATION             A_IMAGE/B_IMAGE                                           
#  12 ELLIPTICITY            1 - B_IMAGE/A_IMAGE                                       
         1 -11.0989      6.0672     12.3763   8.2177865495e+01   7.7356029902e+01    0.4282351    0.2148529 -38.88  0.002118895    1.809    0.447
         2 -10.4255    245.7099     10.8126   1.8794061808e+01   2.3861492243e+01    0.2770613   0.07451519 -27.43  0.001202733    2.708    0.631
         3 -11.5503    236.0675      7.8635   1.8551039507e+01   2.5966449301e+01    0.4119686    0.2153966 -27.81  0.002341527    1.584    0.369
         4 -10.3369    249.7772      4.7967   1.7270096627e+01   2.3640752621e+01     0.418692    0.1707142 -19.72  0.002094238    2.376    0.579
         5 -10.8512    245.1387      5.4154   1.7593220378e+01   2.4447220931e+01     0.319101    0.1444847 -85.46  0.001695588    2.551    0.608
         6 -10.0648    161.4263      9.5530   2.3937104516e+01   4.2690412167e+01    0.2259306    0.1769896  70.50  0.001066798    1.277    0.217
         7  -8.1806     45.3095      7.3325   4.9013820046e+01   7.2267455334e+01    0.1430052   0.09706076  16.29 0.0002948976    1.671    0.402
         8 -10.2839    191.5744      6.4096   2.0605680952e+01   3.5622480343e+01    0.2121395    0.1746405  75.24  0.001308965    1.286    0.222
         9  -8.6253    179.3314      6.6522   2.1524757393e+01   3.8506714236e+01    0.1504167   0.08013673 -54.28 0.0007049087    1.766    0.434
        10  -9.5544    172.0598      6.2417   2.1950774343e+01   4.0319493180e+01    0.2361978    0.1225603 -62.51  0.001073859    1.971    0.493
        11 -10.1597    127.7553      5.8405   2.6275896661e+01   5.1801034269e+01    0.2862866    0.1606223 -68.20  0.001238967    2.049    0.512
        12 -11.4036     10.1743      2.7658   7.1373858604e+01   7.8864683039e+01    0.7098991    0.2612626  32.74  0.003084894    2.789    0.641
        13  -9.4047    181.9879      3.4858   2.0385345469e+01   3.8137723348e+01    0.1967838   0.08568112 -66.94 0.0008100652    2.512    0.602
        14  -9.5285    168.9269      2.6714   2.1060180495e+01   4.1395854812e+01    0.1947093    0.1618325 -76.32  0.001029668    1.124    0.110
        15  -9.8669    160.6750      3.1231   2.1858090585e+01   4.3431816344e+01    0.2453244    0.1722091 -76.45 0.0008412334    1.387    0.279
        16  -9.0844     40.6522      3.6919   4.8726515096e+01   7.3690174221e+01    0.1430753   0.09355944  20.04 0.0007043847    1.705    0.414
        17  -9.7416    218.8333      3.8462   1.8385385228e+01   2.9809537753e+01    0.1844728    0.1158526 -52.74  0.001088293    1.348    0.258
        18  -9.8838    117.4414      3.6331   2.6744690961e+01   5.4731515834e+01    0.2680027    0.2241047  85.72  0.001490636    1.155    0.134
        19  -9.8638    152.2129      1.5902   2.2055966001e+01   4.5719910342e+01    0.3567726    0.1095869  59.23  0.001298702    2.988    0.665
        20  -9.4543    138.0204      2.0179   2.3574257393e+01   4.9390188776e+01     0.241772     0.144118 -57.65  0.001138493    1.716    0.417
        21  -9.1912     97.8243      2.3382   2.9308492325e+01   6.0047064897e+01    0.2957529    0.1303778  82.08  0.001104066    2.656    0.624
        22  -8.8867    129.5050      1.5246   2.4317984645e+01   5.1682545369e+01    0.1390446    0.1286512 -80.34 0.0002002987    1.024    0.024
        23  -8.1513     85.6679      1.3337   3.1223827642e+01   6.3301306864e+01    0.1474251    0.1002926 -59.19 0.0007052218    1.730    0.422
        24 -10.1840    232.0820    220.7650   6.3548185027e+01   1.6484099334e+00    0.2524638    0.1141086 -28.91  0.001566713    2.075    0.518
        25 -12.1800    225.1637    243.9194   6.7926126507e+01   7.4049697528e-02    0.9847292    0.4158711 -16.14   0.00558662    2.768    0.639
        26 -11.9144    248.1526    216.0831   6.0441027001e+01   3.9335370157e-01     1.288257    0.4122313 -23.21  0.006357787    3.250    0.692
        27  -9.9311    248.2768    223.8011   6.1589874865e+01  -3.6889462407e-01     0.290975     0.166189 -10.15  0.002121408    1.395    0.283
        28 -10.8282    236.1167    247.7659   6.6782163134e+01  -1.3860493023e+00    0.6706652    0.3112273   1.88  0.004097642    2.325    0.570
        29 -11.1508    248.5323    246.8184   6.4835285422e+01  -2.4970328579e+00    0.7096725    0.2613556 -28.85  0.004513389    2.567    0.610
        30 -10.5567    242.8414    247.1740   6.5708639714e+01  -1.9860391345e+00    0.4602402    0.2054489 -17.96   0.00300753    2.077    0.519
        31 -10.6801    217.9199    246.7787   6.9441336529e+01   5.4595428835e-01    0.4262255    0.1548082 -22.33  0.002214138    3.407    0.706
        32 -11.2423     22.4219    210.8454   1.0482688335e+02   2.8282812838e+01    0.4544144    0.2995659 -83.99   0.00302243    1.610    0.379
        33 -11.3838     15.9017    198.6919   1.0580561903e+02   3.1243503934e+01    0.9051908    0.2475163  52.04  0.003950777    2.862    0.651
        34 -13.3024     13.5547    168.6760   1.0501396210e+02   3.7869214498e+01     1.645262    0.7756082  69.57  0.008165669    2.027    0.507
        35 -10.6629      3.1527    179.7195   1.0817913695e+02   3.6219293410e+01    0.8816389    0.2603046  63.52   0.00365191    3.142    0.682
        36 -11.6928      3.2079    217.4643   1.0925081144e+02   2.8633821729e+01     1.207546    0.3538465  85.64  0.005508626    3.661    0.727
        37 -11.3937      5.2824    202.1516   1.0838074394e+02   3.1411776032e+01     1.197825     0.317986  78.45  0.004625998    4.395    0.772
        38 -11.6253      5.7126    189.4876   1.0787949775e+02   3.3954606638e+01    0.8707221    0.4237328  42.03  0.004708512    1.604    0.377
        39  -9.3558     34.0527    217.4606   1.0255320761e+02   2.5958243980e+01    0.3042981    0.1406365  83.04  0.001611897    2.530    0.605
        40 -10.1047     24.1333    217.4461   1.0473231111e+02   2.6881228602e+01    0.2510954    0.1384207 -89.77  0.001308474    1.926    0.481
        41  -8.1696    101.0041    214.9856   8.7468495536e+01   1.8867301789e+01    0.1324199    0.1129681  32.74            0    1.045    0.043
        42 -10.7877    235.4361    228.2014   6.4139131481e+01   5.3761431400e-01    0.3591174    0.1552969 -18.14  0.002111983    2.330    0.571
        43  -8.5929     45.4733    213.4524   9.9772870379e+01   2.5576851032e+01    0.1840577   0.09993215  81.51  0.001020313    2.145    0.534
        44 -12.1146      5.6604    234.2244   1.0914650007e+02   2.5437056858e+01     1.287012    0.4660877  88.99  0.007052488    2.952    0.661
        45  -8.8053    240.7275    207.6497   6.0215396872e+01   2.0546885031e+00    0.2553637    0.0749231 -36.26  0.001200569    3.634    0.725
        46  -8.9528     36.6252    208.8360   1.0150484697e+02   2.7342892249e+01    0.2359856    0.1292038  58.25  0.001059994    1.644    0.392
        47  -8.1715    235.5028    207.5113   6.0978358587e+01   2.6581050909e+00    0.1091374   0.07809438   0.73 4.579012e-05    1.011    0.011
        48  -8.1489     41.3699    205.6848   1.0021877275e+02   2.7482925774e+01    0.1336142    0.0655209  52.77 0.0007035671    1.782    0.439
        49  -8.7556     31.2566    202.2960   1.0237883440e+02   2.9142282563e+01    0.2250364    0.1370903  76.02   0.00135226    1.636    0.389
        50 -10.4439     23.9941    198.6631   1.0389835254e+02   3.0543031620e+01    0.2440137    0.1644158 -89.69 0.0009991918    1.501    0.334
        51 -11.0953    237.1576    234.3121   6.4761411155e+01  -2.3555092751e-01    0.4134606    0.1923206 -13.24  0.002570355    2.144    0.534
        52 -12.1620     15.6486    242.1785   1.0737437080e+02   2.3262474478e+01     1.084759     0.588889  55.92  0.007525321    1.447    0.309
        53  -8.3540    139.0802    198.9196   7.7166479130e+01   1.6430759925e+01    0.1556444    0.1235255   7.59   0.00098047    1.208    0.172
        54  -9.0322    132.9696    199.0764   7.8497066512e+01   1.7267213673e+01    0.1753598    0.1468791  23.35  0.001144126    1.010    0.010
        55  -8.8847     39.7983    193.9594   9.9818490092e+01   2.9992280289e+01    0.2240582    0.1411824  65.95  0.001310724    1.523    0.344
        56 -11.3907     23.7971    186.6098   1.0331642497e+02   3.3060583004e+01    0.5286716     0.229975 -84.76  0.002602252    2.387    0.581
        57  -9.2002     29.0108    192.7500   1.0237601197e+02   3.1293410783e+01    0.2208685    0.1291986  74.03  0.001260492    1.682    0.406
        58 -11.1800    232.6846    245.3559   6.6971435365e+01  -8.2469114246e-01    0.6034044    0.2720112 -17.73  0.003878409    2.178    0.541
        59  -9.0327     33.4440    190.6218   1.0115868021e+02   3.1314086564e+01    0.2153072     0.111127 -88.54  0.001125043    2.079    0.519
        60  -9.0430    223.0025    188.0417   5.9706773917e+01   6.3760735575e+00    0.1612452    0.1247109  -1.24            0    1.051    0.049
        61  -8.8507     37.0565    186.5495   9.9985211357e+01   3.1816508782e+01    0.2637742   0.09361024  60.64  0.000997338    3.348    0.701
        62  -9.8019     29.1082    185.8726   1.0194258739e+02   3.2730224372e+01    0.2004879    0.1327159  56.13 0.0007020168    1.294    0.227
        63 -11.5025    243.3183    235.0685   6.3955102031e+01  -9.3110298890e-01     0.935182    0.3559012 -15.20  0.004788748    3.342    0.701
        64  -8.1732     40.4937    183.5062   9.8890265341e+01   3.2117956604e+01    0.1263574    0.1047329  54.06 0.0008105318    1.022    0.021
        65 -10.0715     23.1495    179.6598   1.0308919369e+02   3.4615557468e+01    0.2143621    0.1437638  72.00 0.0006951141    1.366    0.268
        66  -9.7354     28.7254    178.0197   1.0154283080e+02   3.4466214625e+01    0.1748177    0.1452107  79.44 0.0008036596    1.142    0.124
        67  -7.9841    155.0190    169.9827   6.9040464399e+01   1.8862486497e+01    0.1523122    0.1338698   8.70 0.0003061904    1.011    0.011
        68 -10.0672     22.2552    169.5044   1.0271602893e+02   3.6953493640e+01    0.2208704    0.1598733 -89.49  0.000850154    1.322    0.244
        69 -11.5392     18.3658    193.1223   1.0497676716e+02   3.2171953121e+01    0.8829327    0.2756638  69.57   0.00341173    3.893    0.743
        70 -10.8776     10.1723    154.8045   1.0522658251e+02   4.1338256200e+01    0.3720387    0.1559299  55.24  0.001471455    2.135    0.532
        71 -10.3424      3.7605    153.6181   1.0700617864e+02   4.2073244636e+01    0.3274045    0.1965403  76.92  0.001651956    1.477    0.323
        72  -8.1344     25.6347    150.3121   1.0038950211e+02   4.1145637758e+01    0.1470262   0.07873301  56.12 0.0007039053    1.760    0.432
        73 -12.9329     12.0333    222.6170   1.0752322575e+02   2.6975204718e+01     1.591585    0.5602617 -74.35  0.008361593    3.057    0.673
        74 -10.6776      4.8412    146.5652   1.0635939554e+02   4.3679264479e+01    0.5531372     0.114427  51.41  0.001864007    4.091    0.756
        75  -8.4197     13.3069    144.6717   1.0369974243e+02   4.3534126702e+01    0.1410197   0.07812197  58.63 0.0006772593    1.656    0.396
        76  -9.7361      4.7842    136.1296   1.0582815494e+02   4.6227054353e+01    0.2852205    0.1458129  62.30  0.001409981    1.804    0.446
        77  -9.3573    238.5385    124.0192   4.5095171638e+01   1.2202084166e+01    0.4426306    0.1444006 -35.52  0.001934631    2.548    0.608
        78  -8.5239    247.6877    129.7295   4.5082715053e+01   1.0126378954e+01    0.2341961     0.111224 -43.16  0.001171025    2.447    0.591
        79  -7.7287    222.7399    125.7721   4.7668480987e+01   1.4477349925e+01    0.1151289   0.08370131   3.07            0    1.401    0.286
        80  -9.6709    247.2513    118.9211   4.2912683966e+01   1.1510962325e+01    0.3701911    0.1507798 -41.17  0.001750451    2.495    0.599
        81  -9.4053    230.9660    114.2401   4.4006593360e+01   1.4666724806e+01    0.2880914    0.1402634 -35.93  0.001320703    1.766    0.434
        82  -8.9501    247.4243    112.7101   4.1587175407e+01   1.2245461230e+01    0.2373706   0.08926041 -33.24  0.001129118    2.095    0.523
        83  -9.7644    240.9765    109.8007   4.1751661250e+01   1.3615251872e+01    0.2867072    0.1451847 -37.48  0.001527752    1.727    0.421
        84  -8.2194    221.9928    105.4875   4.3262176365e+01   1.7355991751e+01    0.1576893    0.1141161 -82.92 0.0008099392    2.497    0.600
        85  -7.9541    129.9924    106.9960   6.1082573411e+01   3.5413111971e+01    0.1711917    0.1666774  -4.62 0.0009380098    1.005    0.005
        86  -9.0222     70.5542    109.0218   7.9553458178e+01   4.6078149253e+01    0.2103154     0.192019  40.98  0.000160307    1.108    0.097
        87  -8.9627    248.8984    107.7773   4.0366245882e+01   1.2620211361e+01    0.2786871    0.1679662 -59.57   0.00139517    3.011    0.668
        88  -8.8405    248.8754     97.7660   3.8218397333e+01   1.3837985573e+01    0.2400741    0.1158232 -44.24   0.00122228    2.135    0.532
        89  -8.8105    235.5203     95.0530   3.9154315644e+01   1.6379375651e+01    0.1855275   0.07868426 -45.26 0.0008093591    2.579    0.612
        90  -8.7338    242.0268     92.9881   3.7935425422e+01   1.5538815275e+01    0.1947604    0.1249976 -48.34 0.0008625058    1.700    0.412
        91  -9.0659    248.3705     92.1984   3.7060409375e+01   1.4590804619e+01    0.1811031   0.08515828 -35.97 0.0009441539    1.710    0.415
        92  -8.2078    127.9619     90.9891   5.7131516561e+01   3.9056864521e+01    0.1730006    0.1657655 -31.02            0    1.022    0.021
        93  -9.3054    244.6687     88.3448   3.6608985732e+01   1.5666038357e+01    0.1884249    0.1221478 -49.61  0.001034976    1.692    0.409
        94  -9.1150    246.5157     84.4874   3.5553594870e+01   1.5822693413e+01    0.1228748    0.0968926 -27.52 0.0001101149    1.014    0.014
        95  -9.5756    249.9885     80.7264   3.4364698596e+01   1.5690747283e+01    0.1644084    0.1352462 -27.87 0.0005464784    1.053    0.050
        96  -8.7904    243.5996     76.8033   3.4124506693e+01   1.7236853545e+01    0.1869839   0.08600849 -37.05 0.0007669097    1.737    0.424
        97  -9.2141    248.4775     74.0339   3.3020308429e+01   1.6728194299e+01    0.1917513   0.09548188 -29.27  0.001024616    1.570    0.363
        98  -8.0924    239.6727     72.3191   3.3492460297e+01   1.8459964299e+01    0.1273127   0.07921014 -50.81 0.0006144644    1.682    0.405
        99  -9.7327    249.1261     65.2736   3.0989970223e+01   1.7626640882e+01    0.2438681    0.1087951 -45.16  0.001224375    2.065    0.516
       100  -7.8821    242.3179     62.3112   3.0924842625e+01   1.9162501206e+01    0.1173124   0.08735749   7.55 0.0003190382    1.642    0.391
       101  -9.7329    250.5240     55.5081   2.8667230003e+01   1.8477688226e+01    0.2365218   0.09906873 -24.31 0.0009526498    2.063    0.515
       102 -10.1775    249.5020     52.0219   2.7959275941e+01   1.9038889797e+01    0.2448941    0.1746455 -52.42  0.001596367    1.360    0.265
       103  -8.9469    172.0513     50.0197   3.5665992161e+01   3.5480549721e+01    0.1992912    0.1849185 -46.94  0.001152048    1.013    0.012
       104 -10.3479    245.8982     43.2672   2.6230827645e+01   2.0627606915e+01    0.2017526    0.1527934  65.78  0.001346822    1.617    0.382
       105  -8.3408    173.9731     34.0486   3.0483402011e+01   3.7019579726e+01    0.1703301    0.1398791 -34.22            0    1.141    0.124
       106  -8.1936    221.9797     22.2149   2.2836083850e+01   2.7449547700e+01    0.1400015   0.09843379  83.43 0.0008366415    1.574    0.365
       107  -8.8929     18.1990     21.2016   7.6522952741e+01   7.4291885898e+01    0.1607462    0.1529162  81.02            0    1.320    0.242
       108  -9.5253     15.0109     17.9518   7.7293982711e+01   7.5325887574e+01    0.1973822    0.1656993 -27.15   0.00121403    1.056    0.053
       109  -8.8338    156.8151     17.2453   2.7011296672e+01   4.3137404477e+01    0.2578884     0.110352 -57.20   0.00095129    2.767    0.639
       110  -8.8013    149.1584     15.3891   2.7250875433e+01   4.5294353293e+01    0.2032121     0.127189 -87.76 0.0009477228    1.709    0.415
       111  -8.8947    114.9813     16.0000   3.2542125593e+01   5.4246349951e+01    0.2422715   0.07951628  68.24 0.0008025006    2.943    0.660
       112 -10.5343    209.8641    247.4051   7.0807645917e+01   1.3296805781e+00    0.3887191    0.1735432  -2.80   0.00186553    3.727    0.732
       113  -8.8750     46.0779    246.0299   1.0148613302e+02   1.9843718800e+01    0.1707511    0.1197699  46.45  0.001091322    1.096    0.087
       114  -8.5028    175.3516     12.6706   2.3689234981e+01   3.8932279107e+01    0.1522399   0.08424029 -56.35 0.0007047528    1.771    0.435
       115 -12.4520      6.2860    173.1016   1.0713648976e+02   3.7437008897e+01     1.706542    0.5300496  65.44  0.006900407    3.194    0.687
       116  -9.0169     54.9981    241.5112   9.9442143607e+01   1.9682853353e+01    0.2337111      0.13799  80.99  0.001395086    2.069    0.517
       117 -10.9327     12.9286    204.6591   1.0672432454e+02   3.0302353806e+01    0.7647528    0.2678451  63.26  0.003643182    2.659    0.624
       118  -7.9150    205.6743    240.6953   7.0598312061e+01   2.4716415246e+00    0.1093137   0.06139818   5.05 0.0007033852    1.645    0.392
       119  -8.0463     52.6573    250.3222   1.0040353657e+02   1.8514147440e+01    0.1164242   0.05561182  50.14 0.0007050397    1.728    0.421
       120  -8.8993     46.0198    238.5190   1.0111015486e+02   2.1078940760e+01    0.2026957    0.1230882  67.52   0.00134774    1.686    0.407
       121  -9.3007    152.6030    248.1084   8.0802091640e+01   7.6701071734e+00    0.1827652    0.1156072  32.25 0.0006154084    1.286    0.222
       122  -8.9875     65.5558    234.1894   9.6792803773e+01   1.9779621640e+01    0.2746507    0.1452536  84.25  0.001520616    2.727    0.633
       123  -8.9015    120.6530    234.1376   8.5409272341e+01   1.3382931473e+01    0.1839202    0.1216989  34.53 0.0003495638    1.209    0.173
       124  -8.6526     49.2523    231.4609   1.0004520169e+02   2.1950357158e+01    0.2079775      0.11599  77.57  0.001251399    2.110    0.526
       125  -9.0156    215.7198    230.3743   6.7532047538e+01   2.4508881994e+00    0.2428671    0.1181924  -2.92  0.001323219    2.567    0.610
       126 -10.2772    249.2639    231.5414   6.2583794775e+01  -1.1963867526e+00    0.5767134    0.1525194 -27.21  0.002856979    3.650    0.726
       127  -8.5101     40.6439    229.8517   1.0177302252e+02   2.3087333952e+01    0.1469478   0.08931977  75.68  0.000942803    1.753    0.429
       128  -8.4004     32.3686    230.2413   1.0353337662e+02   2.3811070726e+01    0.1409677   0.08780933  73.52 0.0007625011    1.612    0.380
       129 -10.5463     22.9325    228.6161   1.0544080835e+02   2.4959036775e+01     0.319659    0.1620263  43.56  0.001480657    1.434    0.303
       130 -10.9083    240.2491    218.7628   6.2010873434e+01   9.6683037115e-01    0.4774201     0.198069 -13.35  0.002444414    2.991    0.666
       131  -9.1096     55.9451    221.5405   9.7977398586e+01   2.2996373832e+01    0.4428054    0.1290598 -68.71            0    3.861    0.741
       132  -9.9419     56.0495    216.5937   9.7608582524e+01   2.3881958451e+01    0.1988791    0.1532938 -84.19 0.0006295849    1.474    0.322
       133  -9.0913    229.5696    227.2563   6.4897046055e+01   1.2575219879e+00    0.2251752   0.08431984 -28.57  0.001274488    2.555    0.609
       134  -8.7385     45.9547    221.5095   1.0016387032e+02   2.4041568666e+01    0.2143413    0.1414106  87.09  0.001401297    1.686    0.407
