#   1 NUMBER                 Running object number                                     
#   2 MAG_AUTO               Kron-like elliptical aperture magnitude                    [mag]
#   3 X_IMAGE                Object position along x                                    [pixel]
#   4 Y_IMAGE                Object position along y                                    [pixel]
#   5 X_WORLD                Barycenter position along world x axis                     [deg]
#   6 Y_WORLD                Barycenter position along world y axis                     [deg]
#   7 A_WORLD                Profile RMS along major axis (world units)                 [deg]
#   8 B_WORLD                Profile RMS along minor axis (world units)                 [deg]
#   9 THETA_WORLD            Position angle (CCW/world-x)                               [deg]
#  10 FWHM_WORLD             FWHM assuming a gaussian core                              [deg]
#  11 ELONGATION             A_IMAGE/B_IMAGE                                           
#  12 ELLIPTICITY            1 - B_IMAGE/A_IMAGE                                       
         1 -14.7237    113.9920     64.8651   8.9988677695e+01   4.6724007330e+01      1.61459     1.074714  -0.40  0.005313034    2.195    0.544
         2 -14.5943    111.0441     55.6330   8.7855727610e+01   4.8889453232e+01     1.281353    0.8969833  66.91  0.006163489    2.041    0.510
         3 -14.5024    184.3870     32.6163   6.4531013795e+01   3.5044842497e+01     1.027722    0.7483934  45.27  0.003914622    1.368    0.269
         4 -14.9917    189.3796     25.6658   6.1770066379e+01   3.4622253935e+01     1.683062     1.028744   3.41  0.001801932    2.588    0.614
         5 -11.1711     57.4840      6.4879   8.6205741474e+01   6.4883387863e+01    0.1858732    0.1085481  49.87  0.001035441    2.373    0.579
         6 -13.1156    207.3192      2.1171   5.3111909074e+01   3.2628412632e+01    0.7232705    0.1863043  61.49  0.002618744    2.986    0.665
         7 -11.4027     68.0373    212.3752   1.2905444841e+02   2.3512452633e+01    0.3988567    0.2895976  19.41  0.001900292    2.613    0.617
         8 -10.5569    120.2427    249.9794   1.2383849761e+02   9.2597876533e+00    0.1270976   0.09414213 -71.00 0.0004299104    1.567    0.362
         9 -13.5559     11.7398    206.4772   1.3813104275e+02   3.1083651921e+01     0.367233    0.2925951  44.72  0.002752271    1.622    0.384
        10 -14.4082     53.7495    231.3536   1.3310212940e+02   2.1912921350e+01    0.8958171    0.8422386 -45.31  0.007188541    1.862    0.463
        11 -17.4644     33.9900    242.9972   1.3695528377e+02   2.2270905209e+01     5.580953     4.450185  68.39   0.04550063    1.302    0.232
        12 -10.2208     52.4635    208.6630   1.3145442264e+02   2.6224866682e+01    0.1554333    0.0935309 -77.91 1.233395e-05    1.478    0.323
        13 -12.1297     60.0611    214.5425   1.3065370488e+02   2.4158121772e+01    0.3571568     0.178115  62.26  0.001392687    1.805    0.446
        14 -11.9439     57.5595    209.9584   1.3067747900e+02   2.5340568759e+01    0.3523388    0.3239429  11.87  0.002607906    1.848    0.459
        15 -13.1902     65.2248    206.4337   1.2898121066e+02   2.5016821959e+01    0.4928013     0.341867 -50.61   0.00160939    1.981    0.495
        16 -12.1005    116.2559    212.0838   1.2017967674e+02   1.6282917866e+01    0.3131128    0.2037582  80.38  0.001031316    1.767    0.434
        17 -19.1284     23.4291    108.2539   1.2606052826e+02   5.0070945980e+01     15.58823    0.6400477 -65.44    0.0267653   17.367    0.942
        18 -12.4266    106.4313    202.3078   1.2079818558e+02   1.9725936965e+01     0.375843    0.2152112  45.67  0.001269983    1.591    0.372
        19 -13.2780    165.2630    194.9412   1.0808743487e+02   1.0502664296e+01    0.5520929    0.5126728 -31.11  0.001936869    1.252    0.201
        20 -12.4905    170.5021    195.4837   1.0714416594e+02   9.3917347492e+00    0.3511341    0.3321255  70.58  0.001307592    1.119    0.106
        21 -13.2966     74.6400    192.8269   1.2578367477e+02   2.6401589019e+01    0.6562561    0.5300041  64.20  0.004444445    1.128    0.114
        22 -11.1651     79.7218    185.3008   1.2388923264e+02   2.7202062476e+01    0.2251745      0.18968  62.59 0.0008015115    1.149    0.130
        23 -10.9610    102.2141    194.8164   1.2064221498e+02   2.1860303407e+01    0.3110546    0.1690685  68.64  0.001461048    2.229    0.551
        24 -11.0318     87.4158    217.9375   1.2616162726e+02   1.9741658830e+01    0.3095588    0.1487511  41.04   0.00162729    2.063    0.515
        25 -11.8353     64.7512    192.8441   1.2767791313e+02   2.7740042737e+01    0.2899074    0.2132404  50.02  0.001915177    1.359    0.264
        26 -10.2391     90.7032    184.1304   1.2152601601e+02   2.5811313924e+01    0.2182229    0.1149633  74.20 0.0009381673    2.699    0.629
        27 -10.6427     99.6311    180.6955   1.1921894246e+02   2.5114572183e+01    0.1998443    0.1904863 -84.87 0.0005886959    1.215    0.177
        28 -12.1513     84.3658    177.5778   1.2194604877e+02   2.8116243192e+01    0.3580546    0.2416651 -43.57  0.001958896    1.978    0.494
        29 -12.3251     87.5421    172.7272   1.2061172233e+02   2.8655923712e+01      0.44067    0.2951539 -87.99  0.001904072    1.570    0.363
        30 -11.6117     78.0490    211.6667   1.2719259309e+02   2.2262425948e+01    0.4260467     0.299542  23.09  0.002202946    2.475    0.596
        31 -11.0307    196.6526    171.5601   9.7467811987e+01   8.2946104061e+00    0.2981714    0.2425282  16.61  0.001540272    1.337    0.252
        32 -13.6480     82.4272    158.6125   1.1964605800e+02   3.2426907865e+01    0.5493733    0.4403691  71.89  0.002598657    1.186    0.157
        33 -11.9928     85.3917    236.5324   1.2834370562e+02   1.6743936789e+01    0.2987795    0.1723355 -76.90 0.0002295075    1.810    0.447
        34 -11.9531     93.7849    163.6125   1.1790993131e+02   2.9627029330e+01    0.2710599    0.2129893 -55.98  0.001588705    1.323    0.244
        35 -11.9500     98.9659    156.4358   1.1559270657e+02   3.0339832067e+01    0.4991784    0.3144534 -35.46   0.00233167    2.330    0.571
        36 -12.3515     65.2871    156.3561   1.2310702417e+02   3.5280018127e+01    0.3238235    0.2223144  66.09 0.0007830295    1.472    0.321
        37 -13.2228    248.9819    115.0282   7.5281748407e+01   6.6656884682e+00    0.9362778    0.3591187 -32.40  0.003466354    2.594    0.614
        38 -14.9716    244.6712    133.6317   8.0259321248e+01   4.5749335570e+00     2.571401     1.593009 -23.24   0.01205234    1.726    0.421
        39 -13.8007    243.2222    118.6815   7.7070248363e+01   7.3137270438e+00     0.622222    0.4718103 -55.04   0.00235375    1.497    0.332
        40 -11.9524     46.1272    155.0691   1.2710804978e+02   3.7860677197e+01     0.249478    0.1564752  47.44  0.001300966    1.661    0.398
        41 -11.7230    174.8700    149.1110   9.7231703022e+01   1.7083878724e+01    0.2338421    0.2068147  80.82 0.0007131606    1.257    0.204
        42 -11.5494    133.9610    145.0455   1.0544200176e+02   2.6475406791e+01    0.8550691    0.1923407 -54.21  0.001961431    6.799    0.853
        43 -12.1391    144.5556    145.4164   1.0310183694e+02   2.4267466247e+01    0.3514072    0.2644669 -88.15  0.001582176    1.698    0.411
        44 -11.0737    109.6634    140.4914   1.1020961819e+02   3.1992469847e+01     0.427999    0.2380444 -36.45  0.001781239    2.467    0.595
        45 -12.0660     98.1901    140.9641   1.1303040370e+02   3.3835015558e+01    0.2287728    0.2223009  76.58 0.0003259073    1.119    0.106
        46 -12.1394     51.6997    136.9716   1.2341350879e+02   4.1147205336e+01    0.1837204    0.1412628 -73.20 0.0007011661    1.097    0.088
        47 -11.7179    104.8653    128.7431   1.0899789899e+02   3.5392666791e+01    0.5501126    0.2953449 -67.58   0.00193261    2.389    0.581
        48 -10.5454    116.1348    131.0516   1.0672230192e+02   3.2880882545e+01    0.2159741    0.1933998 -19.58 0.0006251105    1.328    0.247
        49 -10.3669     78.7829    232.2574   1.2905864945e+02   1.8423417426e+01    0.1333873    0.1188206  65.25 0.0002078594    1.346    0.257
        50 -15.2504    199.8801    229.7296   1.0722302638e+02  -1.4009831001e+00    0.9440302    0.7996352  76.48  0.004236557    1.590    0.371
        51 -10.1182    111.2232    119.6267   1.0543096628e+02   3.6253049101e+01    0.1809629    0.1366568  32.69   0.00027511    1.482    0.325
        52 -12.8336     78.2117    218.0966   1.2781323279e+02   2.1042432656e+01    0.3358232     0.214091  80.15 0.0008887576    1.470    0.320
        53 -10.9298    167.9624    112.9420   9.0226884552e+01   2.5755906442e+01    0.3767853    0.2571592 -82.92   0.00147802    2.416    0.586
        54 -11.5859    205.4853    110.1906   8.1760722365e+01   1.7395114548e+01    0.3496029    0.2152624  43.50 0.0009310234    1.653    0.395
        55 -12.0251    250.1925     97.4246   7.0979488306e+01   9.2207314052e+00    0.3756323    0.1961731 -29.07  0.001316599    1.968    0.492
        56 -14.1715    243.5792     88.9006   6.9955429041e+01   1.2058203941e+01     1.120966    0.9499772  22.43  0.004201525    1.365    0.267
        57 -11.7433    217.1161     86.8033   7.3713355110e+01   1.8651254992e+01    0.4068813    0.3369596  86.96  0.002065767    1.362    0.266
        58 -11.9554    250.5355     74.8806   6.5604043252e+01   1.2654594613e+01    0.7194715     0.145479 -33.17  0.001968019    4.827    0.793
        59 -11.4970    175.1327     73.6188   7.8061843871e+01   3.1296065261e+01    0.3259912    0.2613427 -85.14 0.0008173941    1.521    0.343
        60 -12.4708    183.0018    229.3865   1.1021179890e+02   1.6576318864e+00    0.6021217    0.4114546 -48.67  0.003124556    1.827    0.453
        61 -13.3193    171.6823     45.1698   7.0453186707e+01   3.6594733133e+01    0.4509526    0.4189184  47.50 0.0008256967    1.034    0.033
        62 -14.7875    183.5340    211.1765   1.0726330403e+02   4.3050282128e+00     1.220191    0.8476844 -52.05  0.006455538    1.765    0.433
        63 -16.2686    233.6213    208.4765   9.7587503697e+01  -4.5343346073e+00     2.505785     1.675464   3.55   0.01236425    1.748    0.428
        64 -16.7717    200.3878    214.7712   1.0471480592e+02   6.1966275048e-01     2.326864     1.966214 -49.19   0.01091934    1.468    0.319
        65 -12.2114     92.9800    236.5329   1.2706881272e+02   1.5633868086e+01    0.2558384    0.1960188  66.53 0.0009117657    1.013    0.013
