#   1 NUMBER                 Running object number                                     
#   2 MAG_AUTO               Kron-like elliptical aperture magnitude                    [mag]
#   3 X_IMAGE                Object position along x                                    [pixel]
#   4 Y_IMAGE                Object position along y                                    [pixel]
#   5 X_WORLD                Barycenter position along world x axis                     [deg]
#   6 Y_WORLD                Barycenter position along world y axis                     [deg]
#   7 A_WORLD                Profile RMS along major axis (world units)                 [deg]
#   8 B_WORLD                Profile RMS along minor axis (world units)                 [deg]
#   9 THETA_WORLD            Position angle (CCW/world-x)                               [deg]
#  10 FWHM_WORLD             FWHM assuming a gaussian core                              [deg]
#  11 ELONGATION             A_IMAGE/B_IMAGE                                           
#  12 ELLIPTICITY            1 - B_IMAGE/A_IMAGE                                       
         1 -13.8919     68.5688    144.3240   9.7528175580e+01   3.7526510715e+01      3.99233     2.009107  69.16  0.003208314    5.086    0.803
         2 -13.6075    205.2189     41.8022   3.8690580873e+01   2.9329134575e+01     1.695266     1.307124  35.48  0.008190954    1.788    0.441
         3 -13.4116    217.4446     30.4491   3.4834571985e+01   2.8099423966e+01    0.9501488    0.7991895  37.34  0.006157624    1.662    0.398
         4 -12.6981    243.6455      5.6917   2.7789260068e+01   2.5569228040e+01    0.7440044    0.5300365 -85.57   0.00525676    1.187    0.158
         5  -9.8078      2.1878      4.6006   8.5085355792e+01   7.4082200112e+01    0.1985794   0.07575299 -45.63  0.001020517    2.657    0.624
         6 -10.4453     48.4950      2.7345   5.9520904044e+01   6.8326213169e+01    0.3866013     0.247518  61.80  0.002102254    2.469    0.595
         7 -10.6028    149.7262    228.1095   9.0717819319e+01   5.3026265087e+00    0.3415727    0.2303118 -19.68  0.001726877    1.854    0.461
         8  -9.1350    102.4800    250.4902   1.0402497439e+02   8.2027725370e+00    0.1277463    0.1063211  44.42 0.0008101654    1.023    0.022
         9 -13.8584     37.7497    197.6003   1.1312580401e+02   2.7967917473e+01     1.521398    0.9898845  69.11  0.002469677    1.498    0.333
        10 -14.3520     47.8151    187.6467   1.0962957801e+02   2.9221065192e+01      4.55603     1.396684  49.01   0.01559585    3.628    0.724
        11 -16.7590     16.6580    242.8261   1.2091332846e+02   2.0289088085e+01     7.884907     6.169479  82.24   0.05743715    1.137    0.120
        12 -13.4771     15.4609    215.3606   1.1952856387e+02   2.6175697725e+01     1.032976    0.4872002  26.67  0.003211904    2.371    0.578
        13  -9.6339    147.7722    189.0048   8.4501516248e+01   1.3511907230e+01    0.2799175    0.2110075 -80.06 0.0004753226    1.946    0.486
        14  -9.2637     81.1285    181.8789   1.0023000172e+02   2.6253977353e+01    0.3110178    0.2384591 -56.91  0.001319699    1.306    0.234
        15  -9.3301     99.3402    180.8722   9.5259536385e+01   2.3694695797e+01    0.2630793    0.2143546  25.44 0.0006650101    1.282    0.220
        16 -10.1491    186.8857    175.1743   7.2863838535e+01   9.3580654959e+00    0.3490903    0.3102951 -35.37   0.00116874    1.136    0.119
        17  -8.5036     86.5113    176.4462   9.7945066641e+01   2.6785470562e+01    0.1454689    0.1384687  72.40 0.0002204991    1.020    0.020
        18 -11.3311     63.8494    172.8838   1.0354000491e+02   3.0891467148e+01    0.4634408    0.3090611 -29.99  0.002152573    2.018    0.504
        19 -11.2275     68.6979    167.8974   1.0146549406e+02   3.1497622730e+01    0.3690785    0.2859002 -26.48  0.000920125    1.590    0.371
        20 -10.2556    114.5191    173.3170   8.9913247005e+01   2.2965899822e+01    0.3464915    0.2968886  30.32  0.001792939    1.164    0.141
        21  -9.2457     89.3210    174.0388   9.6791033448e+01   2.6947792103e+01    0.2062726    0.1877721 -75.10 0.0004797709    1.094    0.086
        22 -12.5393     77.7009    158.7116   9.7413048496e+01   3.2548996116e+01      1.69631    0.6964665  55.88 0.0006373131    4.535    0.779
        23 -12.7618     65.6063    154.8108   1.0024893450e+02   3.5245018409e+01    0.5460609    0.3952298 -28.80  0.001067675    1.684    0.406
        24 -10.1057    119.5910    245.2057   9.9732401344e+01   6.7106437828e+00    0.2784765    0.1226895 -52.81   0.00112703    2.591    0.614
        25 -14.6036     10.3663    206.5388   1.2004692267e+02   2.8604615673e+01     1.336586     1.084261 -68.26  0.003742182    1.314    0.239
        26  -9.9820     68.1521    161.8781   1.0067186581e+02   3.3097572944e+01    0.2373599    0.1917489  75.98  0.001236159    1.324    0.245
        27 -10.0411     33.8503    160.2089   1.1011327805e+02   3.7554537800e+01    0.2638066    0.1664203  44.75 0.0008977528    1.643    0.391
        28  -9.9167     32.4865    155.0410   1.0985691180e+02   3.8996276263e+01    0.2548362     0.181942 -31.87  0.001350743    1.693    0.409
        29 -11.1727     23.2558    156.0753   1.1256926399e+02   3.9577235864e+01    0.3830014    0.2782099  82.52  0.001384632    1.339    0.253
        30 -11.3927     85.3712    152.7934   9.4117819448e+01   3.2885789084e+01    0.6573598    0.4531693 -20.84  0.001734437    1.984    0.496
        31 -10.4453    133.6376    144.5036   7.8830646584e+01   2.6252414839e+01      1.21107    0.3048622 -53.82  0.002745283    5.804    0.828
        32  -8.7266    175.0052    149.2362   6.9865486918e+01   1.6905657518e+01    0.1960666    0.1273589  41.00 0.0006205772    1.588    0.370
        33  -9.8383     25.8751    148.8843   1.1098214270e+02   4.1164631428e+01     0.209764    0.1629496 -51.82 0.0005697135    1.260    0.206
        34 -10.8747     55.8690    145.4836   1.0158533203e+02   3.8889839532e+01    0.4687513    0.2998586  38.71  0.002259206    1.637    0.389
        35  -9.8707     32.7130    143.8157   1.0831095468e+02   4.1831714927e+01    0.4140504    0.2390716  70.03  0.001861505    2.205    0.546
        36 -10.0600    100.3315    138.7895   8.6845628217e+01   3.3908580834e+01    0.6037689    0.3591491 -21.97  0.002152883    2.791    0.642
        37 -11.6838     87.3805    138.2029   9.0591070747e+01   3.6248847799e+01    0.3299552     0.280021 -39.78  0.000481196    1.176    0.150
        38 -10.5770    239.9103    169.4548   6.1577117000e+01   1.5557063551e+00    0.2234088    0.1593428 -18.34 0.0007819799    1.328    0.247
        39  -9.6168    110.0044    129.5114   8.1867217778e+01   3.4402798347e+01    0.3323801    0.2495181  -7.53 0.0008958617    1.736    0.424
        40  -9.2975     17.5173    132.5030   1.1140145565e+02   4.5979560851e+01    0.1333906     0.113384 -70.94 -1.883941e-05    1.011    0.011
        41 -10.1587    134.6322    129.0579   7.4898467244e+01   2.9615893555e+01    0.4094292    0.3033485  66.57  0.001793862    1.737    0.424
        42  -9.3965     44.0320    129.4990   1.0255373990e+02   4.4349402971e+01     0.204411    0.1407751  26.28  0.001035181    1.600    0.375
        43  -9.7865    105.8750    130.9019   8.3408165788e+01   3.4839453339e+01    0.3766399    0.3509167 -16.65  0.001519693    1.097    0.088
        44  -9.8772     97.1566    125.3076   8.4696955326e+01   3.7778519350e+01    0.3104731    0.2480038  -8.04 0.0007485024    1.488    0.328
        45  -8.9389    116.0173    124.0164   7.8782845108e+01   3.4545531182e+01    0.1908038    0.1819282  26.80 0.0004500823    1.057    0.054
        46  -9.7547     43.6702    122.0540   1.0133128320e+02   4.6277291046e+01    0.2067464    0.1681633 -57.89 0.0005202357    1.098    0.089
        47  -9.1442    106.9277    118.4732   8.0050479105e+01   3.7610352590e+01    0.2193384    0.2022072 -35.46 0.0003526662    1.061    0.057
        48  -9.3881     23.5017    119.4956   1.0762747800e+02   4.8791319896e+01    0.1357789    0.1161821 -60.83 0.0008106803    1.001    0.001
        49 -10.0469    231.2202    113.7732   5.1386164385e+01   1.2689989450e+01    0.2689672    0.2416525 -46.75 0.0007632534    1.044    0.042
        50 -11.0605     52.6970    109.7824   9.5736789805e+01   4.8312609855e+01    0.4976438    0.2840754 -60.52  0.002257839    1.666    0.400
        51  -9.3784    205.2806    110.2816   5.4792019939e+01   1.8410932191e+01    0.3310801    0.2211162  35.05  0.001337358    1.840    0.457
        52 -10.0663    110.1087    203.7019   9.6180458119e+01   1.6655712603e+01    0.4295198    0.1683778  27.26 0.0008860635    3.140    0.682
        53 -11.7149    244.5950    109.0407   4.8470831388e+01   1.1050475343e+01    0.4598736    0.2712779 -19.29  0.002091508    2.524    0.604
        54 -11.1556    244.9675     94.8007   4.5457944534e+01   1.3301625906e+01     0.257244    0.1811751 -31.72  0.001471216    1.412    0.292
        55  -9.1444     53.0000     90.9701   9.1091199283e+01   5.2761786067e+01    0.2340059   0.07500938 -55.03 0.0007886786    2.899    0.655
        56  -9.5786     18.0077     90.4626   1.0446418527e+02   5.6277086677e+01    0.1746761    0.1276078  13.21  0.000548913    1.545    0.353
        57  -8.3279    160.2870     83.3464   5.6608559800e+01   3.3321824352e+01    0.1493255    0.1185891   8.68 0.0004471266    1.653    0.395
        58  -8.7741     72.9245     83.5358   8.1597037129e+01   5.1557767314e+01    0.2109389    0.1395761  36.34 0.0006217351    1.553    0.356
        59  -8.3051    184.3606     77.2706   5.0386094282e+01   2.8794472759e+01    0.1413872    0.1106069  26.98 0.0005415654    1.650    0.394
        60  -8.5423     89.9628     65.4473   6.9855944564e+01   5.2109522173e+01    0.1955502    0.1268928  64.85 0.0005954481    2.485    0.598
        61  -8.7675     49.0220     62.8493   8.4405233095e+01   5.9315017400e+01    0.1823964    0.1748216   6.70  0.000323803    1.234    0.190
        62 -10.3837     13.4247     60.0046   9.9358089508e+01   6.3398239030e+01    0.2402628    0.2025272 -50.86 0.0004115103    1.196    0.164
        63 -12.5629    195.2878     48.4750   4.1519537804e+01   3.0666200258e+01    0.6916231    0.6390785  10.34  0.001074558    1.398    0.285
        64 -11.0789     95.0723    241.7115   1.0464170828e+02   1.0928441989e+01    0.4195533    0.2079977 -63.29  0.001569402    2.318    0.569
        65 -10.8222    193.9837    196.4772   7.5589965370e+01   4.0668288916e+00    0.6043019    0.3438113 -63.30  0.002169053    4.028    0.752
        66 -10.7166    118.0816    237.9895   9.9145028595e+01   8.2942557203e+00     0.374674    0.1951391 -61.16  0.001406747    2.343    0.573
        67  -9.2386    197.9615     23.6233   3.5280484444e+01   3.3181871413e+01    0.1940466    0.1709195 -28.82 0.0006023736    1.385    0.278
        68  -9.0269      2.3357     22.3151   9.2898086402e+01   7.1298445040e+01    0.1254982   0.06402986 -24.17 0.0004812833    1.692    0.409
        69  -8.9696    189.4924     14.9786   3.4137820720e+01   3.6043878159e+01    0.1725739    0.1183632 -36.83 0.0005747713    1.556    0.357
        70  -9.4151    122.3330    199.0626   9.2451590438e+01   1.5693366600e+01    0.2720188    0.2428317  73.64 0.0008178503    1.249    0.199
        71  -8.7414    169.0175    235.7266   8.7724115031e+01   9.7372669084e-01    0.1772894    0.1480724  15.66 0.0003190485    1.015    0.015
