#   1 NUMBER                 Running object number                                     
#   2 MAG_AUTO               Kron-like elliptical aperture magnitude                    [mag]
#   3 X_IMAGE                Object position along x                                    [pixel]
#   4 Y_IMAGE                Object position along y                                    [pixel]
#   5 X_WORLD                Barycenter position along world x axis                     [deg]
#   6 Y_WORLD                Barycenter position along world y axis                     [deg]
#   7 A_WORLD                Profile RMS along major axis (world units)                 [deg]
#   8 B_WORLD                Profile RMS along minor axis (world units)                 [deg]
#   9 THETA_WORLD            Position angle (CCW/world-x)                               [deg]
#  10 FWHM_WORLD             FWHM assuming a gaussian core                              [deg]
#  11 ELONGATION             A_IMAGE/B_IMAGE                                           
#  12 ELLIPTICITY            1 - B_IMAGE/A_IMAGE                                       
         1 -14.2443    225.9484      8.2277   3.2955106237e+01   2.8276011887e+01     1.199947     1.005385  41.54  0.004666348    1.558    0.358
         2 -15.0489    198.3458     38.6976   4.3361773467e+01   3.1042305832e+01     2.325521       1.4899  13.94    0.0103505    2.552    0.608
         3 -13.9228     54.7038      4.4300   5.9797193856e+01   7.0377871767e+01     1.489949     0.476383  50.54  0.005757588    2.877    0.652
         4 -10.0319    167.9020    232.0663   9.0682645063e+01   5.9704588998e+00     0.199158    0.1387553  20.89 0.0008410873    1.188    0.158
         5 -16.8476     70.4163    145.9868   1.0089940092e+02   3.6536906216e+01     17.17909     7.779523  75.57   0.03214598    6.951    0.856
         6 -11.4640     55.4340    206.2129   1.1119862115e+02   2.5051080301e+01    0.3294492    0.2176493  74.35  0.001084416    1.497    0.332
         7  -9.1957     71.4723    215.4374   1.0841564481e+02   2.1371078883e+01    0.1204934   0.09677964  49.08 5.727638e-05    1.007    0.007
         8 -11.2318    184.6570    212.3810   8.4825951712e+01   6.4068849759e+00    0.2317517    0.1975676 -44.04  0.001623152    1.555    0.357
         9  -9.6934     70.6956    210.4715   1.0816125168e+02   2.2406881389e+01    0.2037681    0.1215162  68.01  0.001131488    1.811    0.448
        10 -11.8208     41.4111    207.1069   1.1437323407e+02   2.6423296512e+01    0.3598839    0.1742016  70.82  0.001085174    2.150    0.535
        11 -18.4116     13.3828    235.9581   1.2144886409e+02   2.3745681133e+01      7.37234     4.733072  86.00    0.0540512    1.514    0.339
        12 -10.3445     93.4984    205.3803   1.0261197226e+02   2.0443280109e+01    0.2383235    0.1663337  16.05 0.0008699835    1.706    0.414
        13 -11.2886     72.0000    248.9130   1.1081652199e+02   1.5520462180e+01    0.1875193    0.1350472 -85.47  0.001369727    1.654    0.395
        14 -10.7901     89.6743    211.8401   1.0412995544e+02   1.9742445906e+01    0.2346761    0.1908561  80.03 0.0008915189    1.339    0.253
        15 -12.6192    203.9992    200.1104   7.9412378461e+01   5.4122822631e+00    0.5483565    0.2298512  23.41  0.002395344    2.982    0.665
        16 -11.2439     26.2404    203.2971   1.1750208594e+02   2.8728666319e+01    0.3489994    0.1166502  46.46  0.001695652    2.204    0.546
        17 -10.4783     20.9864    203.5573   1.1866871291e+02   2.9174232754e+01    0.1888517    0.1468532  15.66 0.0004336471    1.638    0.390
        18 -11.8844     63.1354    200.0902   1.0895756085e+02   2.5372756755e+01    0.3897207    0.1980887 -61.19  0.000801729    2.156    0.536
        19 -11.1510     66.4840    195.0130   1.0772386085e+02   2.6001467212e+01    0.4552569    0.2246315  39.64   0.00232935    1.692    0.409
        20 -11.5585     71.8807    244.7798   1.1055999175e+02   1.6198124083e+01    0.3718336    0.1710788  46.07 0.0007157588    1.668    0.400
        21 -13.2472     50.9626    195.8717   1.1141747487e+02   2.7663822070e+01    0.4432867    0.3368777 -26.38  0.001322871    1.986    0.497
        22 -13.4594     62.3918    183.7318   1.0761826020e+02   2.8892073551e+01    0.8390352    0.7228673   3.60  0.005272427    1.493    0.330
        23 -10.8786    151.6845    193.3938   8.8366781922e+01   1.4125246612e+01    0.2608649    0.2380577  86.88  0.001025638    1.446    0.308
        24 -12.2492    147.8114    187.3366   8.8227157075e+01   1.5769302792e+01    0.4971758    0.2882897 -54.59  0.002418347    2.103    0.525
        25 -12.4704     49.1515    249.1613   1.1519005032e+02   1.7985823563e+01    0.1877927    0.1464099  73.26  0.001436612    1.282    0.220
        26  -8.8521     58.1514    226.4050   1.1206249190e+02   2.0914559667e+01     0.307434    0.1592364  71.47  0.001697052    2.179    0.541
        27 -12.1222    193.0625    195.2206   8.0565842960e+01   7.6396941455e+00     1.096948    0.5786347 -55.95  0.004625849    4.121    0.757
        28 -11.6841     99.3306    180.9267   9.8287964687e+01   2.4469150109e+01    0.2695488    0.2382913  31.94 0.0006108781    1.119    0.107
        29  -9.9322     82.1852    194.9450   1.0405331293e+02   2.3999799880e+01    0.2234214    0.1694569  35.94 0.0009761935    1.205    0.170
        30 -12.4520    240.9819    177.7122   6.9446211349e+01   3.2809971106e+00     0.403267    0.1888624  36.88  0.002211769    2.198    0.545
        31 -11.4715    187.0214    175.4060   7.8242116040e+01   1.1539551287e+01    0.3464909       0.2705 -35.28  0.001115915    1.330    0.248
        32 -10.2845    148.6399    175.2994   8.6050515572e+01   1.7795093036e+01    0.2443276    0.2005834  63.17 0.0006380804    1.506    0.336
        33 -11.1383    146.4809    171.9685   8.5943914683e+01   1.8767090861e+01    0.2644556    0.2385792  75.25  0.000738002    1.354    0.261
        34  -8.0544     59.8989    219.5502   1.1121714453e+02   2.1972382591e+01    0.2562279    0.1717002 -39.87  0.001059697    2.249    0.555
        35 -11.0877     47.3560    171.9219   1.1026606945e+02   3.3299927737e+01    0.4476509    0.3687749 -60.34  0.002601272    1.365    0.267
        36 -12.1089    230.5800    172.9045   7.0187061716e+01   5.3333812567e+00    0.2767111     0.193914  -9.76  0.001758466    1.259    0.206
        37  -9.6281    193.1938    170.1980   7.6116889004e+01   1.1374217286e+01    0.1588736    0.1558748 -34.66 0.0006127949    1.333    0.250
        38 -11.3254    240.6012    169.1821   6.7943082082e+01   4.4182797404e+00    0.1597623    0.1333096  -3.32 0.0006413328    1.117    0.105
        39 -10.7543    185.0818    168.3151   7.7296523916e+01   1.2986978675e+01    0.2427486    0.1861396 -40.41 0.0007232477    1.392    0.282
        40  -9.5758     52.7366    219.3184   1.1271984120e+02   2.2826630041e+01    0.1702181    0.1181789  58.51 0.0004434144    1.209    0.173
        41 -10.5590    136.5121    166.3651   8.7200118901e+01   2.1511217409e+01    0.3957538    0.1933033  50.42   0.00163424    2.371    0.578
        42  -9.8731    133.9751    163.2299   8.7228469597e+01   2.2562454336e+01    0.2935821    0.2031782  48.50  0.001500149    1.468    0.319
        43 -11.4112     52.0194    164.5206   1.0832000716e+02   3.4471280990e+01    0.4169249    0.2288657 -46.32     0.001957    2.326    0.570
        44 -12.3011     92.6810    151.1709   9.5520879105e+01   3.2007502531e+01    0.6706225    0.5454644 -13.67  0.002072651    1.611    0.379
        45 -11.6607    133.8082    145.4209   8.3868257474e+01   2.6232998481e+01     1.184632    0.3203347 -54.77  0.003054397    5.684    0.824
        46  -9.5541    112.5947    150.7625   9.0200069142e+01   2.8836654004e+01    0.1892103    0.1377833 -69.10 0.0004417813    1.560    0.359
        47 -10.5787    174.6017    149.0540   7.5553695063e+01   1.8064798451e+01    0.2425759    0.2305113  40.28  0.000807082    1.177    0.151
        48 -17.7675      1.4689     92.8028   1.1717625504e+02   5.6911105568e+01     15.54835          nan -78.77   0.01803819   30.256    0.967
        49 -10.9992    105.2427    137.4653   8.9619378799e+01   3.3098169785e+01    0.5026734    0.3284539 -20.90   0.00206838    2.495    0.599
        50 -11.1913    105.9588    130.7631   8.8061190104e+01   3.4521347288e+01    0.4043089    0.3177696 -67.03  0.001121891    1.338    0.253
        51 -12.4072     92.7655    137.2486   9.3048024856e+01   3.5254176693e+01    0.2761648    0.2638792 -47.73  0.000403739    1.118    0.106
        52 -11.2731    135.7673    129.9351   8.0075689145e+01   2.9120561621e+01    0.9331545     0.186695 -47.27  0.002396686    5.032    0.801
        53 -10.8718    135.0084    119.7018   7.7875225538e+01   3.1442189055e+01    0.6982855    0.1117667 -44.76  0.001564307    6.251    0.840
        54 -11.0707    113.1902    128.8093   8.5661174778e+01   3.3659024182e+01    0.3250147    0.2857634  -5.85 0.0006476182    1.331    0.249
        55 -10.2066    160.8281    127.9036   7.3807680206e+01   2.4593595575e+01    0.3414362    0.1946722 -48.88  0.001486416    1.848    0.459
        56 -11.1083    100.5668    124.7899   8.8316806563e+01   3.6878300813e+01    0.2722508    0.2404048   0.17 0.0005986849    1.344    0.256
        57 -11.6556    119.7086    123.1077   8.2629761743e+01   3.3718140974e+01     0.497719    0.3485233   4.47  0.002092319    2.258    0.557
        58 -10.1464    108.9944    118.0890   8.4407712854e+01   3.6903605334e+01    0.2157992    0.2139007  62.74 0.0003061973    1.032    0.031
        59 -10.8306    231.3181    113.7692   5.7989099250e+01   1.3548479882e+01    0.2568044    0.2091761 -27.04 0.0007871608    1.040    0.039
        60  -9.6934    167.8588    112.7198   6.8656496644e+01   2.6049842743e+01    0.2876903    0.1894891 -64.17  0.001227661    2.165    0.538
        61 -12.3905    118.0049    108.4102   7.9518182215e+01   3.7349113852e+01    0.8184922    0.6730561 -66.55  0.004082941    1.305    0.234
        62 -10.3314    205.4655    110.2187   6.1104667746e+01   1.8864183798e+01    0.2806822    0.1948323  39.09 0.0009545673    1.584    0.369
        63  -8.7607    142.5308    109.4811   7.3481826315e+01   3.2027120923e+01    0.1498802     0.146125 -33.16 0.0001075516    1.003    0.003
        64 -10.1135    135.4141    102.7813   7.3460544222e+01   3.4934404314e+01    0.2282048    0.1977152 -35.48 0.0009826609    1.153    0.133
        65 -11.2573     48.7402    216.3220   1.1337277786e+02   2.3834957857e+01    0.3395669    0.2511413  87.47  0.001521864    1.372    0.271
        66 -10.2010    131.0390     98.6840   7.3452508380e+01   3.6737475597e+01    0.2942453    0.2150584 -72.47 0.0009417146    1.781    0.438
        67  99.0000     63.7094    214.6832   1.1003375402e+02   2.2443162704e+01    0.6266043    0.2908837  72.45  0.002435847    2.964    0.663
        68  -9.7874     65.7870    206.9558   1.0894774642e+02   2.3685186581e+01    0.2886594    0.2613444 -12.53  0.001378683    1.470    0.320
        69 -10.9433     57.0365    211.2473   1.1122397521e+02   2.3879290439e+01    0.2700054    0.2522792   9.54   0.00151034    1.373    0.272
        70  -9.3427    156.9788     82.5408   6.2783544435e+01   3.4071084733e+01    0.2202872    0.1504796  53.43 0.0005543726    1.529    0.346
        71 -10.9169     49.1966     78.5251   9.5051563231e+01   5.6460539200e+01     0.357319    0.1900685 -65.87  0.001229335    1.858    0.462
        72  -9.5596    184.6822     77.0450   5.6039272516e+01   2.8640729186e+01    0.2083832    0.1782964 -30.66 0.0005950023    1.108    0.098
        73 -12.4052    248.4070    246.1308   7.9198059255e+01  -5.0811312640e+00    0.4080476     0.216329 -22.84  0.002964195    1.731    0.422
        74 -13.6414    182.4731     52.3456   4.9328304385e+01   3.2949249047e+01    0.7417083    0.6662851  35.53  0.000850409    1.270    0.212
        75  -9.7877     83.9600    245.2945   1.0824634418e+02   1.4707970007e+01    0.1766545    0.1111216  51.77 0.0005021887    1.373    0.272
        76 -10.2162    189.8087     15.1080   3.7474650444e+01   3.5822823931e+01    0.2168104    0.1625696 -55.58 0.0006607394    1.201    0.167
