#   1 NUMBER                 Running object number                                     
#   2 MAG_AUTO               Kron-like elliptical aperture magnitude                    [mag]
#   3 X_IMAGE                Object position along x                                    [pixel]
#   4 Y_IMAGE                Object position along y                                    [pixel]
#   5 X_WORLD                Barycenter position along world x axis                     [deg]
#   6 Y_WORLD                Barycenter position along world y axis                     [deg]
#   7 A_WORLD                Profile RMS along major axis (world units)                 [deg]
#   8 B_WORLD                Profile RMS along minor axis (world units)                 [deg]
#   9 THETA_WORLD            Position angle (CCW/world-x)                               [deg]
#  10 FWHM_WORLD             FWHM assuming a gaussian core                              [deg]
#  11 ELONGATION             A_IMAGE/B_IMAGE                                           
#  12 ELLIPTICITY            1 - B_IMAGE/A_IMAGE                                       
         1 -12.4770    221.1335     79.5221   4.8621698281e+01   1.9863145230e+01     2.542673    0.7293073 -51.48  0.006816433    5.567    0.820
         2 -13.4264    241.3897     80.0835   4.6092543398e+01   1.5617306485e+01     3.055689     1.109371 -37.86   0.01263176    2.388    0.581
         3 -12.3168    134.7245     39.9114   5.2606474260e+01   4.6034501833e+01     1.440632    0.7467007  75.19  0.003305041    2.815    0.645
         4 -12.8238    162.0685     51.4291   5.0757129675e+01   3.7855701453e+01     2.228102      1.56038  87.59   0.01081518    1.699    0.411
         5 -13.0353    228.3927     58.9538   4.2989174488e+01   2.1451642637e+01     1.375714    0.9811772 -39.26  0.007885041    1.324    0.245
         6 -12.6849    221.1659     37.9660   3.9071930618e+01   2.5884835094e+01      2.46505    0.9149494 -59.79   0.00869065    3.902    0.744
         7 -12.8828    240.5544     28.5605   3.5212026513e+01   2.2965889136e+01     2.254711    0.6583166  60.16  0.009474633    3.425    0.708
         8 -12.5665    239.9817     51.1589   4.0010992314e+01   2.0142157914e+01    0.9204997    0.6670793 -71.34  0.002560027    1.305    0.234
         9 -13.4919    243.2946    114.6677   5.3335589233e+01   9.6692868705e+00     4.231738     1.122399 -35.62   0.01381799    3.647    0.726
        10 -11.2013    188.0098     44.1245   4.4607373792e+01   3.2640326047e+01    0.9318398    0.6537805 -25.89  0.004361445    1.635    0.388
        11 -12.2242    182.6147     82.0963   5.5421920898e+01   2.8065433292e+01     2.004348    0.6368113 -45.02  0.004032879    3.182    0.686
        12 -11.4054    131.9846     21.7588   4.7273422457e+01   4.8838836726e+01     1.123521    0.6240625 -59.52  0.004913321    2.630    0.620
        13  -9.0639    228.5356     17.4353   3.3894939279e+01   2.6783323403e+01     0.312258    0.1577281 -45.69  0.001698545    1.725    0.420
        14  -9.5830    120.1504      9.3729   4.5382828262e+01   5.2823850928e+01    0.2867239    0.2790909 -59.52 0.0009630824    1.180    0.153
        15  -8.1868    192.3937      9.7813   3.5450746977e+01   3.5645057426e+01     0.206974    0.2019518  -0.64  0.000929594    1.314    0.239
        16  -7.2594    195.4872      7.4847   3.4597387027e+01   3.5162873057e+01    0.1810085    0.1605878 -44.36 0.0006547358    1.259    0.206
        17  -9.6159    151.0780      7.1413   3.9623465555e+01   4.5682242419e+01    0.4425729    0.1721633 -26.30  0.001825562    2.848    0.649
        18  -7.7867    138.8636      6.8118   4.1317144570e+01   4.8631473453e+01    0.1672242    0.1390872 -66.10 0.0006011591    1.317    0.241
        19  -7.8608    213.2819      5.7193   3.2624268987e+01   3.1342200767e+01    0.1229972    0.0745023 -66.68 0.0003878479    1.512    0.339
        20 -10.2350    249.2879      2.2086   2.9372872599e+01   2.4205419983e+01    0.2049036    0.1601247 -72.40 0.0004411354    1.048    0.046
        21  -8.3530    171.4695      2.0803   3.5702416301e+01   4.1270756299e+01    0.2943128    0.1515693 -69.45  0.001263637    2.304    0.566
        22  -8.2210    128.4176      2.2393   4.1525516982e+01   5.1483408759e+01     0.205349    0.1281062 -12.50  0.001111873    1.962    0.490
        23  -8.8996    183.8700      1.6687   3.4311734884e+01   3.8400601893e+01    0.1797581    0.1450877  67.27 0.0006112006    1.195    0.163
        24  -7.8928    200.4536    173.9622   7.3564873878e+01   6.9571726794e+00    0.2130611    0.1320746 -39.78 0.0005931457    1.556    0.357
        25  -8.3112    136.4850    250.5209   9.9889747668e+01   3.8057203386e+00    0.1259466    0.1039454  38.93 8.243627e-05    1.042    0.041
        26  -8.6739    216.2042    170.4747   6.9794087569e+01   4.8122976945e+00    0.2142684    0.2040946 -71.42 0.0005543223    1.364    0.267
        27  -9.3260    238.0929    175.6648   6.6908909408e+01   3.1452217832e-01    0.3223555    0.2333853  68.64  0.001606039    2.673    0.626
        28  -8.6124     45.1556    177.1807   1.1134580386e+02   3.2222994703e+01     0.184543    0.1622511 -63.09 0.0003697872    1.194    0.163
        29  -8.3786     90.3706    247.6450   1.0889138014e+02   1.1067190783e+01    0.1945775    0.1184346  59.19 0.0007157723    1.608    0.378
        30  -9.4245    132.4616    246.2509   1.0016486375e+02   5.1359565207e+00    0.2138331     0.121859 -47.54  0.001139527    2.072    0.517
        31  -7.6698    216.4898    157.0490   6.6927961095e+01   7.1673042438e+00    0.1964357    0.1275721 -38.36 0.0003504741    1.416    0.294
        32  -7.8035    158.9383    157.4923   7.9042491754e+01   1.8164567941e+01    0.2195777    0.1312847  63.14 0.0008081289    2.640    0.621
        33  -9.0165     58.8485    155.6083   1.0487615304e+02   3.5848631207e+01    0.2034312    0.1185365  45.53 0.0009494415    1.778    0.438
        34  -8.1861    204.5655    152.9665   6.8302062042e+01   1.0127940379e+01    0.3576172    0.2452874  75.27  0.001505224    2.716    0.632
        35 -10.0254     54.3581    149.6187   1.0519894787e+02   3.7901446391e+01    0.3004779    0.1955257 -48.13  0.001303742    1.553    0.356
        36  -9.5800     69.9870    145.5059   1.0006712766e+02   3.6874621961e+01    0.3601548    0.2854237  49.74  0.001506629    1.320    0.242
        37  -9.8196     66.4935    144.4646   1.0088553680e+02   3.7618634671e+01    0.5631323    0.3146836 -70.61  0.001769872    1.884    0.469
        38  -9.8637    192.4183    143.6306   6.8630513827e+01   1.4292953548e+01    0.3566663    0.2932597  26.11  0.001199346    1.292    0.226
        39  -7.4941    216.6327    142.2542   6.3695891699e+01   9.8294616601e+00    0.1334835    0.1119485 -83.99 0.0006963874    1.632    0.387
        40 -10.6570    208.6832     69.4155   4.7989021420e+01   2.4177039492e+01     0.477767    0.2784693  55.25  0.001198998    1.792    0.442
        41 -10.1384    187.0518    138.7117   6.8600894013e+01   1.6353441871e+01    0.3301643    0.2550824 -44.55 0.0006417857    1.262    0.208
        42 -10.7943    178.9125    135.5855   6.9580690940e+01   1.8670322505e+01    0.7620804    0.3477768 -49.53  0.002794268    2.365    0.577
        43  -8.7903    158.1167    139.7859   7.5235119762e+01   2.2146984891e+01    0.2244517    0.2080193 -85.23 0.0003440833    1.217    0.178
        44  -8.8429    161.4772    136.3588   7.3643482250e+01   2.2177494252e+01    0.3123865    0.2333331 -77.60 0.0006177844    1.900    0.474
        45  -8.2616    130.5378    137.1891   8.1463010809e+01   2.8394776935e+01     0.250794    0.2023462  51.46  0.000374591    1.297    0.229
        46 -12.4373    144.8667     58.6544   5.6294126365e+01   4.0918783656e+01     1.633613     1.053133  44.57  0.005199498    1.551    0.355
        47  -8.1842     98.4398    243.2164   1.0678893466e+02   1.0739497915e+01    0.1564795    0.1149441 -89.89 0.0007605091    1.586    0.370
        48 -11.5608    184.4307    129.3340   6.6940599207e+01   1.8765870484e+01     1.195169    0.7782502 -88.10  0.004245424    3.375    0.704
        49 -11.7909    183.6166     68.8471   5.1762427558e+01   3.0035340602e+01    0.6185074    0.4497553  26.48  0.002934943    1.872    0.466
        50  -8.5132    219.7059    134.0765   6.1342281909e+01   1.0729481983e+01    0.2409558    0.1992253 -82.65 0.0009443751    1.620    0.383
        51  -9.3372    197.1572    130.4416   6.4655935860e+01   1.5891679815e+01    0.2830984    0.1930616 -71.46  0.001196683    2.281    0.562
        52  -8.8838    222.9381    129.1138   5.9684064149e+01   1.1001370122e+01    0.2500051    0.2083225  -8.18  0.000377732    1.310    0.236
        53  -8.6752    202.9429    244.7128   8.5892613887e+01  -5.1371298290e+00    0.1920118    0.1561843 -11.96  0.001292224    1.194    0.163
        54  -7.2842     93.2597    129.3031   8.9997187346e+01   3.7253807042e+01    0.1489306     0.114659 -25.43 0.0002374761    1.515    0.340
        55  -9.2143    201.9518    125.9032   6.2683537476e+01   1.5768410137e+01    0.2189814    0.2018074 -44.08 0.0004727042    1.058    0.054
        56  -7.7958    215.5122    125.4924   6.0141344754e+01   1.3101342814e+01     0.143392    0.1298762 -30.10 -5.336247e-05    1.028    0.028
        57  -7.6585    138.6534    129.3212   7.7488985882e+01   2.8517839036e+01    0.1613412     0.126162  86.07 0.0007049485    1.735    0.424
        58  -8.4638    160.8283    128.8377   7.1982584251e+01   2.3913584457e+01    0.2171699     0.189608 -78.15 0.0009239812    1.338    0.253
        59  -9.5094    162.2802    120.5431   6.9594898857e+01   2.5338706100e+01    0.5111008    0.3150878 -63.14  0.001783353    2.263    0.558
        60  -8.5355    158.5134    116.5367   6.9445416385e+01   2.6999910390e+01    0.2633496    0.2000203 -69.02 0.0006420756    1.640    0.390
        61  -7.6976    241.6385    239.2976   7.7935338013e+01  -9.5757047149e+00    0.0995295    0.0912395  34.22 0.0004054401    1.713    0.416
        62  -7.6602     81.6459    116.9464   9.0661683487e+01   4.2165288668e+01    0.2427444     0.127236 -76.61 0.0007037721    4.364    0.771
        63  -9.3668    200.7789    115.9997   6.0564663489e+01   1.7871825292e+01    0.2460373    0.2180717  51.76 0.0007842271    1.211    0.174
        64 -11.8890    186.7958    118.3755   6.3817688101e+01   2.0415187504e+01     2.234797    0.4837461 -37.70  0.005500818    5.163    0.806
        65 -10.4313    195.1457    111.3991   6.0501864605e+01   1.9937400558e+01    0.6000906    0.3312064 -62.95  0.002171812    2.941    0.660
        66  -8.2633    135.1072    111.9320   7.3980647714e+01   3.3101526583e+01    0.3616195    0.1629654 -49.59  0.001276168    2.332    0.571
        67  -7.7931    155.5055    112.0011   6.8975603215e+01   2.8606630713e+01    0.2395702    0.1508103 -43.79  0.001020256    1.562    0.360
        68 -10.3074    206.2608    109.1202   5.7944731030e+01   1.7975417195e+01    0.4935168    0.3825501   3.00   0.00245257    1.719    0.418
        69  -7.8767     87.6645    231.3161   1.0773212178e+02   1.4581169185e+01     0.136142   0.08390111  62.59 0.0007047709    1.694    0.410
        70  -8.9562    238.2375    228.3687   7.6683769271e+01  -7.6835464600e+00    0.2108466    0.1645309  21.93 0.0003839371    1.273    0.214
        71  -8.4877    123.4413    104.7858   7.5164656364e+01   3.7133341877e+01    0.3036951    0.1487389 -50.15  0.001087847    2.146    0.534
        72  -7.9995    144.6007    104.2394   6.9527331297e+01   3.2643216222e+01    0.2186977    0.1463863 -29.99 0.0005580509    1.655    0.396
        73  -9.6045    152.5318     99.8533   6.6441189428e+01   3.1742483823e+01    0.4336962    0.3068241  42.14  0.001613683    1.452    0.311
        74  -8.5401    137.2505     96.6154   6.9259417274e+01   3.5844198798e+01    0.2607221    0.2310117 -78.42 0.0007676439    1.289    0.224
        75  -8.8503    162.4791     94.4653   6.2742434292e+01   3.0507263254e+01     0.351038    0.2729841 -50.82  0.001376777    1.307    0.235
        76  -9.7663    165.7180     92.9689   6.1644622367e+01   3.0040232741e+01    0.3438619    0.3228255 -45.96  0.001008471    1.048    0.046
        77  -8.1854     78.0116    107.9067   8.9622969677e+01   4.4895888157e+01    0.2062368    0.1934502 -34.55            0    1.019    0.018
        78  -8.0110    150.8277     93.1624   6.5001193338e+01   3.3446985467e+01    0.2228774    0.2027972 -69.94 0.0006715683    1.175    0.149
        79  -7.7926     78.4191     92.1931   8.5339209143e+01   4.8432371950e+01    0.1988506    0.1371933 -61.18 0.0009256409    1.649    0.394
        80  -8.5538    154.2520     90.1248   6.3373485267e+01   3.3238108565e+01    0.2944706    0.2010975 -55.94  0.001106497    1.645    0.392
        81  -9.5074    146.2948     89.7162   6.5099146386e+01   3.5154953049e+01     0.314741    0.2877151 -50.71  0.000689742    1.109    0.098
        82  -8.1736      3.3188     91.3315   1.1195778608e+02   5.6614893408e+01    0.1347919     0.070012 -43.61 -1.385361e-05    1.691    0.409
        83 -10.2138     95.5918     89.0105   7.8846768920e+01   4.6100166931e+01    0.2521567    0.2100586  33.30 0.0002468467    1.218    0.179
        84 -11.0314    163.2780     83.3239   5.9528224766e+01   3.2383395722e+01    0.4169645    0.3330555  -2.37 0.0007235945    1.598    0.374
        85  -7.8699    207.3510     83.2074   5.1529443939e+01   2.2253118354e+01    0.2047462    0.1154086 -47.67  0.000463161    1.688    0.408
        86 -10.2521    190.9977     78.7464   5.3078077764e+01   2.6692221556e+01     0.302532    0.2739137 -52.43  0.000342124    1.054    0.051
        87  -8.0900    139.6258     78.8329   6.3547214565e+01   3.8735297525e+01    0.2133846    0.1375994 -48.78 0.0003627309    1.652    0.395
        88  -8.3551    112.6731     74.2864   6.9214366030e+01   4.5599129679e+01    0.2730435    0.1734575 -50.95  0.001205467    1.781    0.439
        89  -9.1282    202.0218    227.3741   8.3243978829e+01  -2.4353788616e+00    0.2687733    0.2311155  83.36  0.001401945    2.083    0.520
        90  -8.6039    151.4797     71.1194   5.8573182914e+01   3.7311796457e+01    0.2249431    0.1457645 -37.89  0.000651121    1.565    0.361
        91  -9.5637    143.3911     67.4522   5.9275745184e+01   3.9847397162e+01    0.3438792    0.2538354 -45.22 0.0009821403    1.404    0.288
        92  -8.3400    119.6613     67.7866   6.5224634335e+01   4.5251276671e+01     0.213107    0.1325978 -46.12 0.0006368511    1.727    0.421
        93  -8.7340    117.9358     63.6759   6.4365847851e+01   4.6343542142e+01    0.2054954    0.1839584  39.43 0.0004642092    1.075    0.070
        94 -10.5831    222.3402    220.6348   7.8217661862e+01  -4.3925172488e+00    0.3859173    0.2518523   7.14 0.0006791181    1.539    0.350
        95  -9.5399    178.8047     41.7828   4.5324507931e+01   3.5146350475e+01     0.377378    0.2778685  55.79  0.001604844    1.342    0.255
        96  -9.3801    203.2997     37.1481   4.0879747284e+01   2.9991134193e+01    0.8222752      0.14017  61.96  0.002532745    4.621    0.784
        97  -8.9071    194.0818     48.2360   4.4809776615e+01   3.0649682473e+01    0.5551714    0.1674542 -43.20  0.001438968    3.084    0.676
        98  -8.4828    186.9382     34.2105   4.2194881822e+01   3.4178279709e+01      0.33507    0.2756754  76.60  0.001220347    1.125    0.111
        99  -9.2422    196.9033     55.8236   4.6326025312e+01   2.8913468421e+01    0.4180628    0.2379864 -61.84  0.001870466    2.059    0.514
       100  -9.9540    196.4704     41.9994   4.2921135237e+01   3.0937519653e+01    0.6712709    0.2781581 -52.34  0.002530131    2.675    0.626
       101 -10.2685    191.8841     54.4738   4.6712158237e+01   3.0280359056e+01    0.5708174     0.252894 -53.39  0.001283801    2.634    0.620
       102  -9.3233    190.4094    221.4152   8.4529005690e+01   2.9115975978e-01    0.3145095    0.1987022  39.31 0.0009528708    1.540    0.351
       103  -7.7320     72.5807     58.4339   7.6778496401e+01   5.6247039696e+01    0.1359978    0.1243251  -6.90 0.0002989878    1.052    0.049
       104  -8.4774    107.0374     54.6679   6.4367921397e+01   5.0214060253e+01    0.2018324    0.1732079  42.83 0.0004469384    1.125    0.111
       105  -7.9428     83.1537     51.9370   7.0778231978e+01   5.5485611040e+01    0.2160504    0.1580225 -60.70 0.0008938565    2.000    0.500
       106  -9.0369    182.2296    161.0527   7.4614743997e+01   1.2846808969e+01    0.3352472    0.2642013  47.55  0.001118241    1.363    0.266
       107  -8.8288    207.5705     47.5610   4.2866315935e+01   2.7634220616e+01    0.2828496    0.2215726 -42.55  0.001260159    1.247    0.198
       108  -9.9229    191.6316     91.5344   5.6219285640e+01   2.4343686550e+01     1.023932    0.6647185  -8.23  0.003959424    2.629    0.620
       109  -9.5845    250.0693     41.7921   3.7094079418e+01   1.9377822232e+01     0.312163    0.1722701 -28.34  0.001632206    2.117    0.528
       110  -8.9946    191.0768    217.0073   8.3636534053e+01   9.1530574179e-01    0.1969282    0.1668066   6.76    0.0012077    1.037    0.036
       111 -10.1403    106.5571     35.7419   5.7837771252e+01   5.3065773124e+01    0.3104244    0.2435259 -46.76  0.001326845    1.495    0.331
       112  -8.5473    182.6135     32.7787   4.2398873197e+01   3.5382424050e+01    0.2721815    0.2023001  32.17  0.001170641    1.753    0.430
       113 -10.3543    132.1069     31.2236   5.0337870283e+01   4.7745692863e+01    0.3917204     0.243033 -10.91  0.001240489    2.112    0.527
       114  -8.3925    192.0326    212.1046   8.2582765553e+01   1.5871388190e+00    0.1969112    0.1691496   6.41 0.0002881924    1.018    0.018
       115  -9.1992    125.0802     31.5833   5.1938540026e+01   4.9361255673e+01    0.2288246    0.1971157  -2.98 0.0003449713    1.281    0.219
       116  -9.3155    145.5313     31.0247   4.7694889793e+01   4.4549568209e+01    0.2291605     0.176205 -18.24 0.0007154241    1.506    0.336
       117  -9.6303    143.7111     26.7175   4.6693019741e+01   4.5487249820e+01    0.3600716     0.200945 -49.59  0.001677313    2.090    0.521
       118  -9.0322    100.0001     28.9173   5.7079436958e+01   5.5353617525e+01      0.19744    0.1832199  23.95 0.0004639344    1.063    0.059
       119  -8.7431    182.3773     27.4447   4.1036963086e+01   3.6077441194e+01    0.3605805    0.2108646 -69.25  0.000611731    1.995    0.499
       120  -8.9012    177.9583     23.8302   4.0659292023e+01   3.7545470471e+01    0.3122232    0.2716652  68.63  0.001465925    1.109    0.099
       121  -8.6655    197.0239     25.4801   3.8774566648e+01   3.2866020385e+01    0.2384565    0.1490164 -49.78  0.000687519    1.533    0.348
       122 -10.7888    202.3381     72.5700   4.9698021399e+01   2.5107784247e+01    0.6039616     0.368532 -21.30   0.00268643    2.172    0.540
       123  -8.5879    243.5424    207.2569   7.2001726538e+01  -5.4006704567e+00    0.2254892    0.1755612 -66.07  0.001236109    2.660    0.624
       124  -7.9236    223.0063     16.2247   3.4099627282e+01   2.8102224533e+01    0.2017201    0.1086675 -75.16  0.001043612    1.904    0.475
       125  -8.0193    215.8702     16.1610   3.4707530784e+01   2.9663920559e+01    0.1409097    0.1314463 -85.48 0.0003220528    1.203    0.169
       126 -11.2425    148.2078     41.1359   5.0289145540e+01   4.2635354168e+01    0.7284629    0.4153837 -40.69  0.002788619    1.837    0.456
       127 -10.0849    159.0121    206.5649   8.8566637330e+01   8.0932345911e+00    0.2412599    0.2295725  -9.87  0.001466916    1.093    0.085
       128  -8.0279    111.0170    203.2711   9.8918068350e+01   1.6853049964e+01    0.1839178    0.1598062  44.02 0.0002699394    1.069    0.065
       129  -7.7520    196.4723     10.4982   3.5219184226e+01   3.4632913047e+01    0.2129612    0.1094322  74.57 0.0007789298    1.748    0.428
       130  -8.7764    192.0083    193.0191   7.9066295132e+01   4.9418407883e+00     0.337382     0.181958 -62.25  0.001134955    4.402    0.773
       131  -9.2398     43.3946    193.1207   1.1349124217e+02   2.8672171319e+01    0.2057982    0.1867726  58.43 0.0003190723    1.158    0.137
       132  -7.5052    141.7203     10.3173   4.1957056256e+01   4.7637828688e+01    0.1278898   0.09273455 -68.64  0.000339259    1.576    0.366
       133  -8.7890    181.1095    191.9761   8.1140028278e+01   7.0269787601e+00    0.2056695     0.188605   5.73 0.0003227818    1.020    0.020
       134  -7.9927    242.2471    183.4452   6.7726884748e+01  -1.5762585422e+00    0.1474461    0.1231881  40.20 0.0003400611    1.478    0.323
       135 -13.1078     23.5194    170.0336   1.1592423057e+02   3.6189634527e+01     1.267403    0.9431416   4.64  0.004903262    1.888    0.470
       136 -12.4646     37.9685    162.1189   1.1138491617e+02   3.6670875421e+01     1.012725    0.8609691 -81.18   0.00311244    1.026    0.026
       137  -8.5794    101.0061    176.0019   9.7017419408e+01   2.4650469248e+01    0.1965386     0.188384  70.52            0    1.004    0.004
