#   1 NUMBER                 Running object number                                     
#   2 MAG_AUTO               Kron-like elliptical aperture magnitude                    [mag]
#   3 X_IMAGE                Object position along x                                    [pixel]
#   4 Y_IMAGE                Object position along y                                    [pixel]
#   5 X_WORLD                Barycenter position along world x axis                     [deg]
#   6 Y_WORLD                Barycenter position along world y axis                     [deg]
#   7 A_WORLD                Profile RMS along major axis (world units)                 [deg]
#   8 B_WORLD                Profile RMS along minor axis (world units)                 [deg]
#   9 THETA_WORLD            Position angle (CCW/world-x)                               [deg]
#  10 FWHM_WORLD             FWHM assuming a gaussian core                              [deg]
#  11 ELONGATION             A_IMAGE/B_IMAGE                                           
#  12 ELLIPTICITY            1 - B_IMAGE/A_IMAGE                                       
         1 -13.8847    244.7333    158.2780   8.8408588177e+01  -4.4918238056e-02     3.101891     0.873705 -46.24  0.009530931    4.072    0.754
         2 -13.3022    248.5630    114.1429   7.8227019959e+01   7.0388708752e+00     1.485641    0.8966402 -27.42  0.006882407    1.901    0.474
         3 -13.0580    194.7535     30.9327   6.6586002652e+01   3.2630495839e+01     1.019231    0.7879938  37.18  0.005668425    1.622    0.384
         4 -13.9006    207.4704     15.0878   6.1273394117e+01   3.1416813931e+01     1.386591    0.9898809  38.64  0.007782401    1.908    0.476
         5 -11.8526      2.2924     13.3380   1.1589602338e+02   7.0697399705e+01    0.5186203    0.1484543 -47.92  0.002502174    3.231    0.690
         6 -12.2683      2.2906      4.4975   1.1225679550e+02   7.1913074448e+01    0.6475773    0.3174895  12.17  0.004251673    1.968    0.492
         7 -12.1520    135.6258    236.1799   1.2519693825e+02   6.2016753893e+00    0.5792385    0.4017705 -37.24  0.001814681    1.934    0.483
         8 -10.5910    184.4476    250.2508   1.1747980608e+02  -4.6914855299e+00    0.2855627    0.1480732  32.08  0.001407773    1.770    0.435
         9 -11.0378    169.9337    248.3923   1.2005288832e+02  -1.9216252736e+00     0.357098    0.2485616   9.57 0.0008296667    1.934    0.483
        10 -11.4542    149.9431    248.1060   1.2397290981e+02   1.5883844311e+00    0.4380122    0.3480398 -66.68  0.002689713    1.555    0.357
        11 -10.7327    143.3142    249.1532   1.2542805139e+02   2.5558277032e+00    0.3267218    0.2170288  51.74  0.001191603    1.320    0.242
        12 -11.2189    134.3500    248.9167   1.2716556812e+02   4.1347773871e+00    0.4860178    0.2767047  42.28  0.002567894    1.464    0.317
        13 -10.1986    122.8467    249.7396   1.2952531190e+02   5.9375828265e+00    0.2821195    0.2069319  53.51  0.001710203    1.125    0.111
        14 -10.0031    126.6071    248.8186   1.2867554760e+02   5.4681461694e+00    0.2920058    0.1840194  66.61 0.0009945116    1.780    0.438
        15 -11.8369    126.2899    240.5975   1.2768683982e+02   7.0097008353e+00    0.4457842    0.4252312  75.49  0.002816329    1.182    0.154
        16 -10.7442    121.9492    244.9539   1.2910981819e+02   6.9504158962e+00    0.3868725    0.2028846  60.03  0.001578208    2.079    0.519
        17  -9.7050    121.3764    240.7809   1.2869649925e+02   7.8158465062e+00    0.2664972    0.1902035 -84.20 0.0009618012    1.669    0.401
        18 -11.3976     98.9574    247.4879   1.3389107462e+02   1.0258539808e+01    0.5550596    0.3093237  63.28  0.002900186    1.786    0.440
        19 -10.4062    102.9508    247.1145   1.3308138834e+02   9.6893445491e+00    0.3098745    0.1904131  67.92 0.0008598765    1.669    0.401
        20 -11.9786    109.7263    247.6698   1.3183307254e+02   8.4870034770e+00    0.6691307    0.4996052 -62.78  0.003436725    1.543    0.352
        21 -11.0555     88.0183    248.4312   1.3607028646e+02   1.1790421905e+01    0.5118982    0.3151237  56.86  0.001706249    1.338    0.252
        22 -10.3841     81.7298    247.0222   1.3711076583e+02   1.3010757604e+01    0.4265224    0.2247423 -78.96  0.002231523    2.159    0.537
        23  -9.6304     69.3816    250.5776   1.3971928292e+02   1.4145469231e+01    0.4071707    0.0544601  44.04  0.001351331    4.579    0.782
        24 -10.6098     74.0189    243.6282   1.3822565749e+02   1.4803631228e+01    0.4996765    0.2577564 -55.84  0.002645179    2.336    0.572
        25  -8.7937     69.1227    247.1640   1.3946090262e+02   1.4830357331e+01    0.2653478    0.1293007  38.03 0.0008203334    2.097    0.523
        26  -9.4544     63.1843    249.8763   1.4077573259e+02   1.5150898038e+01    0.1858807    0.1536781 -69.98 0.0009331602    1.468    0.319
        27 -11.3478     60.0119    245.4196   1.4096739857e+02   1.6441262170e+01    0.4516526    0.3173483 -81.65  0.001566714    1.357    0.263
        28 -10.6424     67.3776    243.8247   1.3947907841e+02   1.5721646101e+01    0.4147448    0.2173125  34.49  0.002152943    2.242    0.554
        29 -13.2018     21.2976    165.5531   1.4120098910e+02   3.8287515262e+01     1.117282    0.6276453 -49.52  0.006121638    1.970    0.492
        30 -12.6577     15.3843    138.5108   1.3950098903e+02   4.5024536075e+01     0.779668     0.247664  40.08  0.003434418    3.390    0.705
        31 -13.6992      8.8338    149.0966   1.4233507100e+02   4.3106247476e+01     1.525694    0.6876954 -89.05  0.002610375    2.387    0.581
        32 -14.0484      3.5740    179.6795   1.4632564700e+02   3.6663337333e+01     2.876014    0.5241684 -73.72   0.01022071    4.206    0.762
        33 -12.1647     63.1300    221.3310   1.3812838205e+02   2.0874084150e+01    0.8600011    0.3917977 -76.93    0.0036747    2.323    0.569
        34 -14.2565     10.0604    209.6477   1.4730332061e+02   2.9633935642e+01     2.324714     1.137916 -76.16    0.0136806    1.663    0.399
        35 -13.8455      5.7553    245.3902   1.5019879901e+02   2.2956003943e+01      1.17684    0.6519704  81.36  0.008076112    1.369    0.269
        36 -12.7687     13.9077    238.7900   1.4850571128e+02   2.3360924774e+01    0.6052352    0.3361141  59.85    0.0024658    1.420    0.296
        37 -13.1653     37.7871    228.4774   1.4362009131e+02   2.2692189295e+01    0.6794052    0.4128959  50.39  0.001762407    1.462    0.316
        38 -14.4499     44.2463    218.7550   1.4158413303e+02   2.3914690433e+01     1.492455      1.26869  15.33  0.009866833    1.870    0.465
        39 -11.9041     96.8029    239.9965   1.3347800591e+02   1.2023799126e+01    0.5078818     0.423295 -55.33  0.002517427    1.506    0.336
        40 -10.8690    104.3362    237.9061   1.3174681501e+02   1.1209941675e+01    0.2466985    0.1666769  43.25 0.0006814564    1.341    0.255
        41 -11.0176    115.1413    250.4216   1.3110434215e+02   7.0971540730e+00    0.4643298    0.3210297  33.48  0.001385008    1.559    0.358
        42 -10.1387     91.2954    241.7009   1.3473921104e+02   1.2564273636e+01    0.2372538    0.1509833  64.00 0.0005088174    1.421    0.296
        43 -10.7213     90.0539    238.1520   1.3459495988e+02   1.3447969675e+01    0.3430573    0.2196781 -81.40  0.001239212    1.674    0.403
        44 -10.9416     53.6555    241.6167   1.4179781376e+02   1.8040225444e+01    0.3302274     0.182528 -75.92  0.001440163    1.733    0.423
        45 -10.8323    249.6317    241.9949   1.0379723197e+02  -1.3812234276e+01    0.2557278    0.1046819 -34.58  0.001253965    2.490    0.598
        46 -11.3173    164.7216    241.5551   1.2007099655e+02   1.0695620411e-01    0.4564532    0.2558977  61.32  0.002011522    2.577    0.612
        47  -9.1180     84.0777    242.1310   1.3617356922e+02   1.3594023893e+01    0.1777512    0.1573942  52.52  0.001200187    1.274    0.215
        48 -11.4312    245.7990    240.5574   1.0423767719e+02  -1.3074965216e+01    0.2538596    0.1651955   1.20   0.00143622    1.535    0.349
        49 -10.9901    172.7946    239.9844   1.1820666439e+02  -1.0541706820e+00    0.2849934    0.2147519 -77.45   0.00139864    2.020    0.505
        50 -10.7136    116.5995    238.5514   1.2937175880e+02   9.0445106355e+00    0.4093421    0.2751315 -34.35  0.001941915    2.381    0.580
        51  -9.3550     60.9947    238.9585   1.4022181479e+02   1.7568397835e+01    0.1890874    0.1431041  66.13 0.0009036735    1.048    0.045
        52  -9.1982     82.6708    238.2883   1.3604559631e+02   1.4558039256e+01    0.2939596   0.09897368  40.10  0.001222888    2.693    0.629
        53 -10.4222     84.9337    234.5257   1.3520388108e+02   1.4958314021e+01    0.3475765    0.1921746 -84.44  0.001400591    2.143    0.533
        54 -10.5205     84.6577    229.6379   1.3472108379e+02   1.5985838059e+01    0.3706369    0.2142917  39.96  0.001957164    1.683    0.406
        55 -10.4628     77.2228    220.8390   1.3523700885e+02   1.8939463324e+01    0.2984286    0.2015072  68.11 0.0008898006    1.350    0.259
        56 -10.1344     79.8238    227.7736   1.3548103635e+02   1.7104671728e+01    0.3478693    0.2711281 -13.97  0.001867474    2.537    0.606
        57  -9.8583     78.9714    224.5479   1.3529660199e+02   1.7900020221e+01    0.2399993    0.2271686 -38.60 0.0007697677    1.505    0.336
        58 -10.5036    165.6036    235.2859   1.1893186782e+02   1.0167435644e+00    0.2370189    0.1330762 -53.35  0.001145986    2.195    0.544
        59  -9.1428     71.6287    236.2900   1.3796692921e+02   1.6593616564e+01    0.2078869    0.1166688  69.60  0.001098101    1.762    0.432
        60  -9.7005     55.4000    235.9350   1.4099267620e+02   1.8931532576e+01    0.2646584      0.15227  60.83 0.0007752886    1.462    0.316
        61 -10.9033    122.2128    233.0602   1.2751730925e+02   9.1322831396e+00    0.3856293    0.3314175 -75.54  0.001783021    1.273    0.215
        62 -11.5195     98.6686    231.9473   1.3217262847e+02   1.3303666930e+01    0.4575813    0.2845346 -78.88  0.001131011    1.817    0.450
        63 -11.2275    112.7870    230.1266   1.2906656520e+02   1.1320317764e+01    0.4293912    0.3565935 -16.48  0.001991157    1.862    0.463
        64 -11.5179    105.6112    228.8839   1.3038225975e+02   1.2774890105e+01    0.5188029    0.2792404  44.53  0.002031355    1.618    0.382
        65  -9.0063     78.1142    233.3404   1.3641421186e+02   1.6229603044e+01     0.190199    0.1551773 -70.75 0.0006803966    1.347    0.258
        66 -10.9468    156.7723    231.5856   1.2017075388e+02   3.2587108377e+00     0.234995    0.2284066  34.27 0.0003304567    1.133    0.117
        67 -10.2155     62.9978    233.0334   1.3930044614e+02   1.8475748995e+01    0.1800963    0.1466522  72.09 0.0003190218    1.068    0.064
        68  -8.5942     92.4858    232.5010   1.3348000447e+02   1.4184309119e+01    0.1315644    0.1070716  65.74 -8.921712e-05    1.007    0.007
        69 -10.9703    142.1500    229.9878   1.2296116160e+02   6.1929403848e+00     0.338769    0.2603732 -30.75  0.001728593    1.718    0.418
        70  -8.9983     57.4749    230.9609   1.4015756820e+02   1.9655793594e+01     0.167046    0.1062138 -76.85 0.0008074266    1.482    0.325
        71  -9.1226    180.3031    229.0125   1.1491689979e+02  -5.5083399901e-01    0.2322468    0.1357952  65.75 0.0009007747    3.313    0.698
        72  -8.8761    190.7080    228.2863   1.1268011636e+02  -2.2929011574e+00    0.1244337    0.1027406  64.48 0.0002291189    1.540    0.351
        73  -9.6888    197.2738    226.4941   1.1104859879e+02  -3.1618980991e+00    0.3069068    0.2261022  72.84  0.001373799    2.282    0.562
        74  -9.7723    166.4453    226.9988   1.1743975910e+02   2.3198953085e+00    0.1888968    0.1375813 -48.13  0.001022493    1.580    0.367
        75 -10.1844     92.5186    225.9310   1.3270292297e+02   1.5510765499e+01    0.2774493    0.1616988  52.02 0.0005357887    1.492    0.330
        76 -10.0130    132.4083    224.7085   1.2422384821e+02   8.9551288043e+00    0.2369007    0.2037344 -31.33  0.000869875    1.484    0.326
        77  -9.9873    129.3943    221.1681   1.2434145114e+02   1.0195648945e+01    0.3355971    0.2161052 -87.25  0.001546551    2.251    0.556
        78 -10.1263    117.3724    224.3026   1.2733316056e+02   1.1692960924e+01    0.2458149    0.2122409  65.05 0.0002382187    1.037    0.035
        79 -11.0677     99.2222    223.3255   1.3100008845e+02   1.4961686702e+01    0.4257742    0.2658928  57.02 0.0009945101    1.450    0.310
        80 -10.3793    160.6441    223.5768   1.1809458878e+02   4.0082036913e+00    0.2738065    0.2098862   8.10 0.0007418827    1.678    0.404
        81 -11.3693    142.3792    221.7791   1.2167027912e+02   7.7163184056e+00    0.4432755    0.2441107  39.36  0.001045915    1.652    0.394
        82 -10.2487    110.9631    220.8694   1.2821444697e+02   1.3496709704e+01     0.379265    0.1708412 -57.07  0.001662389    2.397    0.583
        83 -11.2587     72.8481    209.9781   1.3489804839e+02   2.1921548484e+01     0.443998    0.3826989  11.80  0.001669207    1.728    0.421
        84 -10.7376     70.3996    218.5933   1.3637819223e+02   2.0420505902e+01    0.4750879    0.2686806 -76.00  0.002084065    1.759    0.431
        85  -9.9249     67.8439    214.5989   1.3646374034e+02   2.1643480666e+01     0.198707    0.1566287  82.71 0.0005410874    1.087    0.080
        86  -9.8757    104.8771    218.5341   1.2918878830e+02   1.5015014246e+01    0.2225189    0.1855383 -65.69 -2.191212e-05    1.297    0.229
        87  -9.9713    246.4926    218.4793   1.0013572077e+02  -1.0124485482e+01    0.1288563    0.1046734   2.69  0.000810042    1.034    0.033
        88  -9.6045     99.9432    217.4106   1.3008676390e+02   1.6075306965e+01    0.2346895    0.1813704 -46.25  0.001124965    1.628    0.386
        89  -8.4695     89.3116    218.6335   1.3248128387e+02   1.7541330457e+01    0.1441399    0.0884769  72.26 0.0007038093    1.762    0.433
        90 -10.8363    138.4098    214.4031   1.2136611617e+02   9.9061834492e+00    0.5066923    0.3647735  39.39  0.001800741    1.296    0.229
        91  -8.8227    119.3527    217.1949   1.2590872387e+02   1.2792023733e+01     0.179702    0.1264732 -74.87 0.0002722354    1.610    0.379
        92  -9.8728     88.1530    212.8417   1.3200368490e+02   1.8961757609e+01    0.2556211    0.1784152 -76.45 0.0007679001    1.432    0.302
        93  -9.3125    101.6836    211.6788   1.2894360903e+02   1.7003335301e+01    0.3112338    0.1340914  57.00  0.001188011    2.708    0.631
        94 -10.6422    107.2663    209.4028   1.2740849264e+02   1.6543098700e+01    0.4157641    0.2934644 -29.15  0.001403345    2.300    0.565
        95 -10.9535    112.5081    208.3203   1.2609963470e+02   1.5864604520e+01    0.2772112    0.2370396  49.90 0.0003119133    1.114    0.102
        96  -9.2137    134.7588    208.1921   1.2116826303e+02   1.1854823792e+01     0.190981    0.1701521   8.42 0.0006084552    1.377    0.274
        97 -11.5349     93.1997    203.3233   1.2964886698e+02   2.0232587292e+01      0.59885    0.4968502  85.01  0.003502322    1.118    0.106
        98 -14.2724     31.9446    245.7199   1.4591804221e+02   1.9984789545e+01     1.864715    0.9791244  41.55   0.01139502    1.870    0.465
        99 -11.0907    247.6208    206.2018   9.7610503809e+01  -8.4718485432e+00    0.3878401     0.217273  22.54  0.001908684    1.987    0.497
       100  -8.7379     32.8851    206.9156   1.4274952627e+02   2.7805971884e+01    0.1666957    0.1343426 -74.63 0.0003607497    1.272    0.214
       101  -9.5914    125.8363    205.3645   1.2269194157e+02   1.4101257731e+01    0.2352916    0.1915789 -81.14 0.0008585028    1.322    0.244
       102  -8.8865    149.3564    204.3126   1.1729047839e+02   9.8850433488e+00    0.1460863    0.1138872   5.95            0    1.738    0.425
       103  -9.4861    167.0120    203.2043   1.1321945228e+02   6.6822236920e+00    0.1991702    0.1717186  45.19  0.001090042    1.079    0.074
       104  -8.9796    133.0245    202.7242   1.2065666479e+02   1.3326465465e+01     0.199999    0.1799772  57.44 0.0004227068    1.006    0.006
       105  -9.8160    102.7109    202.7489   1.2745365119e+02   1.8772706595e+01    0.6539251    0.2962012  60.35   0.00239422    2.989    0.665
       106  -9.7001    102.7668    195.9475   1.2642770075e+02   2.0278467143e+01    0.1951308    0.1709221 -79.41 0.0005290488    1.123    0.110
       107  -9.0826    100.3279    198.3026   1.2733534456e+02   2.0165803012e+01    0.2027441    0.1720515 -79.56 0.0004880097    1.152    0.132
       108  -9.4324     97.6929    196.2953   1.2763548203e+02   2.1061090378e+01    0.2736664    0.1609049  40.71 0.0007111685    1.661    0.398
       109  -9.3240     75.8812    202.8330   1.3338380070e+02   2.3051020087e+01    0.2572953    0.1736213  12.56  0.001184104    2.783    0.641
       110 -11.4584    249.8194    194.5623   9.4949535131e+01  -7.0172628261e+00    0.3786913    0.2946717 -32.08  0.002267414    1.242    0.195
       111  -9.5751     63.9162    202.1447   1.3588137549e+02   2.4932118585e+01     0.235214    0.1812679  31.33  0.001238919    1.607    0.378
       112 -10.5110     32.6765    201.8378   1.4233748509e+02   2.8935093806e+01    0.1972759    0.1630555  74.78 0.0003316503    1.117    0.105
       113  -8.6040    183.0034    200.2751   1.0923062163e+02   4.1300314324e+00    0.1786842    0.1194056  40.48 0.0003127651    1.389    0.280
       114  -9.8765    115.0688    200.1077   1.2427658839e+02   1.7193191378e+01    0.2090069    0.1878359  70.31 0.0002978581    1.016    0.016
       115 -11.2649    134.0136    232.6778   1.2503624565e+02   7.1394949811e+00    0.4292532    0.2806308 -38.46  0.001791328    2.056    0.514
       116  -9.3557    119.9554    199.4682   1.2306901086e+02   1.6449712084e+01     0.210851    0.1318258  44.20 2.802269e-05    1.483    0.326
       117  -8.2540     86.2637    199.2999   1.3063621599e+02   2.2246397919e+01    0.1979599    0.1553298 -63.53 0.0001670915    1.307    0.235
       118  -9.3367     85.9666    195.7328   1.3021095561e+02   2.3099807439e+01     0.211211    0.1651636  72.66 0.0003085418    1.192    0.161
       119 -11.6845     69.1086    187.4284   1.3290579250e+02   2.7549788322e+01    0.3049569    0.2461801 -52.53 0.0005556353    1.411    0.291
       120  -9.7475     53.0242    198.2024   1.3776098789e+02   2.7279422825e+01    0.3229574    0.1768082  54.56  0.001680321    1.725    0.420
       121  -9.9899    113.1684    193.8634   1.2371534048e+02   1.8919123557e+01    0.5185126    0.2480115 -63.12  0.001417737    2.349    0.574
       122  -8.7085    107.6298    196.2912   1.2537049233e+02   1.9357996037e+01     0.153161    0.1004777  68.83 0.0007024691    1.719    0.418
       123 -10.8420     38.1436    193.8804   1.4045379807e+02   3.0074439612e+01    0.4337513    0.1861359 -61.77  0.001407877    2.115    0.527
       124  -9.5829     40.7705    188.5695   1.3934382101e+02   3.0967981100e+01    0.2567127    0.1636676  77.98 0.0006050756    1.488    0.328
       125  -9.2624     31.8210    195.3668   1.4191264953e+02   3.0458176113e+01    0.2411554   0.08007319  44.38  0.001081742    2.736    0.634
       126  -9.3565    159.9839    194.3244   1.1312629599e+02   9.8531485875e+00    0.2095565    0.1760018  42.00  0.000268602    1.110    0.099
       127  -8.9600    133.4957    194.4538   1.1914368681e+02   1.5012812597e+01    0.1463772    0.1360963  53.51 3.078438e-05    1.042    0.041
       128  -9.8487    120.2157    193.1210   1.2196852635e+02   1.7802121367e+01    0.3385034    0.3048423 -50.73  0.001899094    1.234    0.189
       129  -9.3491     72.6995    193.0479   1.3283421896e+02   2.5735129115e+01    0.1807428    0.1531301 -85.21 0.0002706148    1.076    0.070
       130  -9.3064     25.6114    192.3049   1.4290406177e+02   3.1806509135e+01    0.2414985    0.1495961  70.97  0.000897781    1.469    0.319
       131  -9.6488     20.3192    191.8310   1.4394057219e+02   3.2453261939e+01    0.2748723    0.1475968  77.11  0.001506079    1.783    0.439
       132  -9.9849    191.4722    191.4606   1.0572056935e+02   4.1490475250e+00    0.2510711    0.2379826   6.89 0.0007034383    1.036    0.034
       133 -11.5045     63.5262    194.8918   1.3510469600e+02   2.6621511453e+01     0.349581     0.274244 -52.83   0.00135466    1.489    0.328
       134  -9.2205    135.1474    189.9736   1.1797217658e+02   1.5673248149e+01    0.2209868    0.1860034  74.07 0.0003732442    1.241    0.194
       135  -8.9403    118.0934    189.8689   1.2191410588e+02   1.8920757627e+01    0.1806216    0.1713923 -22.21            0    1.274    0.215
       136  -9.6870     32.1897    189.8557   1.4130532046e+02   3.1648911338e+01    0.3332232    0.1871133  38.42  0.001869084    1.906    0.475
       137 -10.6003    249.8589    187.7347   9.3586007067e+01  -5.9320290540e+00    0.3616412    0.2210312 -24.69  0.001852818    1.614    0.380
       138 -10.0927     76.9533    188.7195   1.3128677591e+02   2.6099558860e+01    0.2331977    0.1918129  84.58 0.0003111424    1.095    0.086
       139  -9.1446    111.4411    187.9054   1.2313981500e+02   2.0575525425e+01    0.2163236    0.1401326 -59.95  0.001021214    1.577    0.366
       140  -9.6253    140.1456    183.1549   1.1555518689e+02   1.6195048819e+01    0.2244182    0.2079447  67.20 0.0003182198    1.045    0.043
       141 -10.6224     57.3115    195.2398   1.3650408209e+02   2.7385593650e+01    0.6372156     0.273351 -68.07  0.002897499    2.150    0.535
       142  -9.3298     37.4201    184.0991   1.3959265083e+02   3.2371641802e+01    0.2367325    0.1597545  49.51  0.001343576    1.482    0.325
       143  -9.7556     29.9656    183.4641   1.4114174288e+02   3.3331923009e+01    0.2677605    0.1522282  75.63 0.0009323836    1.766    0.434
       144 -10.2408     24.4682    184.1225   1.4237900435e+02   3.3753195145e+01      0.22289    0.1685553  44.21 0.0005490413    1.466    0.318
       145 -10.4761    236.1988    145.8812   8.7228300710e+01   3.8118692637e+00    0.2635024     0.209597  34.64  0.000695229    1.363    0.266
       146 -11.9285    249.0907    171.8096   9.0482707976e+01  -3.1644732266e+00    0.5822505    0.4603955   6.89  0.003328097    1.336    0.252
       147 -11.9826    199.7207    246.2476   1.1387484153e+02  -6.6539051425e+00    0.6266269    0.2174186  43.71  0.002258298    2.621    0.618
       148 -12.6405    248.3161    134.5675   8.2713842741e+01   3.4762522090e+00     1.241884    0.6478639 -38.40  0.005627498    1.734    0.423
       149  -8.9194     65.6359    181.7700   1.3294711968e+02   2.9357944850e+01    0.1191265    0.1057243 -18.11 0.0001989039    1.586    0.369
       150 -12.8288    248.2616    101.4527   7.5496570843e+01   9.3073545855e+00     1.016336     0.526873 -41.00  0.004649051    1.729    0.422
       151  -9.5848    115.4493    177.7284   1.2042601813e+02   2.2183159020e+01    0.3296518    0.2145938 -66.37  0.001505216    1.652    0.395
       152  -8.9962     47.9653    179.8055   1.3675543743e+02   3.2124074005e+01    0.1579895   0.09908031  37.30 0.0006613055    1.745    0.427
       153  -9.8462     20.0283    179.1717   1.4285096297e+02   3.5306791827e+01    0.1759342    0.1393663 -62.69 0.0004861698    1.334    0.250
       154 -10.1733     12.4358    178.7609   1.4441932071e+02   3.6103433846e+01    0.2356994    0.1518145 -69.86 0.0009567688    1.317    0.241
       155 -10.6075     11.8520    173.8238   1.4409979918e+02   3.7259809339e+01    0.4105573    0.1429544 -56.19  0.001462399    2.735    0.634
       156  -9.1578     92.7428    178.2205   1.2599458557e+02   2.6058449045e+01    0.1735155    0.1648436 -34.56 0.0002210041    1.278    0.217
       157  -8.8456    182.3392    176.6756   1.0467090788e+02   8.9173986806e+00     0.153176    0.1211897  83.62  0.000705119    1.724    0.420
       158 -11.5698     78.1167    175.2164   1.2904973852e+02   2.9088803806e+01    0.3124111    0.2838708  52.31  0.001859667    1.176    0.150
       159  -9.1955     68.4066    175.7133   1.3145274153e+02   3.0393984415e+01    0.1972627    0.1261577 -83.77 0.0005136818    1.619    0.382
       160 -10.9542     64.8440    173.8810   1.3204180611e+02   3.1325601432e+01    0.4696347    0.3014769 -44.31   0.00156897    1.888    0.470
       161  -9.5452    107.5088    172.9547   1.2150175466e+02   2.4748012689e+01    0.2126897    0.1427239 -60.77 0.0006006109    1.489    0.329
       162  -9.3616     95.3514    172.5963   1.2442550882e+02   2.6951747040e+01    0.2111649    0.1542969  74.86 0.0004396527    1.501    0.334
       163 -10.6843     28.2597    171.3039   1.4024328507e+02   3.6289528018e+01     0.392113    0.1788935 -67.41  0.001628957    1.800    0.445
       164  -8.3557     56.0161    172.2278   1.3391690710e+02   3.2892765630e+01    0.1434189    0.1081618  41.96            0    1.427    0.299
       165  -9.0196     52.5377    171.0094   1.3457976029e+02   3.3621265371e+01    0.1896693     0.114715 -67.56 0.0003486423    1.458    0.314
       166  -8.7722    100.5426    170.4936   1.2278043157e+02   2.6561594941e+01    0.1466787    0.1357398  86.48 -2.255704e-05    1.009    0.009
       167 -11.1631     44.8405    167.2379   1.3591547138e+02   3.5438701739e+01    0.5638241    0.3749656 -59.02  0.002460016    1.410    0.291
       168 -12.1652     86.4643    166.8682   1.2565580779e+02   2.9779405313e+01     0.604677    0.5156336  46.47   0.00338136    1.214    0.176
       169  -9.5620     68.7882    166.9997   1.3007016002e+02   3.2413535395e+01    0.2101722    0.1656828  87.58 0.0006123782    1.220    0.180
       170  -8.7756     58.4842    167.4996   1.3266800752e+02   3.3694570140e+01    0.1363637    0.1165305 -87.36 3.593584e-05    1.020    0.020
       171  -8.8416     53.6810    164.8054   1.3345719640e+02   3.4949082402e+01    0.1889732    0.1096964 -76.58 0.0004023497    1.653    0.395
       172 -10.6052     33.0538    164.4388   1.3835601873e+02   3.7390974347e+01    0.3248997    0.1452492 -67.73  0.001276772    1.854    0.461
       173 -10.6119     89.4501    159.3971   1.2359378360e+02   3.1090773060e+01    0.4566308    0.2383938 -69.77  0.001079393    2.209    0.547
       174  -9.1934    126.2538    167.4367   1.1584924187e+02   2.2511242874e+01    0.2179312    0.1382731  53.34 0.0005843822    1.617    0.382
       175  -9.2372     78.9710    158.6669   1.2615415203e+02   3.2922453234e+01    0.1904658    0.1750286  73.98  0.001102888    1.075    0.070
       176  -9.2787     81.9338    156.2193   1.2496251104e+02   3.3057243262e+01     0.197763    0.1795321  55.31 0.0004671722    1.139    0.122
       177  -8.9341     73.5379    159.5078   1.2768557494e+02   3.3530126381e+01     0.141835    0.1254853 -85.66 6.817493e-05    1.028    0.027
       178  -9.0023     52.4994    158.4538   1.3284053899e+02   3.6609393277e+01    0.1340552    0.1157152 -79.34 8.511849e-05    1.015    0.015
       179  -9.2027     47.9887    157.9600   1.3389506425e+02   3.7268840418e+01    0.1592385    0.1339202 -78.91            0    1.013    0.012
       180 -11.3124     31.8225    156.0188   1.3761624430e+02   3.9486425693e+01    0.4274684    0.2391406 -49.38  0.001763988    1.866    0.464
       181 -12.6370     22.7002    155.0797   1.3970345643e+02   4.0576171892e+01    0.5960997    0.4437643 -71.52  0.003825038    1.106    0.096
       182  -8.9572    112.4453    157.5726   1.1734694329e+02   2.7484236810e+01    0.1503835    0.1424466  84.24  9.52996e-05    1.007    0.007
       183  -9.5969     72.9704    156.4341   1.2731654770e+02   3.4353965264e+01    0.2940464    0.1825964  36.08  0.001427582    1.745    0.427
       184  -9.3587    228.4445    155.1324   9.0652573866e+01   3.6481934638e+00    0.2201332    0.1342655 -39.02  0.000524294    1.550    0.355
       185 -10.6526     98.6522    151.1034   1.1963158294e+02   3.1531384007e+01    0.3678323    0.3310075 -67.39  0.001323267    1.062    0.059
       186  -9.3821    101.8045    146.6009   1.1788735852e+02   3.2055652778e+01    0.3784658    0.1880683 -39.17   0.00138987    2.565    0.610
       187  -9.9421    113.7936    150.8868   1.1563048144e+02   2.8819088932e+01    0.3533178      0.25873 -62.27 0.0007094946    1.388    0.279
       188  -9.3778     86.6716    150.3947   1.2265386018e+02   3.3713917792e+01    0.2663371    0.1672625 -69.66 0.0005997967    1.674    0.403
       189 -10.9534     56.1670    149.7104   1.3056840725e+02   3.8248919301e+01    0.4577264    0.3410674 -32.22  0.002480929    1.703    0.413
       190  -8.9400     52.7207    146.3068   1.3092674512e+02   3.9489209796e+01    0.1847237    0.1713062  67.96 0.0001470378    1.152    0.132
       191 -10.4398     31.1597    150.3492   1.3704977994e+02   4.0882112902e+01    0.1842416    0.1595822 -33.54   0.00119848    1.431    0.301
       192 -12.7227     68.4498    144.1430   1.2636532680e+02   3.7964236413e+01     0.779221    0.7067968 -57.79  0.003484767    1.096    0.087
       193  -9.9567     56.2849    138.9726   1.2874830709e+02   4.0809259480e+01    0.2008797    0.1828809 -67.89 0.0003560644    1.050    0.048
       194 -11.4170     60.8048    137.1186   1.2718048003e+02   4.0680277320e+01    0.3598936    0.2916269 -86.56  0.002042165    1.258    0.205
       195 -10.5780     23.5574    149.4999   1.3882438884e+02   4.1794368140e+01    0.1716291    0.1637556 -58.26 0.0006556311    1.257    0.205
       196 -10.5308     39.7041    146.7770   1.3439070219e+02   4.0853494163e+01    0.2517363    0.1640605  48.26 0.0009777596    1.673    0.402
       197 -11.2761     32.7054    140.5629   1.3531006600e+02   4.3031119821e+01    0.3166204    0.1884453 -88.81  0.001101779    1.842    0.457
       198  -9.1682     41.5256    140.4840   1.3297227372e+02   4.2151378597e+01    0.1320195    0.1113909 -67.57 0.0002603265    1.035    0.034
       199 -10.3359     25.9315    139.6938   1.3695103818e+02   4.3865916993e+01    0.1716511     0.150636 -80.52  0.000961408    1.086    0.079
       200  -9.9936    110.1671    136.3465   1.1343117234e+02   3.2957800883e+01    0.3371306    0.2618007  -3.89  0.001131007    1.801    0.445
       201  -8.5333     85.9991    136.2166   1.2002467464e+02   3.7236426817e+01    0.1773526    0.1196892  37.77 0.0003437107    1.574    0.365
       202 -10.7420    133.4200    142.2270   1.0866609756e+02   2.6921455020e+01    0.8193756    0.2587507 -51.13  0.002430169    3.323    0.699
       203 -12.0203     41.1459    204.7657   1.4090299610e+02   2.7305936140e+01     1.585574    0.2870734  46.01  0.004904239    4.324    0.769
       204 -11.5761     44.9712    131.5324   1.3058282339e+02   4.3899074310e+01    0.4316615    0.3105552 -82.79  0.002288211    1.421    0.296
       205 -10.9247     33.3225    131.6745   1.3381534713e+02   4.5057345330e+01    0.2927361    0.2009492   8.77  0.001518606    2.001    0.500
       206 -11.7418     31.6325    127.1532   1.3356888924e+02   4.6271686562e+01    0.3611405     0.259341  68.41  0.002101192    1.630    0.386
       207 -11.6362     67.1319    128.6390   1.2378817019e+02   4.1861670438e+01    0.3985002    0.3112568 -79.60  0.001994058    1.351    0.260
       208 -11.5326     24.5999    126.9907   1.3548562663e+02   4.6932404651e+01    0.3160041    0.1793189 -37.51  0.001064719    2.047    0.511
       209 -10.3661    209.9322    125.7557   8.7460388481e+01   1.3183712915e+01    0.2997484    0.2287293 -41.19 0.0005093456    1.267    0.210
       210  -9.7683    116.5453    128.7258   1.0993729910e+02   3.3504617334e+01     0.370152    0.2409031   0.78  0.001293618    3.165    0.684
       211  -9.3511    126.0371    180.3259   1.1835855451e+02   1.9588215456e+01    0.3136225     0.188401 -81.63  0.001175894    2.709    0.631
       212 -12.9438     19.8564    121.7302   1.3600556830e+02   4.8527595905e+01    0.8318851    0.4173941  -1.63  0.003722168    3.672    0.728
       213 -10.2778     38.0390    121.6712   1.3083882202e+02   4.6933205399e+01     0.174262    0.1532477 -56.14 0.0005383563    1.068    0.064
       214 -10.4292     54.6681    120.7537   1.2582677131e+02   4.5325362754e+01    0.2666964    0.1990615  17.95  0.001063083    1.619    0.382
       215 -12.1897     15.0818    114.4931   1.3625212908e+02   5.0526727394e+01    0.3092957     0.278899 -50.62 0.0005095528    1.167    0.143
       216 -11.0074    168.1451    113.3106   9.3073391807e+01   2.5456410376e+01    0.3829594    0.3180569 -83.20 0.0009362204    1.401    0.286
       217  -9.7446     80.8642    132.8131   1.2074981401e+02   3.8862054792e+01    0.2044587    0.1854189 -39.47 0.0002942389    1.146    0.127
       218 -10.0815     31.7275    110.7887   1.3074229099e+02   5.0030445688e+01    0.1976343    0.1626185  11.65 0.0008523733    1.465    0.317
       219  -9.5991     57.7770    109.5952   1.2256139562e+02   4.7526489201e+01    0.1878493    0.1231056  44.29 0.0009592926    1.758    0.431
       220  -9.1411    203.5033    111.5268   8.5270454771e+01   1.7412648093e+01    0.1503886    0.1476872 -54.65 0.0002060223    1.046    0.044
       221 -11.1303    249.6074    150.9688   8.6022968235e+01   3.3687798828e-01    0.5269188    0.2962925 -43.65  0.002499058    1.662    0.398
       222 -10.9521     17.5742     99.2052   1.3295790092e+02   5.3753464201e+01    0.2166908    0.1937062 -83.39 0.0004462022    1.235    0.190
       223 -10.5973    193.8518    245.1461   1.1484196244e+02  -5.5072194084e+00    0.1975244    0.1782334 -24.53 0.0003308835    1.277    0.217
       224  -9.6216     42.8583     91.9306   1.2330678863e+02   5.3151464048e+01    0.1944898    0.1488682 -34.92 0.0003361234    1.203    0.169
       225 -11.4340    248.3677    142.5586   8.4430470268e+01   2.0498453604e+00    0.6990985    0.4154684 -24.30  0.002381498    1.949    0.487
       226  -9.8565     77.9808     85.0665   1.0994742305e+02   5.0041028807e+01    0.2028327    0.1837092 -21.83            0    1.015    0.015
       227  -9.3519     63.9681     76.5284   1.1213545244e+02   5.3819425422e+01    0.1946529    0.1587161 -35.08  0.001147414    1.101    0.091
       228 -10.1485    222.8459    244.8496   1.0921707659e+02  -1.0188651796e+01    0.1979352    0.1449937  11.77  0.001028737    1.245    0.197
       229 -13.1833    128.5304    234.5333   1.2642145164e+02   7.7534760058e+00     2.236181    0.8558617  55.73  0.007891438    3.432    0.709
       230 -12.2402    135.5318    241.1459   1.2589956828e+02   5.3108021853e+00    0.6865851    0.4961222  30.29  0.002983575    1.477    0.323
       231 -10.3436    189.9716     15.5082   6.3406673941e+01   3.5585968900e+01    0.1907064      0.17149 -74.25 0.0006099659    1.143    0.125
