#   1 NUMBER                 Running object number                                     
#   2 MAG_AUTO               Kron-like elliptical aperture magnitude                    [mag]
#   3 X_IMAGE                Object position along x                                    [pixel]
#   4 Y_IMAGE                Object position along y                                    [pixel]
#   5 X_WORLD                Barycenter position along world x axis                     [deg]
#   6 Y_WORLD                Barycenter position along world y axis                     [deg]
#   7 A_WORLD                Profile RMS along major axis (world units)                 [deg]
#   8 B_WORLD                Profile RMS along minor axis (world units)                 [deg]
#   9 THETA_WORLD            Position angle (CCW/world-x)                               [deg]
#  10 FWHM_WORLD             FWHM assuming a gaussian core                              [deg]
#  11 ELONGATION             A_IMAGE/B_IMAGE                                           
#  12 ELLIPTICITY            1 - B_IMAGE/A_IMAGE                                       
         1 -13.9291     68.4543    144.7615   9.0075912065e+01   3.7435421138e+01     4.094737     1.964588  79.99  0.003066665    3.865    0.741
         2 -13.3922    210.2858     42.5068   3.2268700568e+01   2.6703972725e+01      2.19023     1.484155  18.29  0.008299386    1.915    0.478
         3 -12.9062    226.6579     28.8254   2.6597862424e+01   2.4354621482e+01    0.9950923    0.9111663   8.65  0.003379012    1.215    0.177
         4 -10.6618      2.1038     22.3509   8.8755111175e+01   7.2660851789e+01    0.4568726   0.08073587 -61.89  0.001622101    3.731    0.732
         5 -11.1482    248.8611      9.2989   1.9693415912e+01   2.1295880167e+01    0.4285344    0.3187402 -33.38  0.002186572    1.149    0.130
         6 -11.4505    248.2876      4.2071   1.8443397972e+01   2.1905658673e+01    0.4823627    0.3994024  30.20  0.003001538    1.512    0.339
         7  -8.4575    189.4840     14.9839   2.6165936310e+01   3.5161087667e+01    0.2207026    0.1376846 -22.82 0.0006498239    1.564    0.361
         8 -16.1748     16.9230    241.7011   1.0780558585e+02   2.4803028584e+01     6.544762     4.643409  50.45   0.05671901    1.244    0.196
         9 -10.1189    192.7717    194.4633   7.1544701757e+01   8.0123404241e+00    0.7160279    0.3739625 -59.68  0.002263475    7.864    0.873
        10  -8.0108    195.7505    190.3319   7.0329916785e+01   8.0699044622e+00    0.1036446   0.09725264  85.42 0.0002975971    1.553    0.356
        11  -8.8881    116.4571    186.9692   8.5037845752e+01   2.1704343454e+01    0.1626943      0.10299  87.43 0.0008066242    2.382    0.580
        12  -8.9185     99.3520    181.0377   8.7824617450e+01   2.5431503523e+01    0.1937079    0.1593366  38.52 0.0005942299    1.243    0.196
        13 -12.3816     30.3537    197.4938   1.0346853398e+02   3.1031362128e+01    0.3586471     0.313697 -31.38  0.001421537    1.905    0.475
        14 -11.3922     59.2471    172.3738   9.5531102350e+01   3.2701163244e+01    0.3737296    0.2931421 -25.87  0.001746655    2.118    0.528
        15 -11.2580     64.5228    167.5665   9.3846977110e+01   3.3026883720e+01    0.2723423    0.2474237 -47.86   0.00155997    1.443    0.307
        16 -15.0070      9.0165    207.4726   1.0791426700e+02   3.1267624283e+01     5.447626    0.9543232 -82.38   0.02082882    5.709    0.825
        17 -12.8433     61.6160    154.3745   9.3002381422e+01   3.6216413327e+01     0.434622    0.3735629 -62.03  0.001184297    1.310    0.237
        18 -11.8430     82.3807    152.3717   8.7748277585e+01   3.3788226478e+01    0.7235787    0.4745789 -44.40  0.003082688    1.901    0.474
        19 -11.8748     74.7576    158.2081   9.0363802309e+01   3.3628204697e+01    0.6217118    0.4545546  70.58 0.0009329712    1.293    0.227
        20 -14.7952     40.5433    188.5077   1.0087208422e+02   3.1661395392e+01     4.206551     1.600832  71.94    0.0183909    3.336    0.700
        21 -10.7673     33.2142    157.2389   1.0001878157e+02   3.8873755992e+01     0.290709    0.1891287  67.37 0.0008141436    1.321    0.243
        22 -10.8842    239.8518    169.2391   5.9111546280e+01   3.4821513486e+00    0.2363616    0.1633784  10.16  0.001064128    1.316    0.240
        23  -8.8649    123.5160    201.5052   8.5521054334e+01   1.8121595124e+01     0.187531    0.1151484 -72.91  0.001026281    2.273    0.560
        24  -8.5765    174.6855    149.3212   6.6586085187e+01   1.7998503692e+01    0.1321214    0.1110444  89.88 0.0004113069    1.657    0.396
        25  -9.8058    133.7050    145.0498   7.4415384803e+01   2.6653560084e+01    0.8922483    0.2087744 -54.08  0.002083502    7.490    0.866
        26  -8.7375     47.5090    145.5168   9.5408983247e+01   3.9901804736e+01    0.1263725    0.1047485  82.79 0.0008103803    1.006    0.006
        27  -9.4217     28.0380    143.1182   1.0001153873e+02   4.2507303174e+01    0.2580057    0.1454203 -72.52  0.001027769    1.540    0.351
        28 -10.2454     98.0169    138.6479   8.1689200625e+01   3.4326504611e+01    0.5227251    0.3740765 -10.57  0.002397937    2.547    0.607
        29 -11.7337     84.8511    137.9485   8.4883480124e+01   3.6584120964e+01    0.2759439    0.2367965 -68.01 0.0004353016    1.142    0.124
        30  -8.3684    110.5477    167.5053   8.3515378502e+01   2.6284000110e+01    0.1311456     0.114678  64.30 0.0001121988    1.049    0.047
        31 -11.5290    110.7759    214.8226   8.9496084250e+01   1.7861616065e+01    0.4558075    0.1991757  31.80  0.002185728    2.587    0.614
        32 -10.1400    107.2138    130.2426   7.7779094401e+01   3.4583645365e+01    0.4368217    0.3209918  25.21  0.001866658    1.690    0.408
        33  -9.0405    136.0000    130.5318   7.0862267658e+01   2.9104445482e+01    0.3216082   0.08169352 -46.39 0.0009439613    4.010    0.751
        34  -9.1294    230.3138    166.6542   6.0123858107e+01   5.3562792147e+00    0.1110096    0.1001944 -57.80 0.0007047165    1.714    0.417
        35 -11.2078     36.9315    160.9315   9.9479245587e+01   3.7689340716e+01    0.6775082     0.220689  63.26  0.002420981    4.371    0.771
        36  -8.4514     96.7167    124.8592   7.9391779723e+01   3.7599969500e+01    0.1936719    0.1670783 -65.90  0.001086723    1.115    0.103
        37  -8.6439    115.3903    123.8352   7.4370010400e+01   3.4480395819e+01    0.2049561    0.1313366 -40.47 0.0009387827    1.708    0.415
        38  -8.6131    162.5045    119.9666   6.2479029457e+01   2.5678411798e+01    0.2259144    0.1421373 -43.12  0.001021149    1.603    0.376
        39  -9.1497    105.9414    118.4450   7.5606799093e+01   3.7407376600e+01    0.2028866    0.1831975 -60.76 0.0003141284    1.079    0.073
        40 -10.0010    231.2317    113.8208   4.8480688797e+01   1.2202658625e+01     0.287655     0.241646 -17.75 0.0007140248    1.057    0.054
        41  -8.9365    158.7648    114.9031   6.2027303898e+01   2.7428796221e+01    0.2664353     0.195334 -58.63 0.0005493067    1.605    0.377
        42  -9.1991    205.4447    110.3811   5.1808024219e+01   1.8026383711e+01    0.2826656    0.2213515  43.30 0.0009418747    1.319    0.242
        43  -8.9208     34.0250    110.6943   9.4675339837e+01   4.9480491348e+01    0.2936152    0.1630313  76.14  0.001428452    2.032    0.508
        44  -8.6359     74.8219    110.3487   8.2483521539e+01   4.4468983159e+01    0.2112759    0.1593618  64.60 0.0005243937    1.414    0.293
        45 -10.3305    248.0156    106.7184   4.4372454489e+01   9.8965199004e+00     0.191049    0.1699546  -1.69  0.001012631    1.087    0.080
        46  -8.3217     67.3136    104.3211   8.3464867760e+01   4.6998522224e+01    0.1382562    0.1035794 -33.95 0.0003343158    1.655    0.396
        47  -9.8739    249.2059    101.0081   4.2852154935e+01   1.0407925050e+01    0.2280529    0.1332779 -47.01  0.001093826    2.013    0.503
        48  -9.7654    242.1883    101.3948   4.3894547275e+01   1.1723804519e+01    0.1702769    0.1355945  69.55 0.0005363362    1.672    0.402
        49 -10.4215     53.4389     92.6114   8.5371306070e+01   5.1671795821e+01    0.5000379    0.1551838 -64.36  0.001719206    3.123    0.680
        50  -7.9940    184.3585     77.2949   4.6512497586e+01   2.8128094961e+01    0.1596339    0.1150645  20.83 0.0007031981    1.699    0.411
        51 -11.4340     13.3141     60.5793   9.3443898591e+01   6.3286358750e+01    0.4331335    0.2836739 -75.46 0.0007700835    1.308    0.236
        52  -9.1436      2.3119     64.3213   9.8669986184e+01   6.3053998641e+01    0.1278315   0.07007388 -50.03 0.0004453367    1.651    0.394
        53  -9.8902     31.8845     61.1122   8.5808757549e+01   6.1620526952e+01    0.5545172    0.2178655  49.91  0.002053039    4.080    0.755
        54 -12.5214    201.6252     48.6236   3.5197356946e+01   2.8065121953e+01     1.066248    0.6560271  57.13  0.001486532    1.699    0.412
        55 -10.6880    119.5475    245.9548   9.1012666875e+01   1.2104226881e+01    0.2567469    0.1828467  -7.54   0.00163843    2.755    0.637
        56 -11.6618    220.1591     34.6060   2.8869515105e+01   2.5250381450e+01     0.475571    0.3898315  21.25  0.001070827    1.417    0.294
        57  -9.2382    125.3027    210.6676   8.6300251736e+01   1.6383935051e+01    0.1177081   0.07953379  64.90  0.000703576    1.656    0.396
        58  -9.3679     21.0214     56.4802   8.9212305702e+01   6.3680670175e+01    0.2336215    0.1719732  53.96 0.0009312786    1.659    0.397
        59  -9.7846     17.3399     54.7164   9.0385826989e+01   6.4380543052e+01    0.1844477    0.1694036 -75.62 0.0004900653    1.163    0.140
        60  -8.9203     35.6366     56.0655   8.2820455978e+01   6.2410250893e+01    0.1875926    0.1751931  75.13 0.0003256995    1.245    0.196
        61 -10.7072      3.6134     49.8838   9.5467980703e+01   6.6384345127e+01     0.293318    0.2323369  20.71   0.00199301    1.608    0.378
        62  -8.1585    234.3007     45.3276   3.0370364559e+01   2.0661959000e+01     0.138692    0.1029561  17.09 0.0002807764    1.641    0.390
        63  -9.1917      2.0000     59.9462   9.8077659173e+01   6.4105656080e+01    0.2131661   0.05486369 -72.56 0.0008082542    2.983    0.665
        64  -9.4796    198.0709     23.9597   2.8073000904e+01   3.1977393086e+01    0.2241962    0.2103996 -21.64 0.0007022762    1.076    0.071
        65  -8.6858     87.4574    206.9599   9.3127849696e+01   2.2434324206e+01    0.1487111    0.1077477 -76.55 0.0005019003    1.506    0.336
        66  -8.5961    169.1100    235.8821   8.1554996539e+01   6.4360480914e+00    0.1514437     0.122031  44.23  0.000406632    1.218    0.179
        67  -9.2168    138.9905    215.4939   8.4342087164e+01   1.3591478848e+01    0.1804312   0.09392601  41.44 0.0005192144    1.545    0.353
