#   1 NUMBER                 Running object number                                     
#   2 MAG_AUTO               Kron-like elliptical aperture magnitude                    [mag]
#   3 X_IMAGE                Object position along x                                    [pixel]
#   4 Y_IMAGE                Object position along y                                    [pixel]
#   5 X_WORLD                Barycenter position along world x axis                     [deg]
#   6 Y_WORLD                Barycenter position along world y axis                     [deg]
#   7 A_WORLD                Profile RMS along major axis (world units)                 [deg]
#   8 B_WORLD                Profile RMS along minor axis (world units)                 [deg]
#   9 THETA_WORLD            Position angle (CCW/world-x)                               [deg]
#  10 FWHM_WORLD             FWHM assuming a gaussian core                              [deg]
#  11 ELONGATION             A_IMAGE/B_IMAGE                                           
#  12 ELLIPTICITY            1 - B_IMAGE/A_IMAGE                                       
         1 -14.3466     62.2678    179.2828   7.7229156462e+01   2.9891232354e+01     5.749399     2.837513  83.91   0.01962791    3.645    0.726
         2 -14.2402     18.1514     99.4135   7.7962187901e+01   5.4408114754e+01     2.232266     1.489181  64.10   0.01181033    2.060    0.515
         3 -13.2003    222.5821     62.9250   1.3446925808e+01   2.2200851471e+01     1.804973    0.6539949 -51.50  0.006939464    2.872    0.652
         4 -13.2785    245.6653     59.8869   1.0200670480e+01   1.7876203219e+01     1.776254    0.6696745 -59.69   0.00660113    3.662    0.727
         5 -11.7207     16.4823     37.6266   6.2370373689e+01   6.7541218113e+01    0.7501332    0.3020165 -40.05  0.003755996    2.026    0.506
         6 -12.3044     86.0811     32.5548   3.1276980523e+01   5.7997731048e+01    0.8174199    0.6529611  84.63  0.004484822    1.942    0.485
         7 -12.4286     82.6471     21.9932   2.8168998543e+01   5.9925121648e+01    0.4230777    0.2857945 -12.54  0.002386404    1.611    0.379
         8 -12.9391    130.6581     25.7114   1.7712083563e+01   4.8791107926e+01      1.13386    0.5786438  68.05  0.004906707    1.934    0.483
         9 -13.5537    247.9600     23.6018   2.8162857120e+00   2.2196446928e+01     1.276775    0.3807663 -40.76  0.005898546    2.670    0.626
        10 -11.8371    248.9298      7.9384   3.5981960396e+02   2.3795407736e+01    0.7230954    0.1510196 -46.35  0.003130397    3.231    0.690
        11 -11.9994     20.5550     20.3091   5.3191055646e+01   6.9956212364e+01    0.7366746    0.4053186  24.43  0.003942643    1.726    0.421
        12 -10.3159      5.5047     22.2526   6.2285772404e+01   7.0993342595e+01    0.2310275    0.1697781 -19.85  0.001351313    1.005    0.005
        13 -11.2346     46.2139     19.6006   4.0484317859e+01   6.6734362453e+01    0.3879343    0.2545712  26.31  0.002359983    1.316    0.240
        14 -12.1013    231.1855     16.2755   2.6680152018e+00   2.6454715186e+01    0.3715246    0.1782607 -61.23  0.001964127    1.926    0.481
        15 -13.1519    121.1044     13.1434   1.5466108946e+01   5.2282734175e+01     1.054492    0.5823702  75.52  0.005077596    1.977    0.494
        16 -11.7153     42.7078     13.4815   3.9158175054e+01   6.7998016016e+01    0.3785224    0.2928766 -36.43  0.002487503    1.700    0.412
        17 -11.6410     69.7310      7.5884   2.6166091729e+01   6.3897004453e+01    0.4480664    0.3054036  56.29  0.002680827    1.527    0.345
        18 -11.2126     19.7390      5.8429   4.6625056836e+01   7.1981848142e+01    0.3814274    0.2780143  25.69  0.002702521    1.425    0.298
        19 -11.3644     35.4235     14.2391   4.2856432516e+01   6.8962827984e+01    0.5108428    0.2372463 -21.05   0.00257157    2.331    0.571
        20 -10.6120     52.0009      3.5055   3.0506031783e+01   6.7510367919e+01    0.2074922    0.1626784 -30.12  0.001395647    1.611    0.379
        21 -11.0012     35.8372      3.1665   3.7142088030e+01   7.0141670962e+01     0.410529    0.2072663  32.39  0.002366243    1.666    0.400
        22 -11.7675     84.7948     13.9632   2.4300720225e+01   6.0293934501e+01     0.607702     0.218981  45.15  0.002640947    2.256    0.557
        23 -11.6670     83.4509      5.6089   2.1284506290e+01   6.1301233295e+01    0.6185931    0.3182123  50.89  0.003290847    1.562    0.360
        24 -11.9739     62.2238    210.2626   8.1057088814e+01   2.2504070830e+01    0.6856253    0.6466091  31.17  0.003288846    1.251    0.201
        25 -12.4128    147.0375    243.6021   6.6297224718e+01   2.7402312836e+00    0.8436797    0.6535071 -67.02  0.004921139    1.726    0.421
        26 -12.6868    100.2643    247.7792   7.6827054079e+01   9.1804070686e+00    0.9713107    0.4888801  45.21  0.004867537    1.684    0.406
        27 -12.7349     94.5042    237.4671   7.6886089166e+01   1.2052343701e+01    0.9015295    0.6096355  56.43  0.003953542    1.401    0.286
        28 -12.1296     84.3114    247.6369   8.0160907671e+01   1.1520875704e+01    0.6180637    0.5075855  58.30  0.003542364    1.052    0.049
        29 -12.1469     82.0266    238.4787   7.9693664504e+01   1.3664069113e+01    0.8587633    0.4119506 -57.83  0.004182165    2.288    0.563
        30 -11.3326     70.8083    243.4801   8.2563945618e+01   1.4216312769e+01    0.3432762    0.2461184  51.09  0.001385942    1.165    0.141
        31 -10.6315     66.1626    241.8261   8.3374589240e+01   1.5174536518e+01    0.2826579    0.2456672  64.11  0.001081776    1.074    0.069
        32 -10.8030     55.8858    250.2058   8.6182130208e+01   1.4844755205e+01     0.288012    0.1629936  32.69   0.00133388    1.778    0.438
        33 -13.5093      8.1751    164.9841   8.9553075248e+01   3.9088078794e+01     1.111251    0.8306007  43.54  0.006061363    1.443    0.307
        34 -10.7589     25.1362    210.4823   8.9397741746e+01   2.6844572322e+01     1.273573    0.3559087  35.96  0.005370985    3.031    0.670
        35 -13.1461     11.1947    181.4393   9.0226551536e+01   3.4896144659e+01    0.9853272    0.5840638  61.34  0.004381046    1.623    0.384
        36 -13.3672     42.9927    247.6532   8.8523097181e+01   1.6940183124e+01    0.9657675     0.623561  59.17  0.006097551    1.267    0.211
        37 -14.0394     29.4865    248.3118   9.1161472923e+01   1.8374377639e+01     1.481703    0.8087274  84.80  0.008733247    1.745    0.427
        38 -13.4991     11.3748    194.9890   9.1236238218e+01   3.1708391295e+01      1.06315    0.4627446  62.83  0.004348833    2.349    0.574
        39 -12.9723      2.4910    186.8743   9.2634157311e+01   3.4335301513e+01    0.8359212    0.2596188 -78.58  0.002789788    2.744    0.636
        40 -13.3789     17.4320    249.0997   9.3449131606e+01   1.9525318902e+01    0.8660032    0.4454133 -78.34  0.005250131    1.825    0.452
        41 -14.6132     29.2922    223.9062   8.9535484803e+01   2.3441690850e+01     2.697332    0.9797305  58.81   0.01155716    2.851    0.649
        42 -14.1640      7.3913    205.9169   9.2850056203e+01   2.9582779661e+01     1.169627    0.5494989  71.93  0.005715431    2.045    0.511
        43 -14.4597      4.3608    245.1931   9.5615963538e+01   2.1607584263e+01    0.9666448    0.4817124  88.63  0.004690173    1.747    0.428
        44 -15.1928     10.9017    230.6095   9.3642282284e+01   2.3921788886e+01     1.290931    0.7497897  60.54  0.007909935    1.408    0.290
        45 -14.8307      5.5117    222.7747   9.4244321906e+01   2.6081577688e+01     1.095124    0.5372553 -75.50  0.006284786    1.796    0.443
        46 -11.2209     56.8544    201.3068   8.1321370216e+01   2.5279893624e+01    0.7948484     0.435938 -70.96  0.003557816    1.772    0.436
        47 -10.0779    114.8822    208.3812   6.8323959941e+01   1.4972512870e+01    0.2858573    0.1819843 -37.73  0.001286448    1.935    0.483
        48 -11.6972    164.6956    202.3313   5.5638593388e+01   7.5782004633e+00    0.4334636    0.3202311 -71.30  0.002076139    2.000    0.500
        49 -13.1629    116.1671    146.8766   5.6527310711e+01   2.9218463899e+01     3.604932     1.537899 -35.44   0.01062029    3.667    0.727
        50 -12.3074    126.6316    154.1761   5.5298420611e+01   2.5437745011e+01    0.8430699    0.5992277  54.74  0.003609837    1.560    0.359
        51 -13.8683    111.3531    187.6146   6.5815956531e+01   2.0285649150e+01     1.815495     1.190058 -54.72   0.00691396    1.569    0.363
        52 -13.2982    107.5742    173.1530   6.4215995360e+01   2.4392040837e+01     1.113119    0.7702597 -66.54  0.003892507    1.577    0.366
        53 -12.1997    132.2357    189.4992   6.0930840983e+01   1.6153867110e+01    0.9253326    0.6606302 -85.97  0.004103515    2.064    0.516
        54 -11.6592    140.7897    190.5036   5.9030868629e+01   1.4374070509e+01    0.3823938    0.3461613   7.35   0.00197584    1.135    0.119
        55 -12.1627    141.3420    184.3392   5.7731240698e+01   1.5635483957e+01    0.6085461    0.3334148 -49.67  0.002545436    1.891    0.471
        56 -12.3796    142.3771    176.3553   5.5908936963e+01   1.7230441999e+01    0.6192734    0.5395218  51.19  0.002399568    1.190    0.159
        57 -11.6811    145.3694    170.6737   5.4011032073e+01   1.7937817239e+01    0.6205214    0.4412553 -54.14  0.002862896    1.492    0.330
        58  -9.9693     44.0319    186.0909   8.2726429516e+01   3.0487341152e+01    0.4816751    0.2447148  66.66  0.002079572    2.378    0.579
        59 -11.0071    176.8962    186.1412   4.9786819481e+01   8.6250310615e+00    0.2242878    0.2134592  70.83  0.001258103    1.273    0.214
        60 -12.2168     28.8955    167.1763   8.4456311619e+01   3.6753866096e+01    0.9208606    0.3503825 -73.67  0.003155369    2.412    0.585
        61 -11.2638     35.2902    181.4902   8.4393676887e+01   3.2580164666e+01    0.4456388    0.2922107  62.31  0.001907903    1.512    0.339
        62 -11.8857     34.2998    175.3932   8.3978311393e+01   3.4178127983e+01    0.5247455    0.3465526  88.24   0.00165731    1.462    0.316
        63 -13.3067    124.2102    168.9632   5.9032540803e+01   2.2382118853e+01     1.214219     0.835619 -81.03   0.00506497    2.102    0.524
        64 -10.7836     74.2723    161.0462   7.1164569348e+01   3.2791907303e+01    0.3843223    0.3361364  38.44  0.001461669    1.190    0.160
        65 -12.4213     56.9078    105.5277   6.5402839428e+01   4.9086317823e+01     1.312407     1.079786  59.83  0.005827831    1.492    0.330
        66 -13.2697     76.3957    122.3781   6.2828058221e+01   4.2220785687e+01     1.466511    0.9464114 -72.40  0.005986126    1.927    0.481
        67 -13.2026     89.8649    150.6505   6.4786768314e+01   3.2990687122e+01      1.40647     0.954774  62.69  0.005065081    1.822    0.451
        68 -13.8156     77.9868    139.6062   6.6068522955e+01   3.7671648994e+01     1.672596     1.362164 -37.98  0.008566565    1.269    0.212
        69 -11.8517    143.9183    153.1118   5.0577442834e+01   2.2232699461e+01    0.5849802    0.3581954 -53.24  0.002429164    1.722    0.419
        70 -12.1198    102.6480    221.3484   7.3056517115e+01   1.4146224507e+01    0.6889852     0.531468  85.67  0.002523057    1.484    0.326
        71 -12.0350    107.3898    136.5219   5.6656769104e+01   3.3401570419e+01    0.5028844    0.4142275 -59.27  0.002453569    1.237    0.192
        72  -9.8939      3.5032    139.1040   8.8277944108e+01   4.5722551718e+01    0.2885608     0.161586 -76.65  0.001548726    1.477    0.323
        73 -10.9243      2.2144    132.7057   8.7956226205e+01   4.7361690875e+01    0.5388147    0.1880435 -73.72   0.00226099    2.341    0.573
        74 -13.2087     93.9418    127.5214   5.8539056070e+01   3.8049447537e+01     1.308024    0.7663208 -45.27  0.005232536    1.672    0.402
        75 -13.9189     94.5379    113.7653   5.4948312729e+01   4.1243967925e+01     2.447025     1.457851  62.41  0.009045938    2.725    0.633
        76 -12.6113    112.7399    124.0109   5.2082340297e+01   3.5369086329e+01    0.6962671    0.5307441 -62.48  0.003210739    1.450    0.310
        77 -12.7516     56.9537    126.3971   6.9966511474e+01   4.3958518447e+01     1.287359     0.708022 -74.36  0.005288152    2.228    0.551
        78 -13.2729    183.6269     82.9620   2.4132988118e+01   2.7806183820e+01    0.9152217    0.7362875  63.14  0.004809023    1.248    0.199
        79 -13.0782    180.7392     72.1694   2.1848988926e+01   3.0299590702e+01     1.121336    0.6573479  86.29  0.004419743    2.613    0.617
        80 -14.1089    237.1732     76.7342   1.4681254621e+01   1.7054622365e+01     1.441112    0.7217529 -50.23   0.00693836    1.797    0.444
        81 -12.1015    111.9717    225.7002   7.1515028454e+01   1.1762001886e+01    0.9640784    0.6010191 -75.35  0.004000326    2.129    0.530
        82 -10.0654    103.2964     84.3141   4.3847793318e+01   4.6002103497e+01    0.3027687     0.186101 -62.78  0.001181877    2.489    0.598
        83 -11.0807     22.1626     84.1683   7.3307304274e+01   5.7647906668e+01    0.3506655    0.3207644  59.02  0.001589886    1.385    0.278
        84 -11.1886     16.6147     81.0653   7.4804891385e+01   5.8750853814e+01    0.4957762    0.3007908 -42.08  0.002466887    1.375    0.273
        85 -11.6738      2.6078     76.0676   7.9365818387e+01   6.0678880141e+01    0.6955614     0.305763 -69.21  0.003350269    2.148    0.534
        86 -11.6225      8.9276     75.6992   7.6723527031e+01   6.0427848946e+01    0.6302666    0.4625746 -88.54  0.003756929    1.757    0.431
        87 -11.3846     71.0288     79.7683   5.3264203047e+01   5.2829832288e+01    0.4887554    0.3803928 -59.64  0.002543996    1.534    0.348
        88 -12.7542    142.3240     67.3996   2.8181916402e+01   4.0317313369e+01     1.923361    0.5853891 -30.92  0.005468462    4.500    0.778
        89 -13.1961    137.2070     61.6698   2.7619506433e+01   4.2461172442e+01    0.9911523    0.6022311  38.83  0.004417083    1.762    0.433
        90 -12.9523    116.2761    239.0282   7.2328080770e+01   8.4251867861e+00     1.456577    0.7427881  39.29  0.005369086    1.669    0.401
        91 -12.8662    241.1358     46.5735   7.9324859581e+00   2.0639320192e+01    0.7865234    0.4309362  43.96  0.002594221    2.969    0.663
        92 -12.9686    125.7142     48.7290   2.6229925194e+01   4.7114132654e+01     0.845081    0.8334862 -66.19   0.00511421    1.111    0.100
        93 -11.1163     64.3765     62.8301   5.0227806865e+01   5.7214079615e+01    0.3259361    0.2191132 -63.02  0.001517396    2.348    0.574
        94 -11.6296     28.2860     58.1281   6.3719734301e+01   6.2666524591e+01    0.7862679    0.4766251 -13.78  0.003867796    1.747    0.427
        95 -10.8010     14.3186     60.3092   7.0630192972e+01   6.3369191846e+01    0.3334361    0.2518166 -48.95  0.001461492    1.183    0.155
        96 -11.2919     47.7549     50.4284   5.2537156631e+01   6.1876152620e+01    0.4908103    0.4177022  23.53  0.002166629    1.264    0.209
        97  -9.7801      1.4809     50.5327   7.3885328250e+01   6.6106724001e+01    0.2351601   0.09721048 -58.85  0.001040645    2.066    0.516
        98 -10.9135     35.5713     44.9178   5.5877784132e+01   6.4363282242e+01    0.3870606    0.3324335  16.86  0.002565543    1.279    0.218
        99 -12.5428    119.5128    230.8610   7.0524068169e+01   9.5149245637e+00    0.6755731    0.4751421 -36.33  0.002856785    1.763    0.433
       100 -12.0467     10.4856     34.1420   6.4176220699e+01   6.8626064691e+01     0.805473    0.3555073  11.92  0.004163776    2.405    0.584
       101 -11.9192    244.4006    239.6331   4.6275535119e+01  -1.0748934096e+01    0.2472417    0.1726621  -2.56  0.001621769    1.165    0.142
       102 -10.9886     58.2810    236.9157   8.4569790466e+01   1.7214717637e+01    0.5820646    0.2423379  60.00  0.002496404    2.713    0.631
       103 -12.1237    144.8072     30.2999   1.6491918012e+01   4.4878660494e+01    0.6216637    0.4132709 -49.91  0.003245154    1.692    0.409
       104 -12.8177     49.9250    224.5271   8.5230034809e+01   2.0902060355e+01    0.9211376    0.5124008  67.53  0.003309063    1.828    0.453
       105 -12.1841    135.7543    228.9707   6.6623317376e+01   7.2594072675e+00    0.7155958    0.5319817  64.33  0.003817436    1.655    0.396
       106 -10.8127    193.0996    230.2660   5.4489915904e+01  -2.2115993524e+00    0.3085114    0.1741272 -24.52  0.001494305    2.036    0.509
       107 -12.4058    168.5584    225.8210   5.8902183684e+01   2.4569265992e+00    0.5548944    0.4613276  55.00  0.003200716    1.466    0.318
       108 -11.1928    249.3971    225.2495   4.2890933534e+01  -9.3851916911e+00    0.2237124    0.1892074   8.68  0.001568979    1.267    0.211
       109 -11.9194    150.1891    217.0836   6.1505855383e+01   7.1727427947e+00    0.5533895    0.4076461 -37.63  0.002175656    1.477    0.323
       110 -13.9185     77.4492    202.7507   7.6548522137e+01   2.2122153852e+01     1.914771     1.054179  74.00  0.007843577    2.608    0.617
       111 -12.2187     72.4345    235.7494   8.1466710074e+01   1.5567002829e+01    0.7968648     0.507167 -55.39  0.003992768    1.807    0.447
       112 -14.4450     20.4502    145.7863   8.4247887827e+01   4.2843649667e+01     1.733278      1.35798 -75.42   0.00848193    1.084    0.078
       113 -13.9501     40.2497    155.5659   7.9923683312e+01   3.8504392036e+01     1.275108    0.8076476  87.17  0.006229708    1.738    0.425
       114 -12.9862     42.8391    148.5352   7.8170870176e+01   4.0006365997e+01    0.8313832    0.4702225  14.81  0.001744615    2.340    0.573
       115 -11.5208    237.4070     25.1242   3.9377950609e+00   2.4137758039e+01    0.2707247    0.2131518 -47.97  0.001799604    1.268    0.211
       116 -13.2447     20.1219    127.8143   8.1956138539e+01   4.7348377316e+01    0.8993375    0.4365458  31.34  0.004336198    2.277    0.561
       117 -14.9161     17.9868    116.7791   8.0982606228e+01   5.0230609778e+01     2.267718     1.049915  45.88   0.01014384    2.715    0.632
       118 -10.2133    133.9551    216.2750   6.5081457715e+01   1.0090464163e+01    0.2676868     0.215269 -40.12   0.00146768    1.370    0.270
       119 -11.8945    124.9946    211.6055   6.6430172773e+01   1.2579905632e+01    0.9258406    0.5683096 -76.27  0.003964438    2.491    0.598
