#   1 NUMBER                 Running object number                                     
#   2 MAG_AUTO               Kron-like elliptical aperture magnitude                    [mag]
#   3 X_IMAGE                Object position along x                                    [pixel]
#   4 Y_IMAGE                Object position along y                                    [pixel]
#   5 X_WORLD                Barycenter position along world x axis                     [deg]
#   6 Y_WORLD                Barycenter position along world y axis                     [deg]
#   7 A_WORLD                Profile RMS along major axis (world units)                 [deg]
#   8 B_WORLD                Profile RMS along minor axis (world units)                 [deg]
#   9 THETA_WORLD            Position angle (CCW/world-x)                               [deg]
#  10 FWHM_WORLD             FWHM assuming a gaussian core                              [deg]
#  11 ELONGATION             A_IMAGE/B_IMAGE                                           
#  12 ELLIPTICITY            1 - B_IMAGE/A_IMAGE                                       
         1 -10.9730    180.7801     19.8217   2.8991065774e+02   6.4179493052e+00   0.01173583    0.0064602 -25.50 0.0009420292    2.778    0.640
         2 -13.2408    137.0177     16.7397   2.9040358485e+02   6.7259446142e+00   0.01806824    0.0154968  33.54 0.0009443038    1.143    0.125
         3 -11.9466     12.9312     13.8740   2.9184077678e+02   7.5292768213e+00   0.01331986    0.0127633 -58.57 0.0004962419    1.067    0.063
         4 -11.1007    174.3288     12.4525   2.8993966788e+02   6.5418025320e+00   0.01416096  0.009362482 -34.53  0.001216769    1.712    0.416
         5 -10.9945    127.6444     11.9256   2.9048304912e+02   6.8389669520e+00   0.01064503  0.009001336   5.73 0.0004435154    1.242    0.195
         6 -12.9395     77.4878     10.5506   2.9106236212e+02   7.1666523421e+00   0.02028873   0.01388852  40.80 0.0005976902    1.455    0.313
         7 -11.1359     66.5925     11.1837   2.9119414334e+02   7.2271468926e+00  0.009177373  0.005992556 -48.08 0.0004515978    1.544    0.352
         8 -12.0021     17.0401      7.3939   2.9175179640e+02   7.5773868632e+00    0.0187492   0.01458882  72.90   0.00195587    1.547    0.354
         9 -11.1573     22.8881      5.3814   2.9167048912e+02   7.5640159465e+00   0.02123093   0.01095989  51.87  0.001281042    2.418    0.586
        10 -10.3267     17.7964      3.3746   2.9171764007e+02   7.6183133546e+00   0.01170179  0.008324774  14.35 0.0007462027    1.510    0.338
        11 -11.0488    113.9479      8.6325   2.9062279638e+02   6.9616286490e+00   0.01381211  0.008059643  14.06  0.001261984    2.029    0.507
        12 -11.6089    107.5864      7.5901   2.9069079217e+02   7.0130562234e+00   0.01273084   0.01165737 -12.57 0.0005240677    1.124    0.111
        13 -10.0888     90.6549      7.7082   2.9089004419e+02   7.1170535093e+00  0.006989833  0.005037199 -20.42 0.0005018465    1.660    0.398
        14 -11.2181     38.4108      2.4862   2.9147007005e+02   7.5006866356e+00   0.01646671   0.01134051  88.83  0.001174911    1.935    0.483
        15  -9.8304     35.2990      2.7081   2.9150798904e+02   7.5174580425e+00  0.006921901  0.006460195 -16.85 0.0002171986    1.090    0.082
        16 -10.7866     30.7280      4.8249   2.9157496101e+02   7.5217665193e+00   0.01508766    0.0093925 -72.47  0.001457334    1.870    0.465
        17 -10.6560      5.6694      6.0330   2.9187673574e+02   7.6631913862e+00  0.009276649   0.00854066 -51.09 0.0004760317    1.097    0.088
        18 -10.6080    218.1127      2.2597   2.8936316261e+02   6.3836928370e+00    0.0148211    0.0088044 -54.61  0.001452447    1.668    0.400
        19 -10.0934    194.6970      3.3168   2.8964367883e+02   6.5181340117e+00  0.006882758  0.005053267  62.97 0.0002944698    1.622    0.383
        20 -11.1074     91.4927      2.7186   2.9084878173e+02   7.1684473512e+00   0.01143843  0.009489149  36.62 0.0003146261    1.186    0.157
        21 -11.6350     86.5617      2.1922   2.9090329037e+02   7.2050801876e+00   0.01498781   0.01109223  37.77  0.000745396    1.328    0.247
        22 -10.6934    209.9070      2.3464   2.8945965354e+02   6.4340376430e+00   0.00928321  0.008238924  22.57 0.0003986945    1.111    0.100
        23 -11.8833     73.1370      1.9292   2.9105909327e+02   7.2914973624e+00   0.02546568  0.007742833  33.74  0.001853722    2.939    0.660
        24 -10.2070     49.2467      2.7671   2.9134466905e+02   7.4303033324e+00   0.01031552  0.005571775  12.09 0.0004889536    2.407    0.585
        25 -10.6584    180.1042      1.4356   2.8980255479e+02   6.6306412000e+00  0.009897867  0.006434713  27.25 0.0003122298    1.514    0.339
        26 -10.7055    138.8464      1.4457   2.9028572287e+02   6.8880087867e+00   0.01007994  0.006373737  29.81  0.001006018    1.536    0.349
        27 -10.0796     54.5194      1.5826   2.9127533862e+02   7.4110278182e+00   0.00660085   0.00637392  11.42 0.0001419894    1.017    0.016
        28 -11.0363    174.4414    233.9610   2.9133099548e+02   4.0252856874e+00   0.01131447  0.009198209 -10.20 0.0008660522    1.369    0.269
        29 -11.1400    195.0748    245.1519   2.9116023116e+02   3.7697350158e+00   0.01476659    0.0108435  65.21 0.0003824352    1.647    0.393
        30 -11.4643    193.0902    249.0358   2.9120772328e+02   3.7379548337e+00   0.01364439   0.01094924  45.07 0.0009054695    1.268    0.212
        31 -12.4861    159.8832    249.2163   2.9159650362e+02   3.9424381163e+00   0.02351179   0.01700134  16.34  0.001895589    1.457    0.314
        32 -11.6098    151.6386    240.8508   2.9164042515e+02   4.0887783012e+00   0.01497852   0.01040789  35.89 0.0006824386    1.401    0.286
        33 -11.7920    149.0026    247.6460   2.9171373460e+02   4.0279196152e+00   0.02100575   0.01213527 -59.54    0.0013941    1.744    0.426
        34 -12.3783    146.9867    241.9356   2.9170154533e+02   4.1053619115e+00   0.01367414   0.01170858 -65.86 0.0004140053    1.212    0.175
        35 -12.1146    143.2378    231.9448   2.9168280706e+02   4.2422376994e+00   0.01465685   0.01276728 -11.69 0.0004968694    1.220    0.180
        36 -10.0260    137.7664    231.7882   2.9174574560e+02   4.2780229653e+00   0.01236595  0.007173576  36.98  0.000476676    1.669    0.401
        37 -12.3362    139.5620    239.7269   2.9177444847e+02   4.1766116359e+00   0.02835458   0.02226857  77.72  0.001778695    1.532    0.347
        38 -12.5614    137.9816    248.6065   2.9184845950e+02   4.0854861157e+00   0.01736724   0.01462244 -53.61 0.0002565996    1.196    0.164
        39 -11.1707    136.6138    243.2339   2.9183082775e+02   4.1550613281e+00   0.01418098   0.01113043 -37.16 0.0008903756    1.336    0.251
        40 -15.1939     59.9377    184.4569   2.9235956950e+02   5.2993784914e+00    0.1871206     0.100086  76.30   0.01267194    4.372    0.771
        41 -13.7045     63.2428    220.7897   2.9254802670e+02   4.8656247693e+00   0.05252566   0.02910098  77.73   0.00363242    3.701    0.730
        42 -14.3645     26.5330    196.4457   2.9282536650e+02   5.3698864820e+00   0.06906344   0.04330485 -88.91  0.005676648    2.305    0.566
        43 -14.3368      4.4107    203.3658   2.9312740141e+02   5.4279642898e+00   0.06400731   0.03493556 -62.92  0.005996547    1.902    0.474
        44 -14.1975     75.1824    216.4126   2.9238106550e+02   4.8413952261e+00   0.08820029   0.02093697  41.93  0.005268483    4.548    0.780
        45 -14.4880     44.8944    230.2552   2.9282166964e+02   4.8716159680e+00   0.06725442   0.04116462 -11.68  0.005941621    2.426    0.588
        46 -14.5022     51.0663    198.5111   2.9255123699e+02   5.1944926689e+00    0.1039174   0.04277402  53.42  0.006855876    4.124    0.758
        47 -14.1530     39.6082    198.2949   2.9268393525e+02   5.2679175172e+00   0.04372334   0.02932963  65.13  0.003140002    1.930    0.482
        48 -16.1843     32.9801    216.3967   2.9287450563e+02   5.1030230527e+00       0.1377   0.08518822   8.73    0.0129966    1.998    0.500
        49 -15.3728     74.2814    237.4256   2.9252288351e+02   4.6079822801e+00   0.06591722   0.03314495  40.70  0.005949214    1.978    0.494
        50 -15.0990     72.8108    227.3000   2.9247682843e+02   4.7322672496e+00   0.03287045   0.03001208 -36.60  0.002840205    1.111    0.100
        51 -15.2618     14.7065    231.3673   2.9318158632e+02   5.0457486495e+00    0.0506492   0.03549838 -55.33  0.005419703    1.425    0.298
        52 -17.5154     18.9269    244.8573   2.9321631474e+02   4.8661830626e+00    0.1752909   0.07550617  27.73   0.01466834    2.284    0.562
        53 -14.6767      5.7318    228.1569   2.9326652358e+02   5.1377482390e+00   0.03921596   0.02161806 -46.03  0.003551272    1.870    0.465
        54 -15.7272     10.6124    217.4624   2.9314277341e+02   5.2292527707e+00   0.05851827   0.04796365 -25.61  0.006339319    1.319    0.242
        55 -14.0551    106.2361    226.3212   2.9207998536e+02   4.5360290066e+00   0.06378727   0.03338154  12.31  0.005312799    2.548    0.607
        56 -10.9872    149.9583    231.2176   2.9159974912e+02   4.2087288885e+00   0.01061272  0.009497057 -57.19 0.0004092534    1.135    0.119
        57 -13.1463     58.7035    230.3898   2.9266105716e+02   4.7845550075e+00   0.01569837   0.01357788  84.99  0.001166748    1.296    0.228
        58 -11.7598    163.7446    224.0504   2.9139383156e+02   4.2044675934e+00   0.03516832    0.0173703 -81.88  0.002482192    3.828    0.739
        59 -10.8979    162.5355    217.7677   2.9136859120e+02   4.2834012739e+00   0.01186004  0.009127013  23.06 0.0009530748    1.296    0.228
        60 -10.6521    211.9822    228.0473   2.9085570309e+02   3.8588188830e+00  0.009915248  0.009571815 -25.89 0.0003762624    1.040    0.038
        61 -10.7917    175.1098    227.8627   2.9128498629e+02   4.0904350924e+00   0.01023328  0.009756121   8.75 0.0007611521    1.038    0.037
        62 -11.1356    201.7497    226.3952   2.9096476949e+02   3.9413037718e+00   0.01573598    0.0100682 -41.85   0.00157352    1.654    0.395
        63  -9.9841    181.1833    226.8629   2.9120780160e+02   4.0640066765e+00  0.008810878   0.00739961 -25.65  0.001002566    1.271    0.213
        64 -11.8384    170.0131    223.9179   2.9131978897e+02   4.1669788508e+00   0.02216795   0.01322284 -67.84  0.002130309    1.847    0.458
        65 -10.3109    187.1437    224.7309   2.9112484662e+02   4.0511397965e+00   0.01075512  0.007802793  49.72 0.0005571829    1.469    0.319
        66  -9.7292     59.2884    225.6053   2.9262434291e+02   4.8353531545e+00  0.007089823  0.005039941  68.12 0.0006177105    1.775    0.437
        67 -11.2399    250.0582    223.7246   2.9038439432e+02   3.6707031882e+00   0.01152593  0.009454935 -50.31 0.0003100473    1.225    0.184
        68 -10.4612    212.7113    224.2902   2.9082363260e+02   3.8969617331e+00  0.009484682  0.007470878 -33.39 0.0001618526    1.353    0.261
        69 -10.4144    214.4758    221.5249   2.9078569731e+02   3.9173870049e+00  0.009928892  0.005996177 -49.34 0.0001554213    1.659    0.397
        70 -10.2274    178.7680    224.1854   2.9121922445e+02   4.1094650450e+00  0.009194022  0.007583331 -23.68 0.0004991071    1.313    0.239
        71 -11.0353    152.1165    221.5397   2.9151393343e+02   4.3053241176e+00   0.01162418   0.01002945 -30.48 0.0007133255    1.208    0.172
        72 -12.6964    127.8687    218.5347   2.9177843897e+02   4.4902116753e+00   0.02455073   0.01727736 -19.63 0.0007501469    1.741    0.426
        73 -10.4121    124.4379    216.4513   2.9180549376e+02   4.5352162768e+00   0.01222921  0.009106447  23.93 0.0006573603    1.337    0.252
        74 -12.8842    140.3337    218.7892   2.9163437277e+02   4.4098494849e+00   0.02039185   0.01454233  54.19  0.001024453    1.566    0.362
        75 -11.3850    130.4405    212.2613   2.9170910643e+02   4.5455566371e+00   0.01883569   0.01115006 -68.69  0.001734854    1.886    0.470
        76 -10.7850    129.4872    207.4942   2.9169039658e+02   4.6056822853e+00   0.01240989  0.009815819 -52.79 0.0007442317    1.269    0.212
        77 -11.3903    206.5359    218.9495   2.9086221193e+02   3.9960974600e+00   0.01234164  0.009420346  31.86 0.0003785083    1.276    0.216
        78 -12.1949    230.2803    215.1621   2.9056135519e+02   3.8912036515e+00   0.03421725   0.01443013 -46.68  0.002793534    2.467    0.595
        79 -11.5755    175.9729    217.3837   2.9120923665e+02   4.2041595370e+00   0.01719115   0.01265288  10.99  0.001835142    1.483    0.326
        80 -11.6084    129.3906    227.9787   2.9181976513e+02   4.3733794612e+00   0.01382927     0.011714  34.48 0.0006488548    1.158    0.136
        81 -11.6435    193.2182    214.5916   2.9099035301e+02   4.1285435026e+00   0.01490785   0.01100395  88.54 0.0005248762    1.695    0.410
        82  -9.8265    146.0000    215.9218   2.9155020693e+02   4.4072209942e+00   0.01055436  0.003811641 -61.11 0.0004484221    2.819    0.645
        83 -10.2891    166.6533    214.8150   2.9130198889e+02   4.2913450420e+00  0.009186941  0.006386494 -74.98 0.0003543126    1.654    0.395
        84 -11.7899    217.6891    212.7956   2.9069343183e+02   3.9965386243e+00   0.01751566   0.01210981  41.85  0.001209708    1.451    0.311
        85 -11.1814    160.8561    212.8014   2.9135709051e+02   4.3502979772e+00   0.01296541  0.009734309  45.35  0.000688714    1.365    0.267
        86 -10.8203    152.9347    212.4206   2.9144724971e+02   4.4038989104e+00   0.01092501  0.008948993 -77.16 0.0005574255    1.341    0.254
        87 -11.2548    134.5141    219.0023   2.9170370894e+02   4.4435990329e+00   0.01585319   0.01272818  64.12  0.001419445    1.415    0.293
        88  -9.3418    138.6469    210.3183   2.9160103229e+02   4.5166398004e+00  0.006876735  0.006698377  -2.24 0.0008425183    1.017    0.017
        89 -10.4842     86.2752    212.7316   2.9222834546e+02   4.8144564983e+00   0.01154977  0.008310686 -64.23 0.0005997831    1.444    0.308
        90 -12.0683    242.3498    211.0882   2.9039497830e+02   3.8622515980e+00    0.0167788    0.0129203  17.82  0.001392262    1.333    0.250
        91 -12.2244    238.0208    210.2500   2.9044021681e+02   3.8987547530e+00   0.02308665    0.0131714 -58.40  0.001824716    1.753    0.429
        92  -9.9134    165.6596    211.3345   2.9129178300e+02   4.3370876636e+00  0.007175564   0.00498858  61.69 0.0007051216    1.754    0.430
        93 -12.3574    212.3136    208.0683   2.9072650911e+02   4.0837331930e+00   0.02353976   0.02132052 -33.11  0.002753952    1.126    0.112
        94 -11.4630    189.1543    206.5100   2.9098712131e+02   4.2456817392e+00   0.02329709   0.01726628  73.94  0.002139405    1.692    0.409
        95 -11.7431    194.6683    206.0892   2.9092009397e+02   4.2161275831e+00   0.01546584   0.01084275  39.30  0.001639104    1.408    0.290
        96 -10.3076    176.9627    208.3312   2.9114092677e+02   4.3008818467e+00   0.00910833  0.008038855  23.46  0.000351692    1.116    0.104
        97 -10.7963    227.4759    206.4241   2.9053923337e+02   4.0079333936e+00   0.01077456   0.01063023  69.62  0.001349331    1.048    0.046
        98 -10.5958    134.0300    206.9386   2.9163381983e+02   4.5837638544e+00  0.009886404   0.00956727 -15.26 0.0003381526    1.034    0.033
        99 -11.8666    113.4792    206.6318   2.9187211967e+02   4.7149486697e+00   0.02572268   0.01336858 -58.07  0.002006658    1.909    0.476
       100 -12.5815    121.6092    198.7885   2.9172796237e+02   4.7536236704e+00   0.02117721   0.01739996   8.58 0.0006728556    1.282    0.220
       101 -12.1247    117.9971    204.7413   2.9180746755e+02   4.7083796383e+00   0.01732909   0.01351588  81.85 0.0002799073    1.553    0.356
       102 -12.1705    121.5085    204.4595   2.9176465405e+02   4.6897684224e+00   0.02186147    0.0122057  41.08  0.001687334    1.789    0.441
       103 -10.8524    183.3186    204.9544   2.9104551683e+02   4.2996927262e+00   0.01536772  0.009028916 -66.14  0.001466142    1.837    0.456
       104 -11.1913    200.0735    204.9459   2.9084980961e+02   4.1954548106e+00  0.009741846  0.009694932  47.09 0.0003834842    1.031    0.030
       105 -11.2586    146.0476    202.3843   2.9146483738e+02   4.5608227382e+00   0.01678959  0.009906568 -49.06  0.001634412    1.700    0.412
       106 -12.3143    235.9023    203.0553   2.9041976201e+02   3.9936749167e+00   0.01544335   0.01217096  50.33 0.0004322747    1.337    0.252
       107 -11.7072    232.4973    200.9918   2.9044653530e+02   4.0383377007e+00   0.01071077   0.00980447 -58.43 -0.0002633305    1.113    0.101
       108 -10.3907    152.7059    204.0931   2.9139773880e+02   4.4999854639e+00  0.009216282  0.008498299 -52.84 0.0007008508    1.097    0.089
       109 -12.9692    241.4832    200.4924   2.9033855752e+02   3.9879903909e+00   0.03523312   0.01742421  21.75   0.00233466    2.203    0.546
       110 -12.4440    240.6755    197.3077   2.9032797942e+02   4.0291951517e+00   0.02235519   0.01089485  33.32  0.001525456    1.947    0.486
       111 -10.1192    166.0557    202.0106   2.9122870601e+02   4.4406007115e+00  0.008378203  0.007468555  25.16 0.0009887869    1.101    0.092
       112 -10.1534    130.6703    198.3331   2.9161918244e+02   4.7024878511e+00   0.01445374  0.008361099  39.86 0.0007312609    1.707    0.414
       113 -10.5502    136.3342    201.6801   2.9157394829e+02   4.6292251484e+00   0.01075401  0.007417282  54.91 0.0009437918    1.653    0.395
       114 -10.9931    133.6659    201.3277   2.9160292810e+02   4.6498189841e+00    0.0139329  0.009600353  62.66  0.001393924    1.797    0.444
       115 -11.6698    139.5716    197.7661   2.9151158448e+02   4.6535953552e+00   0.02167705   0.01398465  67.54  0.001882902    2.141    0.533
       116 -11.4150    139.9126    194.2652   2.9148565846e+02   4.6912747258e+00   0.01106543  0.009487363  17.72 0.0002583026    1.170    0.145
       117 -10.7047    179.4445    198.6646   2.9105131571e+02   4.3952932126e+00   0.01101356  0.009896521   3.11 0.0004417494    1.142    0.124
       118 -11.2475    202.0027    196.4265   2.9077382504e+02   4.2802371244e+00    0.0211986  0.007233138 -50.88  0.001534573    2.818    0.645
       119 -11.6488    198.8753    194.7616   2.9079989441e+02   4.3186366664e+00   0.01171758   0.01066417  51.80 0.0003316818    1.134    0.118
       120 -15.8810     98.2493    239.3908   2.9225503581e+02   4.4369754169e+00    0.1516673   0.09207305  41.92   0.01501256    1.657    0.397
       121 -10.6452    223.7056    197.5664   2.9052762644e+02   4.1320480165e+00  0.009591128  0.005954669  39.08 0.0009444234    1.583    0.368
       122 -11.2522    214.8911    197.1050   2.9062761505e+02   4.1922236531e+00   0.01051833  0.009004195  56.26 0.0009999425    1.245    0.197
       123 -10.0112    165.7467    197.3156   2.9120287703e+02   4.4958881514e+00  0.008554841  0.007700469 -34.38 0.0002509781    1.133    0.118
       124 -12.0146    162.7871    194.1719   2.9121774384e+02   4.5500388313e+00   0.02695906   0.01732487 -19.87  0.002536497    2.082    0.520
       125 -11.7025    193.3016    195.2508   2.9086805316e+02   4.3477975023e+00   0.01575659  0.009027257 -53.84  0.001517304    1.723    0.420
       126 -11.8677    188.0063    195.9989   2.9093459079e+02   4.3722747743e+00    0.0131889    0.0109191  25.13  0.001515949    1.190    0.160
       127 -12.9304    188.5635    191.1891   2.9089790252e+02   4.4234613673e+00   0.01470308   0.01351499  60.69 0.0004995257    1.147    0.128
       128 -11.6889    250.3420    194.7217   2.9019896969e+02   3.9982829784e+00   0.01243144   0.01076843 -88.46 0.0001738996    1.284    0.221
       129 -13.2068    246.1989    190.5175   2.9022088882e+02   4.0718653720e+00   0.03676756   0.02064337 -32.71 0.0007107973    2.276    0.561
       130 -11.3479    233.5966    194.3062   2.9039172516e+02   4.1074212222e+00   0.01278556   0.01142324 -15.49 0.0006991389    1.170    0.145
       131 -12.2049    113.0205    193.8109   2.9179720516e+02   4.8635845439e+00   0.01899271   0.01476712  79.52  0.002061812    1.562    0.360
       132 -14.3969     16.6619    180.1685   2.9283921897e+02   5.6161239247e+00   0.06856164    0.0629971  43.44  0.006638806    1.096    0.088
       133 -11.6658    217.1924    193.1439   2.9057588218e+02   4.2228803902e+00   0.01126224   0.01008401  35.91 0.0002518265    1.102    0.093
       134 -11.8823    154.3311    192.3373   2.9130505433e+02   4.6235081400e+00   0.01842065   0.01238994  -4.57 0.0006168056    1.927    0.481
       135 -12.0766    210.4490    191.5251   2.9064444311e+02   4.2832969205e+00   0.01789132   0.01455612  87.01  0.002008209    1.435    0.303
       136 -14.7762      7.3566    187.3794   2.9299316372e+02   5.5916294326e+00   0.09481245   0.05869226  65.92  0.008633461    2.289    0.563
       137 -10.6607    148.9597    190.9968   2.9135942624e+02   4.6721625074e+00    0.0101286  0.009689773 -36.02 0.0006519206    1.052    0.050
       138 -10.5431     93.9308    190.7401   2.9200122075e+02   5.0170504456e+00  0.008970044  0.008267852  38.57 0.0002788943    1.079    0.074
       139 -10.2299     93.2615    186.9964   2.9198561138e+02   5.0637799341e+00   0.01738281  0.009920499 -19.84  0.001305429    2.778    0.640
       140 -11.6824    121.6498    189.6369   2.9167015800e+02   4.8574272365e+00   0.02888765     0.016714  72.86  0.002021086    3.014    0.668
       141 -10.5996    123.4958    178.4997   2.9157877812e+02   4.9725809071e+00   0.01393512  0.007435421  40.36  0.001099619    1.857    0.462
       142 -12.3332    122.9785    183.5027   2.9161618424e+02   4.9189154779e+00   0.03067506    0.0188572  56.09   0.00206533    1.995    0.499
       143 -12.3285    114.1546    178.8221   2.9169004162e+02   5.0269709960e+00   0.01799576   0.01321905  77.09  0.000874617    1.733    0.423
       144 -12.0562    118.2279    178.1346   2.9163809540e+02   5.0094748129e+00   0.01369643   0.01203517 -46.69 0.0003834993    1.147    0.128
       145 -11.9899    104.4575    182.6437   2.9182739952e+02   5.0437578626e+00   0.02336877   0.01207309  37.44  0.002146363    1.867    0.464
       146 -12.7532    103.6659    177.9047   2.9180697073e+02   5.1025623163e+00   0.02509421   0.01518238  53.95  0.002090406    1.973    0.493
       147 -12.8095    106.8513    187.4898   2.9182975684e+02   4.9737834336e+00   0.01858776    0.0133654  44.28 0.0006435922    1.418    0.295
       148 -11.6372    102.3526    186.7151   2.9187751901e+02   5.0105323237e+00   0.01380514    0.0105138  75.65 0.0004733887    1.615    0.381
       149 -10.7767    195.7050    188.7599   2.9079924755e+02   4.4065809117e+00   0.01335034   0.00831652  86.71  0.001174428    2.454    0.593
       150 -10.4360    177.8315    188.6551   2.9100736592e+02   4.5190905258e+00   0.01079649  0.008283393  -2.06  0.001159504    1.492    0.330
       151 -11.1539    141.3665    189.1154   2.9143638439e+02   4.7407788779e+00     0.016141   0.00851077  35.48  0.001493368    1.814    0.449
       152 -10.0038    163.4372    188.4973   2.9117455891e+02   4.6104912252e+00  0.006576315  0.006458949  39.69 0.0001210609    1.031    0.030
       153 -12.4757     76.1509    186.0758   2.9218000580e+02   5.1804293479e+00   0.01880087   0.01434048 -14.58  0.001266811    1.526    0.345
       154 -11.1735     47.3369    186.1926   2.9251786887e+02   5.3577189572e+00   0.01947975   0.01168352  23.27   0.00154383    1.705    0.413
       155 -11.2499    234.0451    185.9727   2.9033414828e+02   4.1992750721e+00   0.00991874  0.009627323  -2.74 0.0003476477    1.022    0.022
       156 -10.6750    189.8272    186.1465   2.9085149470e+02   4.4728920494e+00   0.01065251  0.008889452  55.62  0.001215683    1.284    0.221
       157 -10.5543     54.9570    185.9435   2.9242714689e+02   5.3133388145e+00  0.009898735  0.007533875  61.45   0.00105877    1.514    0.339
       158 -11.4311    176.2293    183.8008   2.9099562499e+02   4.5842349034e+00   0.02454736   0.01470806 -15.31  0.002111038    2.542    0.607
       159 -10.9356    140.3888    184.2913   2.9141756988e+02   4.8017010078e+00    0.0107769  0.007434842 -26.46  0.000515651    1.727    0.421
       160 -10.8377     88.6556    183.0654   2.9201487642e+02   5.1370737020e+00   0.01682133   0.00698882 -65.51  0.001315595    2.722    0.633
       161 -11.7835     91.9902    180.5770   2.9196028653e+02   5.1446734864e+00   0.01399768   0.01275563 -89.33 0.0004171817    1.186    0.157
       162 -10.6437    227.0760    183.4059   2.9039935969e+02   4.2718851212e+00   0.01854626  0.006111084  29.70  0.001363473    2.871    0.652
       163 -11.3030     40.7584    182.7996   2.9257363880e+02   5.4370591151e+00   0.01393839   0.01144413 -45.60 0.0008036823    1.231    0.188
       164 -11.9793    230.1715    180.3408   2.9034397458e+02   4.2873971268e+00    0.0236772   0.01366102  71.77  0.001901932    3.012    0.668
       165 -11.2829    231.4699    175.7948   2.9030025632e+02   4.3309328352e+00   0.01580731  0.008536278 -37.70  0.001045401    2.190    0.543
       166 -10.7130    190.5638    181.2974   2.9081245313e+02   4.5234036562e+00   0.01203368  0.006776125 -68.45  0.001101685    2.001    0.500
       167 -10.1639    148.8384    182.1079   2.9130510581e+02   4.7739621368e+00  0.008999466  0.007461304 -30.50 0.0003591586    1.276    0.217
       168  -9.7509    135.5163    182.4785   2.9146316821e+02   4.8526116328e+00  0.006609056  0.006469584  15.77 0.0008100707    1.005    0.005
       169 -15.1020    100.1788    206.4701   2.9202660885e+02   4.7993788717e+00    0.1503062   0.08441222  57.61    0.0130939    2.406    0.584
       170 -11.9220    219.0921    179.5318   2.9046822092e+02   4.3656698891e+00   0.02219877   0.01040232  41.23  0.001919265    2.139    0.533
       171 -10.8127    211.8967    180.1649   2.9055620570e+02   4.4033332269e+00   0.01266534   0.00962011 -41.95  0.001387746    1.357    0.263
       172 -13.0007     75.1375    177.4193   2.9213768215e+02   5.2851665002e+00   0.03127718   0.01721145  25.16  0.002928737    1.834    0.455
       173 -11.6222     69.8222    175.6765   2.9218896860e+02   5.3379571728e+00   0.01470885   0.01021767 -55.86 0.0009266076    1.439    0.305
       174 -10.8539     66.2833    176.6789   2.9223665338e+02   5.3485019928e+00   0.01305028   0.01137373 -10.82 0.0009415429    1.218    0.179
       175 -10.1630    202.2768    177.3067   2.9065059034e+02   4.4957641224e+00   0.00968372  0.007743922 -17.04 0.0004609053    1.402    0.287
       176 -11.3266    206.6805    176.0971   2.9059156636e+02   4.4820598178e+00   0.02029555  0.007564986  41.25  0.001556479    2.704    0.630
       177 -11.3830    170.2898    176.6898   2.9102040108e+02   4.7020328901e+00   0.01058473  0.008343329  29.92 0.0006944883    1.239    0.193
       178 -11.6087    166.5660    175.2085   2.9105462176e+02   4.7420534184e+00   0.02267852   0.01442109  -6.74  0.002083682    2.200    0.545
       179 -11.6271    136.4243    176.4642   2.9141484264e+02   4.9153387768e+00   0.01285137   0.01080186 -28.37 0.0005895381    1.260    0.206
       180 -10.7990    148.5206    175.4520   2.9126707303e+02   4.8515989843e+00   0.01668506  0.009272153 -25.07  0.001365365    2.728    0.633
       181 -11.2429    129.4808    175.6634   2.9149101026e+02   4.9676208785e+00   0.01379364   0.01018269  55.05  0.000750608    1.506    0.336
       182 -10.7242    109.3455    175.6545   2.9172643933e+02   5.0928673808e+00   0.01322231  0.008560695 -26.11  0.000630308    1.937    0.484
       183 -12.8140    243.2427    172.6815   2.9014329954e+02   4.2928521411e+00   0.01522489   0.01362844  50.30 0.0004426851    1.151    0.131
       184 -11.6624     83.5008    175.0178   2.9202479336e+02   5.2605863128e+00    0.0120862  0.008144835  50.49  0.001225857    1.622    0.383
       185 -12.4036    236.5962    173.5021   2.9022601938e+02   4.3249964188e+00   0.02021841   0.01033946  39.23  0.001629198    1.913    0.477
       186 -10.5272    211.6846    174.2938   2.9052180457e+02   4.4713530460e+00  0.006871847  0.005014825  60.08 0.0006100748    1.600    0.375
       187 -10.8060    194.6834    173.8904   2.9071782585e+02   4.5819001823e+00   0.01213814  0.007941524 -55.04  0.001135921    1.522    0.343
       188 -11.8045    156.9268    173.0092   2.9115348360e+02   4.8270526798e+00   0.01485448     0.011788  74.81 0.0008793195    1.499    0.333
       189  -9.8874    219.4594    172.5545   2.9042009975e+02   4.4426370885e+00  0.006596952  0.006430925   7.01 0.0001232275    1.009    0.008
       190 -11.8396    132.9393    169.6249   2.9141270247e+02   5.0147636865e+00   0.02063198    0.0129317 -46.36  0.001911066    1.628    0.386
       191 -11.3321     59.9247    171.1586   2.9227651836e+02   5.4507107638e+00   0.01273082  0.009862889 -79.81  0.001390603    1.470    0.320
       192 -10.7009     60.3164    167.1492   2.9224684060e+02   5.4938832071e+00    0.0165444   0.01034337  -0.60  0.001508515    2.192    0.544
       193 -11.1530    208.3682    170.8113   2.9053865574e+02   4.5315904113e+00   0.01328666  0.009670916  22.21  0.001424599    1.386    0.278
       194 -11.2994     98.2092    170.6715   2.9182548585e+02   5.2187010150e+00   0.02255238  0.008987248  32.24   0.00142366    2.343    0.573
       195 -11.9171     88.1854    170.5799   2.9194218807e+02   5.2819791422e+00   0.01300316  0.009244865 -44.38  0.001160014    1.441    0.306
       196 -11.2867     86.2170    167.1375   2.9194365675e+02   5.3333437192e+00   0.01164096    0.0109372  58.23 0.0003984299    1.108    0.097
       197 -10.5019     64.8144    171.3641   2.9222057905e+02   5.4180580873e+00   0.01057939  0.007739305  43.20 0.0006657953    1.382    0.277
       198 -11.8002    217.2832    167.5253   2.9041390903e+02   4.5133337513e+00   0.01604671   0.01099425 -54.61 0.0009735479    1.456    0.313
       199 -12.3891     77.5447    166.6173   2.9204188010e+02   5.3930783253e+00   0.01894228   0.01570189  49.94 0.0008863354    1.256    0.204
       200 -10.3583     73.5899    163.5076   2.9206868761e+02   5.4529790556e+00   0.01052085  0.008559748  41.88 0.0005861293    1.231    0.188
       201 -10.7397     54.3705    169.0597   2.9232838995e+02   5.5090116786e+00    0.0168937   0.00803951 -64.98  0.001441181    2.285    0.562
       202 -10.0361      6.1967    169.2201   2.9289333277e+02   5.8053816673e+00  0.009177082  0.007611041  61.78 0.0005404537    1.333    0.250
       203 -11.3984    249.0840    167.9740   2.9004555057e+02   4.3098603136e+00   0.01024057  0.009979609   3.57 0.0005921139    1.012    0.012
       204 -11.7806    197.2343    165.3423   2.9063434152e+02   4.6631253006e+00   0.02038429  0.009958572  46.94    0.0011211    2.294    0.564
       205 -11.7250    193.0160    168.0453   2.9070059559e+02   4.6587028123e+00    0.0150025    0.0101563  71.03  0.001096942    1.996    0.499
       206 -11.4842     71.1390    168.4280   2.9212818246e+02   5.4122269269e+00   0.01742823   0.01124858  34.68  0.001270138    1.499    0.333
       207 -10.4507    120.0127    164.9996   2.9153487715e+02   5.1477199939e+00  0.009382341  0.007677798  58.41 0.0003252282    1.337    0.252
       208 -10.3932      2.8880    166.8226   2.9291709354e+02   5.8531067169e+00  0.009996817  0.008653152 -24.39 0.0008452213    1.217    0.178
       209 -12.1160    234.3319    166.1014   2.9020593153e+02   4.4231701337e+00   0.01382256   0.00932708  35.51  0.001178945    1.440    0.305
       210 -11.8929    139.7617    165.4687   2.9130685323e+02   5.0195757765e+00   0.01362511   0.01241412  34.55 0.0004013194    1.082    0.076
       211 -12.2511    185.7438    164.2221   2.9076154651e+02   4.7474578037e+00   0.01634167   0.01088835 -38.78  0.001243389    1.622    0.383
       212 -10.6767    159.2777    164.8509   2.9107480377e+02   4.9051459510e+00   0.01180976  0.008238398 -66.15  0.001232885    1.516    0.340
       213 -11.5594    100.9920    163.9893   2.9175105381e+02   5.2773997118e+00   0.01334331   0.01058743 -73.94  0.000473214    1.375    0.273
       214 -11.9148     96.4114    161.6848   2.9179020448e+02   5.3320518158e+00   0.01217974   0.01127271 -18.47 0.0002532798    1.106    0.095
       215 -11.0454      7.9425    163.0658   2.9283443758e+02   5.8645955585e+00   0.01955266  0.007907313 -54.97  0.001373682    2.364    0.577
       216 -10.0455    204.4620    164.4735   2.9054445948e+02   4.6279417002e+00  0.006636123  0.006424484  -7.74 0.0001950957    1.029    0.029
       217 -10.9911     12.4331    163.1082   2.9278212160e+02   5.8363460171e+00   0.01218738  0.009592309 -20.51 0.0004788382    1.427    0.299
       218 -12.3759    171.1442    168.5249   2.9095916732e+02   4.7895056100e+00   0.01799415    0.0116374  19.09  0.001802603    1.637    0.389
       219 -12.4712     21.0266    158.8419   2.9265482740e+02   5.8317161967e+00    0.0296686   0.01395758 -60.89 0.0008669312    2.156    0.536
       220 -11.1908    223.7261    161.3496   2.9029987062e+02   4.5432989402e+00   0.01274951   0.01079347 -17.87  0.001468798    1.275    0.215
       221 -14.2416     31.6404    169.7081   2.9259851089e+02   5.6424295494e+00   0.06438027   0.04954465 -77.31  0.006961349    1.460    0.315
       222 -10.2503      4.3629    161.9258   2.9286922836e+02   5.8996923440e+00   0.01380879  0.006694165 -72.36 0.0009594047    2.705    0.630
       223 -11.7911    202.2265    160.5992   2.9054622792e+02   4.6858928582e+00   0.01677884  0.008370649 -50.75  0.001507947    1.981    0.495
       224 -10.4841    133.0320    162.4612   2.9136668358e+02   5.0956237621e+00   0.01036234  0.006428644  28.83 0.0005066465    1.573    0.364
       225 -12.5052    194.1452    159.7727   2.9063543914e+02   4.7456566353e+00    0.0270962   0.01084233  32.35  0.001286574    2.335    0.572
       226 -11.3874    161.7613    159.4385   2.9101179503e+02   4.9511964310e+00   0.01695929  0.006664561 -51.98   0.00109233    2.451    0.592
       227  -9.5344    208.2823    159.6716   2.9046966706e+02   4.6586729991e+00  0.006808135  0.005089452  65.76 0.0002457524    1.604    0.377
       228 -11.3185    211.6350    157.3610   2.9041598963e+02   4.6640146475e+00   0.02498809  0.006192254  33.09  0.001669686    3.469    0.712
       229 -13.6257     39.3845    165.5731   2.9248199431e+02   5.6415130243e+00    0.0366847    0.0233925  80.88  0.002219494    2.357    0.576
       230 -12.3905     62.3276    156.3623   2.9215576390e+02   5.6040907539e+00   0.02182321   0.01304476  49.70 0.0004869777    1.870    0.465
       231 -12.5381     11.2838    156.5151   2.9275436538e+02   5.9184478847e+00   0.01618735   0.01320331 -69.18  0.000532687    1.295    0.228
       232 -11.5988    136.8396    152.3328   2.9125859994e+02   5.1870712697e+00    0.0216816   0.01258765   3.49  0.001659912    2.476    0.596
       233 -10.6542    132.0245    153.3515   2.9132131024e+02   5.2054453477e+00   0.01105093   0.01025587  23.13 0.0004344468    1.058    0.055
       234 -11.1415    106.8807    156.6762   2.9163631028e+02   5.3239658225e+00   0.01315379   0.01041969  82.60 0.0008846744    1.510    0.338
       235 -12.0940     27.1646    154.7426   2.9255731472e+02   5.8403570667e+00   0.02040031   0.01593925 -69.70  0.001340245    1.365    0.267
       236 -10.0923     20.3366    150.2668   2.9260927650e+02   5.9335181647e+00    0.0113035  0.009135838   8.89 0.0007610485    1.310    0.237
       237 -11.3470     23.5004    148.5188   2.9256128865e+02   5.9338215327e+00   0.01140797  0.008959485 -46.82 0.0008742126    1.285    0.222
       238 -11.6045    181.2602    154.9842   2.9075591333e+02   4.8803618258e+00   0.01595478   0.01171566  -7.01  0.001666051    1.636    0.389
       239 -10.7381    171.1935    156.3790   2.9088232850e+02   4.9272255487e+00  0.009434662  0.005863488  38.38 0.0002718755    1.575    0.365
       240 -11.5553    147.1253    155.7452   2.9115972967e+02   5.0842813411e+00   0.01842135   0.01082534  45.14  0.001041259    1.782    0.439
       241 -10.8678    199.8427    154.5970   2.9053635768e+02   4.7689414376e+00   0.01168638  0.009026925 -56.18  0.000556329    1.303    0.232
       242 -12.0267    115.3269    154.4888   2.9152377358e+02   5.2963432262e+00   0.01450031   0.01115038  40.15  0.001067108    1.292    0.226
       243 -12.1614     35.2645    151.6740   2.9244326832e+02   5.8251115029e+00   0.02765956   0.01604931  77.55  0.001684577    3.093    0.677
       244 -10.9840     34.9755    145.3040   2.9240678387e+02   5.8993465539e+00   0.01237857  0.009854973 -57.76 0.0003456984    1.269    0.212
       245  -9.9757    135.5164    156.5704   2.9130066819e+02   5.1471339001e+00   0.00926168  0.006618353 -78.74   0.00052062    1.646    0.392
       246 -10.6556    100.1515    153.3328   2.9169408519e+02   5.4037855450e+00   0.01390297  0.009584058 -73.46  0.001426119    1.646    0.392
       247 -13.0637    247.7678    150.6692   2.8995208683e+02   4.5145625853e+00   0.02249573   0.01756291 -72.10   0.00164411    1.389    0.280
       248 -12.6301    237.5390    150.0709   2.9006770542e+02   4.5852027903e+00   0.01576307   0.01289985  42.93 0.0004501496    1.229    0.187
       249 -11.7811    225.5420    152.0084   2.9021994485e+02   4.6380625957e+00   0.01738186  0.009256068  32.49 0.0006105851    1.796    0.443
       250 -11.6388    108.9521    151.0399   2.9157672677e+02   5.3751740564e+00    0.0147413  0.009500921 -56.83 0.0009141414    1.549    0.355
       251 -11.3898     89.9949    151.5098   2.9180151596e+02   5.4875922378e+00   0.01853398  0.007147189 -39.32  0.001012022    3.672    0.728
       252 -10.3408     44.0731    151.8211   2.9234104627e+02   5.7688794646e+00   0.01148401  0.007663434 -11.83    0.0010955    1.980    0.495
       253  -9.6976     52.3248    156.6216   2.9227448602e+02   5.6631523978e+00  0.007251473  0.004990042  64.66 7.209728e-05    1.835    0.455
       254 -11.9252     52.7534    149.5326   2.9222508260e+02   5.7411160438e+00   0.01885068    0.0113457  66.90  0.001644592    2.481    0.597
       255 -10.5486    123.4124    149.7678   2.9139956541e+02   5.2997441426e+00   0.01848122  0.008881905  62.51  0.001185514    4.533    0.779
       256 -10.2290     64.4510    149.7524   2.9208950587e+02   5.6660904682e+00  0.009881923  0.005827249 -46.94 0.0009450749    1.726    0.421
       257 -10.0124    219.3090    149.3066   2.9027573923e+02   4.7076349509e+00  0.006924265  0.005025028 -24.06 0.0003101442    1.613    0.380
       258 -10.5114    183.7308    149.0316   2.9068964363e+02   4.9326007365e+00  0.009003673  0.008523234 -55.50 0.0003165064    1.074    0.069
       259 -11.2630    152.2993    148.1652   2.9105163952e+02   5.1382266190e+00   0.01194357   0.01067809  60.93 0.0003958851    1.193    0.162
       260 -10.1573     81.4613    148.7617   2.9188417091e+02   5.5718162998e+00  0.009075695  0.006021827 -46.22 0.0006414256    1.535    0.348
       261 -10.6145      2.7984    148.1483   2.9280143483e+02   6.0660760569e+00   0.01208061  0.008455022 -54.45 0.0008103372    1.425    0.298
       262 -11.4329    228.7166    148.1816   2.9015881649e+02   4.6617149279e+00   0.01177727  0.009429656  27.82 0.0005773661    1.224    0.183
       263 -11.7193    233.0315    147.0235   2.9010115814e+02   4.6479390089e+00   0.01416467  0.009628602  20.20 0.0005634669    1.524    0.344
       264 -11.1592    202.6712    147.9580   2.9046158922e+02   4.8267243535e+00   0.01342304  0.009299258  37.36  0.001412562    1.412    0.292
       265 -12.6461    222.6088    145.1724   2.9021120913e+02   4.7340004782e+00   0.02538721   0.01723858  37.28  0.001900797    1.439    0.305
       266 -11.4117    215.9619    144.9880   2.9028767297e+02   4.7775647977e+00   0.01035971  0.009542211 -59.94 0.0003272107    1.109    0.098
       267 -11.8769    163.7516    146.4379   2.9090688585e+02   5.0865453824e+00   0.01377397   0.01065048  71.87  0.001486103    1.557    0.358
       268 -10.4120    103.7624    148.5932   2.9162211006e+02   5.4352384902e+00   0.01229784  0.008120263  38.20  0.001260607    1.484    0.326
       269 -11.0085     56.0395    145.9190   2.9216397464e+02   5.7618400623e+00  0.009749227  0.009636731  39.57 0.0004065856    1.029    0.028
       270 -11.9501    238.3981    145.0787   2.9002627794e+02   4.6365270685e+00   0.01406662   0.00950045  36.63   0.00146373    1.443    0.307
       271 -10.1303    197.0376    145.5135   2.9051204098e+02   4.8896206107e+00   0.01005768  0.006426246  29.60 0.0004290872    1.523    0.343
       272 -10.5952    139.2931    145.3940   2.9118634764e+02   5.2506736234e+00   0.01508406  0.008622908   9.32 0.0008612517    2.299    0.565
       273 -10.1981    206.5259    144.5092   2.9039487846e+02   4.8418620159e+00  0.006612963  0.006465613   4.43 -2.822329e-05    1.007    0.007
       274 -11.2356    177.9066    142.9587   2.9071955467e+02   5.0378955910e+00   0.01977471   0.01010238 -65.88  0.001216853    2.150    0.535
       275 -10.9664    159.0698    143.8597   2.9094543186e+02   5.1450003619e+00   0.01078426  0.008861838  55.36  0.001220218    1.308    0.236
       276 -12.2111     27.5591    143.2137   2.9248055853e+02   5.9690364368e+00   0.03379969  0.006884672 -52.97  0.002108342    4.121    0.757
       277 -12.2303     21.5725    141.9879   2.9254300483e+02   6.0200297158e+00   0.01768099   0.01506622  85.92  0.001475337    1.328    0.247
       278 -11.6951     25.5047    138.7551   2.9247671474e+02   6.0324588994e+00   0.01796615   0.01021744  20.34  0.001277102    1.888    0.470
       279 -11.0223     13.5991    143.4003   2.9264523435e+02   6.0532944575e+00   0.01364804   0.01086459  -7.73 0.0008865398    1.415    0.293
       280 -11.4113    248.9587    136.4651   2.8984882559e+02   4.6683902300e+00   0.01512226   0.01080008 -89.02  0.001488078    1.782    0.439
       281 -11.6500    245.3489    138.8515   2.8990597200e+02   4.6638380082e+00   0.01824284  0.008686936  32.10 0.0006768052    1.995    0.499
       282 -12.0423    241.5017    141.4862   2.8996745197e+02   4.6579439703e+00   0.01498154    0.0115673  53.57  0.001363394    1.403    0.287
       283 -11.8915    239.4996    138.5088   2.8997209008e+02   4.7042492544e+00   0.01446692   0.01239006   9.51  0.001595576    1.206    0.171
       284 -10.4329    106.9610    141.4770   2.9154004021e+02   5.4962643694e+00   0.01039667  0.006570383  23.50  0.001027169    1.605    0.377
       285  -9.8779    162.4718    140.4895   2.9088448305e+02   5.1621104042e+00   0.00670761  0.006367952 -15.12 0.0006870477    1.063    0.060
       286 -11.4892     46.7821    138.6511   2.9222685662e+02   5.9018659942e+00   0.02363794   0.01210914 -39.47  0.001702961    2.274    0.560
       287 -11.9762    126.9734    138.4243   2.9128671181e+02   5.4065391100e+00    0.0151043   0.01377882  53.37  0.001824518    1.136    0.120
       288 -10.8700     34.5062    138.6627   2.9237070290e+02   5.9777804697e+00   0.01192613  0.007251439  47.14  0.001044327    1.763    0.433
       289 -10.0917    207.2598    138.3748   2.9034773478e+02   4.9069618407e+00  0.009073499  0.005893471  38.64 0.0001726311    1.511    0.338
       290 -10.0320     73.7862    138.5963   2.9191030233e+02   5.7350342124e+00  0.009552292  0.005831831  39.72 0.0005204507    1.617    0.382
       291 -10.9965    180.5655    136.9768   2.9065088204e+02   5.0892887531e+00   0.01603281  0.008357766  43.46  0.001116507    1.983    0.496
       292 -10.8228      6.6845    136.7173   2.9268442644e+02   6.1720616327e+00   0.01403416  0.009366849 -27.32 0.0002202972    1.811    0.448
       293 -10.7277      7.6602    133.7312   2.9265431406e+02   6.1999887926e+00   0.01163882  0.008260136   7.70  0.000528396    1.605    0.377
       294 -11.4041    196.0508    135.5176   2.9046073157e+02   5.0093243251e+00   0.01500005   0.01116315 -79.12 0.0009942116    1.555    0.357
       295 -11.7622    228.1476    134.9974   2.9008253280e+02   4.8149834756e+00   0.01331749  0.009390133  31.79 0.0003268152    1.377    0.274
       296 -11.3964    221.6817    127.1042   2.9010838219e+02   4.9449708645e+00   0.01776423  0.009408243  41.23  0.001631244    1.889    0.471
       297 -10.4990    219.8928    134.9482   2.9017862306e+02   4.8670602907e+00   0.01007637  0.009509919  12.13 0.0003898968    1.049    0.047
       298 -11.4918    223.9540    131.0677   2.9010678208e+02   4.8857811994e+00   0.01394827  0.009820668 -34.98   0.00095919    1.561    0.359
       299 -10.5547     77.0434    135.0309   2.9184981448e+02   5.7553587914e+00   0.01028044   0.00967516  36.77 0.0006437792    1.056    0.053
       300 -10.1602    182.3035    141.6458   2.9065991237e+02   5.0254108281e+00  0.007038367  0.005059296  65.28 0.0006575506    1.709    0.415
       301 -12.8266     93.4603    131.4724   2.9163529595e+02   5.6938814696e+00   0.01704817   0.01293341  47.52 0.0009847587    1.371    0.270
       302  -9.6530     40.6881    133.3221   2.9226485218e+02   6.0002227931e+00  0.006961903   0.00503838  62.50 0.0007038515    1.653    0.395
       303 -10.7760     22.6010    132.8824   2.9247396725e+02   6.1172158112e+00   0.01342436  0.008683697 -81.38   0.00128416    1.984    0.496
       304 -10.6155    200.7378    132.1143   2.9038456374e+02   5.0187505025e+00   0.01123713  0.008568145  39.17 0.0005438821    1.297    0.229
       305 -11.0155    214.3140    131.0434   2.9021922111e+02   4.9462177701e+00   0.01090763  0.009092457   5.20 0.0004358798    1.273    0.214
       306 -10.2986    125.6612    131.6919   2.9125979744e+02   5.4912225672e+00  0.007063292  0.005025405 -22.38 0.0007043083    1.683    0.406
       307 -10.8769    101.8316    130.6453   2.9153211142e+02   5.6512735582e+00    0.0155847  0.009273908 -66.09 0.0009492593    1.808    0.447
       308 -11.2386     48.8440    130.3331   2.9215059764e+02   5.9836726543e+00   0.02136004   0.01086381 -33.23  0.001729721    2.705    0.630
       309 -11.6158    249.7266    129.4965   2.8979600707e+02   4.7427034696e+00   0.01415537   0.01168465  41.17 0.0007367116    1.209    0.173
       310 -11.1790     86.3192    129.7070   2.9170782326e+02   5.7583007293e+00   0.01115843  0.009717932  34.51 0.0002239166    1.129    0.114
       311  -9.9765     18.2996    130.3065   2.9250823363e+02   6.1731257617e+00  0.006881171  0.005006696 -25.04  0.000245844    1.593    0.372
       312 -10.8330     35.5230    129.4876   2.9230133635e+02   6.0758179314e+00  0.006606937  0.006462757   5.62  7.82718e-05    1.005    0.005
       313 -10.3607    196.1964    128.2077   2.9041306273e+02   5.0914484111e+00  0.008964558  0.007713893  75.44 0.0004256739    1.307    0.235
       314 -10.0206     44.6274    128.2169   2.9218672846e+02   6.0338654654e+00  0.009753054  0.005751634 -48.53 0.0008210209    1.706    0.414
       315 -10.4796    238.4036    127.2932   2.8991431071e+02   4.8384303174e+00  0.008995404  0.006557819 -75.79 0.0007426674    1.561    0.360
       316 -12.3739     66.2790    125.0517   2.9191329201e+02   5.9356100339e+00   0.02367609   0.02100212  73.81  0.001760212    1.241    0.194
       317 -10.3089    108.2582    126.0652   2.9142814126e+02   5.6633933052e+00   0.01118558    0.0075802  74.00  0.001071111    2.023    0.506
       318 -10.4381    110.0599    123.0000   2.9138780876e+02   5.6870332011e+00   0.01024369  0.007156485   2.74 0.0004397979    1.715    0.417
       319 -10.1877    174.8191    125.1842   2.9064392861e+02   5.2590770476e+00  0.009022531  0.007604072 -22.84 0.0003396785    1.273    0.214
       320  -9.9532    153.0165    125.7574   2.9090249391e+02   5.3884010955e+00  0.008436596  0.005545688  28.24 0.0004278516    1.489    0.329
       321 -11.1722    188.1202    123.8633   2.9048013097e+02   5.1911612265e+00   0.01030678  0.008868596  59.56 0.0004653995    1.253    0.202
       322 -10.3762    124.8487    123.7438   2.9121939344e+02   5.5866103838e+00   0.01046283  0.008116445  -1.81 0.0004815294    1.462    0.316
       323 -11.3633    245.7879    122.9451   2.8980074150e+02   4.8416749032e+00   0.01754477  0.008539557 -51.27  0.001561268    2.021    0.505
       324 -11.0885    248.2956    118.3183   2.8974234172e+02   4.8785298775e+00   0.01447602   0.01031369   0.33 0.0008874279    1.686    0.407
       325 -11.0465    238.8252    122.0838   2.8987660028e+02   4.8949393639e+00   0.01009403  0.009106898  65.46 0.0004721728    1.191    0.160
       326 -10.2535    161.0974    121.9092   2.9078379422e+02   5.3817896494e+00  0.008873171  0.007587481 -21.26  0.001019797    1.248    0.199
       327 -10.9374    119.8517    120.5617   2.9125788845e+02   5.6538573431e+00   0.01623898   0.00787951 -70.55  0.001331879    2.571    0.611
       328 -11.3607    106.2238    119.9562   2.9141360255e+02   5.7454758320e+00   0.02666421   0.01275997 -39.96  0.002211959    2.480    0.597
       329 -11.0799     58.5617    121.2514   2.9197985165e+02   6.0266826968e+00   0.01237198  0.006766531 -66.97  0.001027841    2.018    0.505
       330 -11.8620    232.5738    120.6464   2.8994054306e+02   4.9502961273e+00   0.01215161   0.01141791  36.77 0.0005166159    1.057    0.054
       331 -11.4019     83.5246    119.9853   2.9167955403e+02   5.8861698679e+00   0.01982916   0.01200453  61.60  0.001792169    2.252    0.556
       332  -9.9260     11.9360    122.0000   2.9253079531e+02   6.3069490782e+00   0.01074315   0.00374153  27.87 0.0004142552    2.822    0.646
       333 -11.9742     61.6943    117.3415   2.9191864111e+02   6.0517039440e+00   0.02473071   0.01679531  88.59  0.002417296    1.988    0.497
       334 -11.3427     91.4514    118.4377   2.9157702313e+02   5.8545309873e+00   0.01146909   0.01051575  21.60 9.664642e-05    1.073    0.068
       335 -13.6566     87.8289    114.8068   2.9159665134e+02   5.9183036220e+00   0.01781941   0.01588278  28.08 0.0008221095    1.100    0.091
       336 -11.2047     49.9981    118.4578   2.9206265153e+02   6.1115391353e+00   0.01423108   0.01100323  23.50 0.0009091671    1.287    0.223
       337 -11.9107     19.8276    118.4733   2.9241623872e+02   6.2982252719e+00   0.01975524   0.01180541  33.15   0.00194868    1.611    0.379
       338 -10.6478      5.1670    118.9139   2.9259079757e+02   6.3838999945e+00   0.01008708  0.009788269  24.32  0.000491587    1.016    0.016
       339 -11.1510      1.6765    115.5144   2.9261042375e+02   6.4441332796e+00   0.01686951  0.009612494 -49.10  0.001001472    1.758    0.431
       340 -10.8779      6.3047    113.3008   2.9254232190e+02   6.4406885499e+00   0.01004417  0.008897811 -60.04 0.0004243938    1.151    0.131
       341 -11.9212      3.6325    109.8090   2.9255177779e+02   6.4969120515e+00   0.01689657   0.01637131 -25.89  0.001014823    1.035    0.033
       342 -11.8783    173.1685    115.2717   2.9060089916e+02   5.3819717437e+00   0.01926773   0.01031251  22.15 0.0009878344    1.981    0.495
       343 -11.5050    199.3198    114.1470   2.9028811262e+02   5.2316593661e+00   0.01766375   0.01004225  54.69 0.0008933189    2.208    0.547
       344 -10.8978    185.8832    114.5092   2.9044744548e+02   5.3113584435e+00  0.009811937  0.008761357 -60.93 0.0003702293    1.145    0.127
       345 -11.1186    125.8051    114.1020   2.9114763465e+02   5.6902313314e+00   0.01118424  0.009609417 -61.42 0.0003728108    1.191    0.160
       346 -11.8186    129.0410    110.3216   2.9108601037e+02   5.7130542908e+00   0.01348113   0.01097393  39.20 0.0002186114    1.217    0.178
       347 -10.4596    119.2669    114.0336   2.9122373000e+02   5.7316831360e+00   0.01428688  0.008411329 -10.53  0.001182348    2.712    0.631
       348 -11.9677    179.5487    110.8272   2.9049834190e+02   5.3926800427e+00   0.02259496   0.01236422 -80.08  0.001872483    2.710    0.631
       349 -11.7876    244.8267    110.8256   2.8973565683e+02   4.9852490683e+00   0.01606952   0.01061895 -46.54 0.0007700408    1.539    0.350
       350 -11.0340     95.9906    111.9346   2.9148304914e+02   5.9002461034e+00   0.00984134  0.009461857 -17.67  0.001213997    1.044    0.042
       351 -12.9229     20.4853    110.2677   2.9235713044e+02   6.3874508863e+00   0.02953879    0.0197341   4.47  0.002917982    1.828    0.453
       352  -9.8082    102.9811    109.6563   2.9138689179e+02   5.8826944045e+00   0.01186342  0.003593322  45.87 0.0007050681    4.419    0.774
       353 -11.0604     36.7402    108.4261   2.9215510157e+02   6.3077416169e+00   0.01208727   0.01026371 -51.87 0.0005000805    1.185    0.156
       354 -11.7665    166.0372    107.6419   2.9063631105e+02   5.5130904500e+00   0.01583661   0.01200047  85.99 0.0001239347    1.629    0.386
       355 -13.5693    166.7404    101.7619   2.9059110115e+02   5.5754974095e+00   0.01768549   0.01609242  45.44 0.0006977372    1.113    0.101
       356 -11.2431    232.7231    110.6972   2.8987616818e+02   5.0623120246e+00   0.01374769   0.01029021  60.95 0.0005709738    1.549    0.354
       357 -10.3231    209.9632    106.9809   2.9011863758e+02   5.2466140600e+00  0.007816488   0.00763462 -44.20            0    1.038    0.036
       358 -10.7021     42.7075    107.3422   2.9207838023e+02   6.2830919694e+00   0.01659771  0.009991589  -2.52  0.001442884    2.439    0.590
       359 -10.1350     44.7999    115.3266   2.9210392183e+02   6.1793549882e+00  0.009497443  0.006186734  16.56 0.0009356841    1.666    0.400
       360 -10.8050    112.0111    108.9166   2.9127652349e+02   5.8349594069e+00   0.01114667  0.009392923 -64.62 0.0005377253    1.227    0.185
       361 -11.0027     17.4791    104.2428   2.9235461475e+02   6.4745500735e+00   0.01362599   0.01043777   2.30 0.0007787478    1.467    0.319
       362 -11.7801    234.4424    101.7004   2.8979943779e+02   5.1536980671e+00   0.02572091   0.01218105 -57.66   0.00180752    2.080    0.519
       363 -12.2439    137.6953    102.6669   2.9093661286e+02   5.7461580125e+00   0.02247429   0.01571152  64.22  0.001421644    1.779    0.438
       364 -10.1739     69.4844    104.5234   2.9174697248e+02   6.1490798074e+00  0.006623126  0.006448388   0.27 2.754138e-05    1.015    0.015
       365  -9.9339    182.4945    103.4782   2.9041766351e+02   5.4577775684e+00  0.006681093  0.006399054 -10.98 3.790201e-06    1.048    0.046
       366 -10.4398     57.7621    102.7519   2.9187319142e+02   6.2419411146e+00  0.008878582  0.007389144  54.77 0.0003105113    1.283    0.221
       367 -10.1260    219.5314    102.4669   2.8997842843e+02   5.2381266630e+00  0.006657622  0.006400884  -9.92 0.0004017603    1.042    0.040
       368 -12.1928    148.7417    100.6657   2.9079476617e+02   5.7001021029e+00   0.02002257   0.01611233 -36.73  0.002269345    1.297    0.229
       369 -10.4715     73.5844    102.5296   2.9168642876e+02   6.1462942479e+00  0.006567157  0.006408877 -15.61 0.0001139539    1.023    0.022
       370 -12.5019     47.3595     99.3920   2.9197400750e+02   6.3446316158e+00   0.02943195   0.01537065 -52.43  0.001809686    1.881    0.468
       371 -11.5743     67.4278    100.2208   2.9174406257e+02   6.2107447664e+00   0.01207179  0.009650349 -22.53 0.0004787554    1.383    0.277
       372 -11.6605    108.8273     99.0505   2.9125181516e+02   5.9668715826e+00   0.01644481   0.01398833 -68.27  0.001061513    1.232    0.188
       373 -10.7650     23.8259     98.9855   2.9224727484e+02   6.4950327577e+00   0.01025936  0.008497445 -26.01 0.0004061698    1.295    0.228
       374 -10.6834    124.9158     97.0928   2.9105115164e+02   5.8890338243e+00   0.01048222  0.008858597  64.46  0.001199931    1.311    0.237
       375 -11.6069     38.2284     95.2459   2.9205501456e+02   6.4483448978e+00    0.0183495   0.01191687  53.67  0.001247293    1.774    0.436
       376 -11.8927    166.3435     94.9860   2.9055311339e+02   5.6549303560e+00   0.01783179    0.0129852  -0.53   0.00186128    1.626    0.385
       377 -10.5890     90.5587     96.2977   2.9144846549e+02   6.1117046446e+00   0.01090071  0.005961175  26.94 0.0002037322    1.810    0.448
       378 -10.0332    103.2827     95.6622   2.9129545241e+02   6.0398459794e+00  0.006845812  0.005088057  66.27 0.0004200174    1.625    0.385
       379 -11.5830     83.2905     94.6173   2.9152304833e+02   6.1759498401e+00   0.01885067   0.01243198  14.83 0.0006998605    1.672    0.402
       380 -12.3746     26.7476    115.7446   2.9231805816e+02   6.2864194751e+00   0.01827664   0.01322921 -49.37  0.001406042    1.386    0.279
       381 -10.6271     23.0331     95.5487   2.9223502206e+02   6.5390068835e+00  0.009815807  0.004830769  49.16 0.0004256421    2.409    0.585
       382 -10.4329     18.8241     95.3387   2.9228304609e+02   6.5674452974e+00   0.01049586  0.007856434  42.70 0.0005664714    1.347    0.257
       383 -10.1237      5.8295     95.2141   2.9243460439e+02   6.6492484176e+00  0.009178424  0.007449691 -28.36 0.0003345227    1.324    0.245
       384 -10.2349    197.8751     94.5110   2.9018141103e+02   5.4636462511e+00  0.009491567  0.006495208  26.95 0.0002927973    1.440    0.305
       385 -10.6523    160.1985     92.8135   2.9061133012e+02   5.7179075701e+00   0.01256592   0.01034315 -24.67 0.0007302751    1.314    0.239
       386 -10.6388    163.3044     91.3016   2.9056548054e+02   5.7157202043e+00  0.009473776  0.006950752   3.12 0.0002679467    1.574    0.365
       387 -12.1797    140.6855     91.7897   2.9083322042e+02   5.8511060821e+00   0.03769801   0.01107935  34.77  0.002711265    3.024    0.669
       388  -9.9522    183.3417     92.3118   2.9033748244e+02   5.5792996573e+00  0.007092701  0.005022073 -22.44 0.0007046072    1.699    0.411
       389 -10.1818    213.5274     91.0244   2.8997652339e+02   5.4055155427e+00  0.009563013  0.006637352 -62.65 0.0003479562    1.486    0.327
       390 -11.1223    202.5046     90.9370   2.9010479506e+02   5.4753276869e+00   0.01313849   0.01111755 -37.15 0.0008870275    1.217    0.179
       391 -11.2090    199.7024     88.6807   2.9012334179e+02   5.5184349112e+00   0.01362796   0.01190348  -9.02 0.0007746845    1.214    0.176
       392 -10.6700    153.8575     90.9313   2.9067367720e+02   5.7788019856e+00  0.009928425  0.008727459 -26.16 0.0002883572    1.187    0.157
       393 -10.7012     32.8465     98.6371   2.9213935960e+02   6.4431372032e+00   0.01210762    0.0088337  88.50 0.0006078252    1.730    0.422
       394 -11.8108     24.1721     89.8724   2.9218607948e+02   6.5964749179e+00   0.01623454   0.01065235  85.71  0.001520354    2.174    0.540
       395 -11.6774    231.3596     89.1875   2.8975662589e+02   5.3149772861e+00   0.01164194   0.01085055  25.87 0.0002929942    1.052    0.050
       396 -11.2037    223.4189     90.1861   2.8985567372e+02   5.3532523960e+00  0.009305811  0.006564702 -78.67 0.0006316299    1.680    0.405
       397 -10.8951     29.6031     88.1790   2.9211179208e+02   6.5820930909e+00   0.01216212  0.008688954  25.91 0.0001405198    1.383    0.277
       398 -10.6745     11.2543     87.0635   2.9231991824e+02   6.7083397447e+00   0.01190016  0.009445897 -88.01   0.00087794    1.474    0.321
       399 -10.3906    128.3113     86.3348   2.9094375967e+02   5.9901151607e+00   0.01345093  0.008139199  89.24  0.001152274    2.585    0.613
       400 -11.4342     93.6248     85.6828   2.9134586339e+02   6.2132667471e+00   0.02154752   0.01059736  48.20  0.001825341    2.349    0.574
       401 -10.5277     63.0181     87.0161   2.9171284015e+02   6.3881754015e+00   0.01068405  0.007873864  64.01 0.0007029274    1.624    0.384
       402 -10.5920    180.4704     85.9942   2.9033128986e+02   5.6689464202e+00   0.00970626  0.006667587 -64.35 0.0004697005    1.521    0.342
       403 -11.2158    169.6824     84.6471   2.9044898944e+02   5.7515259798e+00   0.02290606   0.01166113  -2.03  0.001484542    4.502    0.778
       404 -10.3574    105.6352     85.1854   2.9120206028e+02   6.1442548758e+00  0.009954754  0.005800651 -50.00 0.0009519236    1.712    0.416
       405 -12.2025     78.0934     84.1853   2.9151841184e+02   6.3267663894e+00   0.02631681   0.01013512  35.71  0.001435949    2.415    0.586
       406 -11.9488     69.4604     84.7846   2.9162333369e+02   6.3735537734e+00   0.01867365    0.0119936  -4.50  0.001738162    2.123    0.529
       407 -10.6448    152.6063     83.7188   2.9064293712e+02   5.8685145832e+00  0.008985359  0.006544837 -74.12 0.0009408087    1.541    0.351
       408 -10.9218     98.5459     83.4664   2.9127428909e+02   6.2078609138e+00   0.01407087  0.008837056 -46.93   0.00108616    1.617    0.382
       409 -12.4120     95.9635     79.5711   2.9128005641e+02   6.2681669948e+00   0.01496929   0.01277361  -6.41 0.0004437935    1.257    0.205
       410 -11.6056     53.6677     82.9335   2.9179679318e+02   6.4925716624e+00    0.0128163  0.009561384 -60.17 0.0008137476    1.363    0.266
       411 -13.0986     52.3150     77.4408   2.9177816300e+02   6.5633743635e+00   0.02269751   0.01676168  36.97  0.001142087    1.327    0.247
       412 -11.4101     47.2564     82.0949   2.9186667743e+02   6.5418544476e+00   0.01538633   0.01198073  45.49 0.0009680462    1.314    0.239
       413 -10.6655     15.0014     84.2461   2.9225831929e+02   6.7171786070e+00  0.009521356  0.008437347  26.92 0.0004168052    1.107    0.096
       414 -11.7218    121.4891     86.0211   2.9102166010e+02   6.0361388091e+00   0.01303807  0.009553416  36.34  0.000600687    1.334    0.250
       415 -10.7516    132.8048     82.3673   2.9086619965e+02   6.0072072504e+00   0.01025821  0.008856103 -72.14  0.000370412    1.228    0.186
       416 -11.1926     31.0915     83.0158   2.9206195484e+02   6.6315545639e+00  0.009720199  0.009388453  -5.84   0.00035169    1.031    0.030
       417  -9.7120    193.6970     82.3318   2.9015356718e+02   5.6279961396e+00  0.006947455   0.00506245  64.03 0.0007035772    1.655    0.396
       418 -11.2803    183.5756     81.7450   2.9026822247e+02   5.6978195482e+00   0.01528474   0.01052193   5.24 0.0007030522    1.729    0.422
       419 -10.1291     85.5167     82.5530   2.9142118200e+02   6.2992058547e+00  0.006635579  0.006403148  40.55 5.868174e-05    1.043    0.041
       420 -10.0914    155.3404     79.7379   2.9058588974e+02   5.8966837537e+00  0.008996567  0.005952619 -51.64  0.000355373    1.507    0.336
       421 -12.1338    114.6001     79.7182   2.9106269554e+02   6.1506022231e+00   0.01826032   0.00921353  22.53  0.001599938    2.111    0.526
       422 -10.1191    129.3302     79.3108   2.9088765098e+02   6.0635568830e+00  0.007039575  0.005022442 -23.03 0.0007042251    1.669    0.401
       423 -10.5871    136.6607     78.3012   2.9079548085e+02   6.0293782726e+00  0.007034258   0.00497718  59.39 0.0005925507    1.668    0.401
       424 -11.3804      3.7225     77.9900   2.9235135569e+02   6.8580425414e+00   0.02406551   0.00872856  32.05   0.00184813    2.550    0.608
       425 -10.2201    211.9076     76.8996   2.8990647796e+02   5.5759553720e+00  0.008815905  0.007621052  58.22  0.001020366    1.238    0.192
       426 -11.9595     62.3969     74.8755   2.9164387863e+02   6.5299811154e+00   0.02533693   0.01290614 -51.86  0.002254128    1.930    0.482
       427 -11.1330     57.9082     73.0237   2.9168486153e+02   6.5788695179e+00   0.02091021    0.0121754 -69.20  0.001969846    1.941    0.485
       428 -11.5213     42.5238     73.7211   2.9186959080e+02   6.6663421160e+00    0.0280103   0.01458355  56.92  0.002133409    2.757    0.637
       429 -10.5003     34.7779     71.0106   2.9194339496e+02   6.7451384175e+00    0.0150932   0.01012404  68.56  0.001049793    1.996    0.499
       430 -10.6974    173.9733     75.0208   2.9033819074e+02   5.8340657739e+00  0.009793829  0.009557462  31.30  0.001217448    1.023    0.022
       431 -11.9498     92.3435     73.4140   2.9128376154e+02   6.3606131288e+00   0.01943029   0.01483675 -44.35  0.001953057    1.334    0.251
       432 -10.0140     82.4507     75.4842   2.9141268677e+02   6.3985631025e+00  0.006617593  0.006427828  -8.53 0.0001706687    1.024    0.024
       433 -10.1917    111.3970     74.5099   2.9106745449e+02   6.2296897895e+00  0.006533376  0.006406889 -24.99 7.549243e-05    1.024    0.023
       434 -10.8906     68.9080     73.7255   2.9156034016e+02   6.5026370017e+00   0.01027862  0.009425905 -64.09 0.0003984744    1.123    0.109
       435 -10.8286      1.5318     73.6995   2.9235014682e+02   6.9203447974e+00   0.01263407  0.006198413 -55.96  0.000848498    1.992    0.498
       436 -10.9365    116.0037     72.9287   2.9100355696e+02   6.2189888633e+00  0.009943537  0.009604936  15.91 0.0004043325    1.015    0.015
       437 -11.0527    166.9935     70.1134   2.9038894569e+02   5.9333141082e+00  0.009855798  0.009502271   3.27 0.0003424858    1.027    0.027
       438 -10.5071    126.5488     69.0076   2.9085539766e+02   6.1978890535e+00   0.01018643  0.006619163 -62.51 0.0008062798    1.588    0.370
       439 -12.0704     85.9961     68.1538   2.9132506714e+02   6.4598102384e+00   0.02619952   0.01101296  46.55  0.002035806    2.768    0.639
       440 -10.2961     77.4033     68.7592   2.9142956991e+02   6.5063094344e+00  0.008950154   0.00603197 -48.07 0.0002509337    1.496    0.331
       441 -10.0016     53.2960     69.6747   2.9171789298e+02   6.6455274942e+00   0.01110082  0.005878135 -74.15 0.0008361973    2.465    0.594
       442 -10.3691     55.2379     66.6080   2.9167586463e+02   6.6683227431e+00   0.01154086  0.007683661 -10.20  0.001098515    1.991    0.498
       443  -9.9876    232.6066     68.4913   2.8961163694e+02   5.5420298480e+00  0.006533472  0.006396162 -27.28 -0.0001061653    1.026    0.026
       444  -9.9591    182.7101     68.6716   2.9019601061e+02   5.8516345816e+00  0.006956589  0.004977127 -27.15 0.0007016367    1.619    0.383
       445 -10.6188     69.7998     67.5198   2.9151089524e+02   6.5676008467e+00   0.01226103   0.00928093 -64.25  0.000697508    1.371    0.271
       446 -10.4734    205.0583     66.0280   2.8991803355e+02   5.7421155503e+00  0.007863584  0.007578183  16.60 0.0003489741    1.018    0.017
       447 -10.6287     91.7451     66.6027   2.9124794943e+02   6.4417020999e+00   0.01334527   0.00658793  22.28  0.001144606    2.178    0.541
       448 -10.1385     35.6063     65.8658   2.9190138242e+02   6.7984602563e+00  0.009522469  0.006427651 -82.12  0.000930221    1.862    0.463
       449 -10.9716     50.0466     64.2588   2.9172197051e+02   6.7272072229e+00   0.01158269   0.00932339 -55.85 0.0008001443    1.252    0.201
       450 -10.8527      6.4656     64.6838   2.9223573205e+02   6.9922791864e+00   0.01121456   0.01035074 -74.36 0.0004833191    1.138    0.121
       451  -9.9559    216.4165     64.5498   2.8977595789e+02   5.6879337555e+00  0.006551078  0.006407084  -9.16  3.68517e-05    1.018    0.017
       452  -9.9236    156.2569     64.6672   2.9048028941e+02   6.0620922442e+00      0.00666  0.005105555  69.40 0.0003119925    1.566    0.362
       453 -11.7679    138.0184     63.2536   2.9068488603e+02   6.1918004123e+00    0.0120941    0.0111597 -33.48 0.0008247313    1.099    0.090
       454 -12.3117    140.6389     60.0071   2.9063376601e+02   6.2123362370e+00   0.01308231   0.01171975  -1.53   0.00031321    1.156    0.135
       455 -11.1985    120.8516     62.5197   2.9088129169e+02   6.3070317590e+00   0.01137919  0.009493851 -70.86 0.0003198375    1.274    0.215
       456 -10.8503    110.5495     63.3311   2.9100706599e+02   6.3619272285e+00    0.0139957  0.009235284  17.81  0.001194202    1.617    0.382
       457 -10.4571     88.5086     62.1220   2.9125770017e+02   6.5127086102e+00  0.009529402  0.006596698 -60.52 0.0003833605    1.470    0.320
       458 -10.7643     67.6869     61.9745   2.9150081199e+02   6.6437085836e+00   0.02152609  0.007160905  35.75  0.001474659    2.742    0.635
       459 -11.3768    160.4858     60.0832   2.9040192936e+02   6.0877636560e+00   0.01836744  0.007529194 -43.65  0.001422336    2.756    0.637
       460 -11.9802      3.7313     59.4531   2.9223499200e+02   7.0686155150e+00   0.02206573   0.01770316  25.73  0.002124285    1.227    0.185
       461 -10.6179     38.7754     58.8290   2.9182002983e+02   6.8587621778e+00   0.01417912  0.008376195 -48.35  0.001377101    1.704    0.413
       462 -11.2476     22.1852     59.8180   2.9202081272e+02   6.9502898597e+00   0.01058007   0.01030559  57.47 0.0002810251    1.058    0.055
       463 -12.7501     18.3074     54.6102   2.9203360496e+02   7.0334542934e+00   0.03221955   0.01560399  54.68  0.002504924    2.974    0.664
       464 -10.0708    115.4589     59.4660   2.9092523773e+02   6.3752717766e+00  0.006617918  0.006426648  -4.48 4.775749e-05    1.022    0.022
       465 -10.2486     74.6666     59.7634   2.9140509847e+02   6.6254880025e+00   0.01074817  0.004579862  38.75  0.000765823    2.267    0.559
       466 -10.5819    132.8321     59.1437   2.9071974033e+02   6.2707700167e+00  0.009460363  0.007738682 -23.18 0.0005177443    1.332    0.249
       467 -11.1143    174.5696     58.0193   2.9022413003e+02   6.0233408469e+00   0.01578549  0.009622289  11.75  0.001002238    1.968    0.492
       468 -11.0382    107.5400     57.4218   2.9100514168e+02   6.4477564125e+00   0.01518053   0.01139483 -13.13   0.00104033    1.573    0.364
       469 -10.4638    102.9827     57.2315   2.9105733814e+02   6.4782646489e+00   0.01287262  0.007979183   8.06 0.0008568456    2.014    0.503
       470 -11.3736     48.0000     57.9930   2.9170660518e+02   6.8110757421e+00    0.0295163  0.007813908 -51.56  0.002009929    3.468    0.712
       471 -10.9643     45.5018     55.5648   2.9172064424e+02   6.8541470380e+00   0.01163861   0.00833023  35.69 0.0008382776    1.363    0.266
       472 -10.7957    169.8791     55.7241   2.9026454928e+02   6.0786559303e+00   0.01113059  0.008592698 -46.12 0.0005728574    1.312    0.238
       473 -12.0362     93.7235     54.7254   2.9115006707e+02   6.5642975697e+00   0.01605283   0.01420146 -76.45   0.00106208    1.208    0.172
       474 -10.8292    165.1005     54.3401   2.9031174814e+02   6.1241734242e+00   0.01095208  0.008927768 -43.25 0.0003476906    1.249    0.199
       475 -11.6656     76.9851     53.9779   2.9134154637e+02   6.6767977973e+00   0.01276194   0.01099775  89.76 0.0004641652    1.299    0.230
       476 -11.1392    124.8637     52.9498   2.9077406633e+02   6.3907168583e+00   0.01296077  0.009493995 -58.78 0.0005356511    1.381    0.276
       477 -11.2349     28.6268     53.3275   2.9190450469e+02   6.9841304968e+00   0.01369096   0.01100935 -26.03 0.0008337504    1.353    0.261
       478 -10.0039    191.4371     53.5263   2.8999851204e+02   5.9690471263e+00  0.006608129  0.006412982 -11.19 4.165966e-05    1.028    0.027
       479 -10.8555    119.9843     51.6434   2.9082299489e+02   6.4359266200e+00   0.00960785  0.008232067  28.11 0.0005033874    1.143    0.125
       480 -11.9217     10.8597     51.6421   2.9210234390e+02   7.1132563411e+00   0.01350383   0.01213414 -84.58 0.0006045292    1.205    0.170
       481 -10.5282    196.5986     50.6989   2.8992032791e+02   5.9688968628e+00   0.01216534  0.007300735  46.53 0.0008818941    1.773    0.436
       482 -10.9980     24.9921     51.0161   2.9193262320e+02   7.0328939184e+00   0.01094194  0.009395638  77.59  0.001264184    1.315    0.240
       483 -11.8900    150.0932     49.9603   2.9045981179e+02   6.2674686783e+00   0.01694484   0.01018179  25.57  0.001267509    1.664    0.399
       484 -10.5817    100.7251     49.0399   2.9103224785e+02   6.5853218176e+00    0.0129558  0.007987869 -56.56  0.001288117    1.615    0.381
       485 -11.0390    175.8645     48.8623   2.9015127963e+02   6.1191844541e+00   0.01287335  0.008778007 -34.91 0.0009620597    1.632    0.387
       486 -10.3062     80.1634     49.3294   2.9127505537e+02   6.7098434808e+00   0.01190949  0.007934977  38.94 0.0006655144    1.478    0.323
       487 -10.5228     45.5648     48.7199   2.9167689585e+02   6.9314993560e+00   0.01347245  0.005872485 -54.26  0.001137033    2.213    0.548
       488  -9.7512    208.7194     48.6876   2.8976592837e+02   5.9159961223e+00  0.006824267  0.004988133 -26.88  0.000198878    1.568    0.362
       489 -11.6766     62.1188     45.6173   2.9146326535e+02   6.8640445981e+00   0.02034917   0.01122724 -66.10 0.0007970649    1.973    0.493
       490 -12.0371     14.0094     46.1726   2.9203105113e+02   7.1558926773e+00    0.0221504   0.01482485  44.08   0.00229083    1.530    0.347
       491 -12.0608     19.9004     43.6454   2.9194606418e+02   7.1481328083e+00   0.01983788   0.01498672  42.72   0.00203203    1.335    0.251
       492 -11.4166     22.7666     38.8856   2.9188253629e+02   7.1844424310e+00   0.02047419   0.01449603 -89.34  0.001684384    1.812    0.448
       493 -10.2744    145.4969     47.0595   2.9049534992e+02   6.3290444622e+00    0.0104714  0.006647599 -62.27  0.001042811    1.624    0.384
       494 -11.3851    138.0040     45.3214   2.9057213797e+02   6.3954682161e+00   0.01259059  0.009688655 -57.99 0.0006754359    1.314    0.239
       495 -11.5329    124.4483     45.2441   2.9073041483e+02   6.4807828723e+00   0.01573103   0.01040705  23.25  0.001218561    1.529    0.346
       496 -10.7761     67.7944     45.3192   2.9139484239e+02   6.8321994971e+00   0.01235068  0.009212141 -49.07 0.0004862507    1.347    0.258
       497 -11.4740     55.7028     45.8612   2.9154003572e+02   6.9010873516e+00   0.02298937  0.008548069  30.44  0.001806415    2.533    0.605
       498 -10.3629      1.9027     48.1264   2.9218536752e+02   7.2085888798e+00  0.009973527  0.008881443  57.78 0.0004760463    1.190    0.159
       499 -10.7338    164.1327     44.0643   2.9025832732e+02   6.2468325077e+00   0.01068857  0.008841061 -19.48  0.001209732    1.320    0.243
       500 -11.3828    151.3330     43.8128   2.9040656894e+02   6.3295131804e+00   0.01243027    0.0100898   3.98 0.0007386313    1.331    0.249
       501 -11.2841     90.6498     43.4633   2.9111523376e+02   6.7112848092e+00   0.01141384   0.01058461 -77.90 0.0008795238    1.139    0.122
       502 -10.2736     80.5120     43.8518   2.9123651286e+02   6.7698768437e+00  0.009834896  0.006569357 -59.68  0.001007246    1.516    0.340
       503 -10.0786    173.2675     46.3432   2.9016579012e+02   6.1639771749e+00  0.006774177  0.006581415  51.00 0.0003010209    1.052    0.050
       504 -11.2670    123.9478     40.9094   2.9070898067e+02   6.5331040853e+00   0.01349647  0.007678916  51.02 0.0009459469    2.047    0.511
       505 -10.9363    119.9804     40.6606   2.9075389136e+02   6.5606310959e+00  0.009975115  0.008733108  -7.10 0.0002566503    1.207    0.171
       506 -12.6562     77.4782     39.8669   2.9124700903e+02   6.8339682727e+00   0.01448279   0.01256909  28.31 0.0005314235    1.128    0.114
       507 -12.0015     37.4978     39.8759   2.9171593579e+02   7.0819415102e+00    0.0177598   0.01235845  22.17  0.001011508    1.456    0.313
       508 -11.3205     41.6188     37.8375   2.9165478122e+02   7.0795447025e+00   0.01411367   0.01156474 -88.61 0.0004139355    1.404    0.288
       509 -10.0282    208.4816     40.4787   2.8971694277e+02   6.0105998091e+00  0.006642309  0.006427958  -5.76 0.0001967507    1.029    0.028
       510 -12.5520    111.3304     37.2908   2.9083401765e+02   6.6527254358e+00   0.01619351   0.01356459 -59.95 0.0003707712    1.217    0.178
       511 -12.3957    106.8044     32.5815   2.9085739992e+02   6.7343437974e+00   0.02087851   0.01371659 -74.13  0.001181075    1.775    0.437
       512 -11.5540      7.1864     38.5770   2.9206341494e+02   7.2843666376e+00    0.0189085   0.01534157  14.78  0.002153685    1.266    0.210
       513 -11.4223    154.1230     34.3909   2.9031453299e+02   6.4190354203e+00   0.01336331   0.00950241 -70.02 0.0005208567    1.535    0.348
       514 -10.4155    165.5052     38.4632   2.9020696262e+02   6.3018291231e+00  0.006656583  0.006406336  -6.93 -4.811781e-05    1.038    0.037
       515 -10.6097    136.8372     37.8495   2.9053873594e+02   6.4875439312e+00   0.01015877  0.008810728 -18.83 0.0004848163    1.224    0.183
       516 -10.7683    128.9998     36.9731   2.9062500991e+02   6.5463173753e+00   0.01285455  0.008623006 -59.72  0.001329181    1.511    0.338
       517 -10.4044     97.6531     37.8794   2.9099800632e+02   6.7311342299e+00  0.009177326  0.008313318 -64.34 0.0004152406    1.138    0.121
       518 -10.6868     13.2418     37.1268   2.9198324865e+02   7.2633719591e+00   0.01186944  0.008370132 -46.96  0.001256245    1.434    0.303
       519 -10.9734    152.8905     38.6143   2.9035557871e+02   6.3787976596e+00   0.01264496  0.008689775 -34.30 0.0006088736    1.623    0.384
       520 -11.4244     55.7835     34.2827   2.9146628365e+02   7.0320581165e+00   0.01340883   0.01158024 -55.14 0.0004958453    1.170    0.145
       521 -10.4206     89.9669     34.2337   2.9106515206e+02   6.8203105594e+00   0.01102451  0.007486384 -13.77   0.00100124    1.905    0.475
       522 -11.3877     82.7794     29.2464   2.9111802166e+02   6.9215970501e+00   0.01999566   0.01676654 -38.91  0.001354694    1.223    0.183
       523 -11.8541     77.2079     32.6444   2.9120473287e+02   6.9176439430e+00   0.02343659   0.01688115  19.43  0.002509017    1.428    0.300
       524 -11.9057     75.9799     27.3140   2.9118558502e+02   6.9857789059e+00    0.0153994   0.01370629  48.64 0.0005477182    1.153    0.132
       525 -11.1872     71.7810     31.5878   2.9126171757e+02   6.9633473144e+00   0.01642106   0.01098933   8.79  0.001635608    1.748    0.428
       526 -11.4554     70.4862     28.4989   2.9125746467e+02   7.0064516667e+00   0.01746069  0.009695383 -37.63  0.001574886    2.102    0.524
       527 -11.7751     61.6039     32.9877   2.9138987397e+02   7.0106405860e+00   0.02162842   0.01386479 -18.62  0.001714162    2.107    0.525
       528 -10.7685    141.5244     33.4730   2.9045626752e+02   6.5079993422e+00  0.006603265  0.006458538  25.25 8.940799e-05    1.015    0.015
       529 -11.5669    135.0372     32.5572   2.9052647310e+02   6.5588202968e+00   0.01186509  0.009607968 -58.81 0.0002220328    1.254    0.202
       530 -10.3483    117.7754     33.6035   2.9073527947e+02   6.6544595225e+00  0.009313837  0.005956251  38.04 0.0006911063    1.529    0.346
       531 -10.4680    158.0650     30.6975   2.9024510402e+02   6.4363554283e+00  0.009210606  0.008681923  10.38 0.0004382691    1.053    0.050
       532 -11.0397     26.0620     30.9948   2.9179428545e+02   7.2536329941e+00   0.02032254  0.009409929  27.25  0.001664539    2.138    0.532
       533  -9.8322    197.3214     30.3271   2.8978341634e+02   6.1954783432e+00   0.00708462  0.004999118 -24.66 0.0007047942    1.687    0.407
       534 -10.4227     38.9553     29.7531   2.9163520310e+02   7.1878444705e+00  0.009512445  0.008118802  29.66 0.0004400076    1.147    0.128
       535 -10.7322     17.6455     30.3985   2.9188930227e+02   7.3125149215e+00   0.01732145  0.005525802  32.71  0.001276926    2.835    0.647
       536 -10.6139    204.9807     28.7569   2.8968393926e+02   6.1654238380e+00  0.009261955  0.008481061  22.74 0.0003128266    1.073    0.068
       537  -9.7348    172.6918     29.6868   2.9006752556e+02   6.3565521031e+00  0.006952174   0.00501419 -24.58  0.000242526    1.625    0.385
       538 -11.0092    186.8467     27.0832   2.8988547989e+02   6.2977042269e+00  0.009964336  0.008837508  59.90 0.0003769381    1.203    0.168
       539 -10.9786    159.1462     26.4589   2.9020572408e+02   6.4776983588e+00   0.01086683  0.009129234 -58.64 0.0002675098    1.210    0.173
       540 -11.5408     38.7121     22.6742   2.9159354262e+02   7.2697133935e+00   0.02408817   0.01476522 -76.32  0.002274729    2.028    0.507
       541 -10.8576     33.9586     17.5630   2.9161717589e+02   7.3571901345e+00   0.01447473   0.01067681  82.64 0.0009329204    1.724    0.420
       542 -10.2996    244.6907     23.9617   2.8918959108e+02   5.9714164685e+00  0.009038741  0.008542777 -58.34 0.0003014182    1.080    0.074
       543 -11.3698     65.6591     24.1064   2.9128643465e+02   7.0862858316e+00   0.01246013  0.009781726  15.89 0.0004850244    1.314    0.239
       544  -9.8322     50.3217     24.2830   2.9146745335e+02   7.1794621746e+00  0.006840917  0.005041065 -20.89 0.0002812752    1.592    0.372
       545 -10.0434     30.7878     24.0399   2.9169511348e+02   7.3033175418e+00  0.008781033  0.005421089 -61.88 0.0003472438    1.663    0.399
       546 -10.9287     18.5758     23.3987   2.9183439475e+02   7.3862256147e+00    0.0123272   0.01052972 -42.28 0.0009362668    1.187    0.158
       547 -10.0024     13.9003     23.9644   2.9189282381e+02   7.4087424519e+00  0.007822624  0.007177903  21.54 0.0009361958    1.072    0.067
       548 -10.9923     46.9502     23.2355   2.9150041663e+02   7.2122635642e+00  0.009332806  0.008792993  -3.58 0.0005075086    1.069    0.064
       549  -9.7427      5.6819     23.2936   2.9198507209e+02   7.4672047078e+00  0.006873517  0.004999903  59.71 0.0007012392    1.605    0.377
       550 -10.4805    220.6385     21.8387   2.8945723052e+02   6.1459722180e+00  0.008929279  0.006412479 -76.74  0.000118877    1.609    0.379
       551 -10.5253    146.8490     21.8301   2.9032052873e+02   6.6069072886e+00  0.009893663  0.008769196 -24.05 0.0003561681    1.176    0.150
       552 -10.8358     71.0165     22.6309   2.9121431503e+02   7.0697641471e+00   0.01310275  0.005324212  36.67 0.0008233501    2.317    0.568
       553  -9.8329    182.2967    249.6904   2.9133780228e+02   3.7976668942e+00  0.006823066  0.005057788  62.79 0.0003307991    1.594    0.373
       554 -11.4265    131.0205     17.0540   2.9047582175e+02   6.7597537080e+00   0.01136714   0.01082481  11.51  0.000324474    1.036    0.035
       555 -10.9150    101.9396     18.0233   2.9082272578e+02   6.9298272961e+00   0.01026809  0.009749832  10.44 0.0008714056    1.041    0.040
       556 -10.6278     58.0035     17.1810   2.9133265086e+02   7.2124095316e+00   0.01206267  0.009809257 -62.29   0.00129983    1.263    0.208
       557 -10.4620      3.9025     18.3133   2.9197466594e+02   7.5347441293e+00    0.0225904   0.01043262   9.16  0.001519754    3.981    0.749
       558 -10.5369    179.4469    248.4559   2.9136333723e+02   3.8294216766e+00   0.01089587  0.009898655  43.90 0.0005828596    1.110    0.099
       559 -11.5520    111.9910     16.5515   2.9069563799e+02   6.8839729421e+00    0.0167661  0.009945652 -28.22  0.001505147    2.225    0.551
       560 -10.2828     61.8028     17.2158   2.9128830051e+02   7.1884316623e+00  0.009169999  0.007491786 -27.57 0.0004069937    1.315    0.239
       561 -10.2876    245.6986     15.2964   2.8912311447e+02   6.0633143900e+00    0.0067911  0.005036037  61.42 0.0002489557    1.577    0.366
       562 -11.6175    180.9063    244.6395   2.9132240203e+02   3.8637128920e+00     0.016649  0.009408944 -58.52 0.0005553514    1.769    0.435
       563 -10.4441    169.9053     14.3426   2.9000336674e+02   6.5479853420e+00  0.009343087  0.008209209  14.47 0.0005112034    1.146    0.127
       564 -10.6025    147.9909     14.3125   2.9025975699e+02   6.6850630443e+00  0.009801102  0.008622025  30.65   0.00115625    1.113    0.102
       565 -10.6541    116.8113     13.9019   2.9062244878e+02   6.8840227162e+00   0.01057682  0.008811855 -22.30 0.0009207498    1.297    0.229
       566 -10.4405    168.6418    249.1398   2.9149376131e+02   3.8888494835e+00   0.01046512  0.008566149  83.24 0.0006359547    1.426    0.299
       567  -9.9368     22.8127     12.8159   2.9171813313e+02   7.4801146426e+00   0.00941911  0.007612237  57.02  0.001051413    1.352    0.261
       568 -11.2393     66.5649    248.3173   2.9268106977e+02   4.5319309056e+00  0.009399181  0.008039081  35.88 0.0003942639    1.150    0.131
       569 -11.5575     58.5989    246.7973   2.9276468664e+02   4.5985748402e+00  0.009407318  0.008642453  -7.61 0.0004613097    1.118    0.105
       570 -11.0245    127.7007    243.6412   2.9193749410e+02   4.2058019659e+00   0.01110599  0.009011567   6.98 0.0006246394    1.315    0.239
       571 -10.1860     58.7973     10.4346   2.9128087531e+02   7.2840418190e+00  0.008674104  0.006430165  10.60 0.0004900518    1.469    0.319
       572 -13.0299    129.7976    238.3442   2.9187986453e+02   4.2529999731e+00   0.03789452   0.02596419 -53.66  0.002367566    1.455    0.313
       573  -9.8093    211.5203    245.5258   2.9097066564e+02   3.6631298886e+00  0.006607256  0.006463477  24.68 1.854353e-05    1.015    0.014
       574 -12.4020    203.1960    241.4497   2.9104225512e+02   3.7612546362e+00   0.01870404   0.01372328 -59.17 0.0006088011    1.381    0.276
       575 -10.5982    173.5757    244.4998   2.9140710745e+02   3.9108977928e+00   0.01113875  0.009650772 -72.19 0.0005259808    1.223    0.182
       576 -10.7878    172.8258    240.8859   2.9139323262e+02   3.9566341618e+00   0.01019262  0.009832277  65.42 0.0003570634    1.079    0.073
       577 -10.7608     65.3870    243.6664   2.9266580877e+02   4.5921296602e+00   0.01023971  0.008228757  85.50 0.0009693602    1.466    0.318
       578 -11.8690    161.1241    240.5591   2.9152782299e+02   4.0331206913e+00   0.01402754   0.01047239 -71.30  0.001515863    1.459    0.315
       579 -11.0522    218.9828    240.4333   2.9085167842e+02   3.6745197001e+00   0.01616524   0.01087321  12.51  0.000776107    1.669    0.401
       580 -12.1381    190.0528    236.3912   2.9116395996e+02   3.9005325845e+00   0.02550104    0.0146088 -49.75  0.001264222    1.744    0.426
       581 -12.4099    196.6713    235.4493   2.9108080055e+02   3.8700433925e+00    0.0216288   0.01406183 -36.37  0.001479956    1.717    0.417
       582 -11.6186    181.5173    236.4563   2.9126401126e+02   3.9529050834e+00   0.02531823   0.01517145 -85.36  0.001822744    2.453    0.592
       583 -12.3647    183.1319    232.5940   2.9122096214e+02   3.9867508156e+00   0.01574112   0.01298635  18.87 0.0007863626    1.220    0.180
       584 -10.8685    237.8332    238.1322   2.9061736243e+02   3.5832575134e+00  0.009664179  0.008769617  61.47  0.000323189    1.170    0.145
       585 -11.8577    167.2899    235.1767   2.9142211929e+02   4.0559536350e+00   0.01814627   0.01177949 -80.04 0.0002416786    1.944    0.486
       586 -11.2282    216.5883    236.1866   2.9085299095e+02   3.7376715136e+00   0.01235838  0.009864134  23.89  0.000363271    1.242    0.195
       587 -12.2954    219.0847    232.3911   2.9080006401e+02   3.7652415559e+00   0.01558952   0.01221365 -73.64 0.0004751386    1.396    0.284
       588 -11.9064    156.3112    228.6692   2.9150958498e+02   4.1981966167e+00   0.02569328   0.01118891 -60.79  0.001547963    2.328    0.570
       589 -12.2244    156.4329    232.9967   2.9153526288e+02   4.1482499070e+00   0.02416117   0.01165044 -49.22  0.001074937    2.073    0.518
       590 -12.5623    161.1748    231.8074   2.9147243206e+02   4.1322806789e+00    0.0405478   0.01823959 -73.07 0.0004737516    3.219    0.689
