#   1 NUMBER                 Running object number                                     
#   2 MAG_AUTO               Kron-like elliptical aperture magnitude                    [mag]
#   3 X_IMAGE                Object position along x                                    [pixel]
#   4 Y_IMAGE                Object position along y                                    [pixel]
#   5 X_WORLD                Barycenter position along world x axis                     [deg]
#   6 Y_WORLD                Barycenter position along world y axis                     [deg]
#   7 A_WORLD                Profile RMS along major axis (world units)                 [deg]
#   8 B_WORLD                Profile RMS along minor axis (world units)                 [deg]
#   9 THETA_WORLD            Position angle (CCW/world-x)                               [deg]
#  10 FWHM_WORLD             FWHM assuming a gaussian core                              [deg]
#  11 ELONGATION             A_IMAGE/B_IMAGE                                           
#  12 ELLIPTICITY            1 - B_IMAGE/A_IMAGE                                       
         1 -15.7315     58.5005    132.3985   9.8431782597e+01   4.1914585320e+01     6.982136     3.289454  66.73   0.01598712    8.148    0.877
         2 -13.8281    199.0601     44.1557   3.9991824113e+01   3.0396062914e+01    0.8947451    0.8155012 -79.19   0.00307555    1.066    0.062
         3 -14.0560    207.9947     35.5731   3.6946741378e+01   2.9515325514e+01    0.6761467    0.6496807  13.07  0.001285209    1.387    0.279
         4 -13.9430    233.3925      9.2694   2.9149102170e+01   2.7209571575e+01    0.8225976    0.6376771 -69.15  0.004028734    1.032    0.031
         5 -10.8842     60.5307      7.5258   5.7204012045e+01   6.5736801665e+01    0.1235488   0.09963454  25.92 3.702902e-05    1.027    0.026
         6 -12.0398     88.0670    210.2247   1.0245288838e+02   1.8565944480e+01     0.446224    0.2747284 -72.98  0.001634885    1.837    0.456
         7 -12.7418    139.2152    246.3820   9.5656602387e+01   3.5902911782e+00     0.744924    0.4619421 -71.09  0.003663034    2.649    0.623
         8 -12.9154    103.8671    236.6999   1.0212937267e+02   1.0649753885e+01    0.5684356     0.287877 -44.28  0.002635147    2.484    0.597
         9 -16.0385     57.4055    185.0291   1.0687255621e+02   2.8702970037e+01     3.712409     2.670472 -64.05   0.01369272    1.339    0.253
        10 -12.4749    111.9862    196.6779   9.4617229499e+01   1.7934736603e+01    0.6153375    0.3608141 -11.93   0.00203312    4.070    0.754
        11 -10.9406     82.4500    194.7955   1.0176076303e+02   2.2947384753e+01    0.3257252    0.2221963  37.40   0.00116773    1.409    0.290
        12 -10.2391    157.9983    192.9830   8.2841042742e+01   1.0873000495e+01    0.2156489    0.2084803 -12.36 0.0005074023    1.093    0.085
        13 -11.1939    131.3255    191.2783   8.8908411802e+01   1.5895564357e+01    0.2804397    0.1843369 -78.92  0.001157934    2.421    0.587
        14 -11.1753    107.9723    190.9853   9.4703253196e+01   1.9898526046e+01    0.2080119     0.176834  -9.87 0.0004942383    1.381    0.276
        15 -10.3607    125.2845    188.3657   8.9889536195e+01   1.7592535512e+01    0.1527622     0.113518 -18.11 0.0007019082    1.692    0.409
        16 -10.8328     84.6814    185.3425   9.9818694972e+01   2.4885563391e+01    0.3541628    0.2812471 -70.15  0.001318595    1.273    0.215
        17 -11.9802     81.4416    181.9740   1.0016160634e+02   2.6184793100e+01    0.5371801    0.4328022  88.12  0.002843649    1.319    0.242
        18 -10.7861    145.8208    184.2721   8.4074616010e+01   1.4885459663e+01    0.2415767    0.1844984  53.85 0.0008561891    1.485    0.327
        19 -11.6218     99.3792    180.9775   9.5266916003e+01   2.3663036839e+01    0.2997279    0.2647507 -36.95 0.0007868794    1.217    0.178
        20 -10.2816     88.1664    178.3592   9.7810191956e+01   2.6062519518e+01    0.2204827    0.2049172 -32.35 0.0004660122    1.173    0.147
        21 -10.9057     90.8086    175.8175   9.6685895924e+01   2.6278321165e+01    0.2737643    0.2061928 -87.16  0.000885787    1.539    0.350
        22 -13.1653    106.4822    249.5028   1.0306280156e+02   7.8169440232e+00    0.7699071    0.2630896  34.32  0.003171922    2.491    0.599
        23 -15.3596     70.2227    144.7404   9.7103644690e+01   3.7189059681e+01     4.322609     1.722324  57.07  0.002205401    7.124    0.860
        24 -10.5520    185.8639    172.1082   7.2448415357e+01   1.0151218552e+01    0.2178082    0.2071035 -55.79  0.001235254    1.232    0.189
        25 -12.0576     69.5388    170.5259   1.0163524937e+02   3.0720201888e+01    0.3405311    0.2954948 -23.28 0.0007912494    1.353    0.261
        26 -13.1507     74.1734    165.7944   9.9605463234e+01   3.1265412235e+01    0.8572779    0.6010728  64.41  0.002069498    1.634    0.388
        27 -10.9020    191.0016    165.7702   7.0030588716e+01   1.0475560057e+01    0.3361139    0.1760023 -35.29  0.001409805    1.897    0.473
        28 -10.7007    110.7894    167.8727   8.9878109271e+01   2.4923273927e+01    0.2766616    0.2137625 -83.04 0.0007663193    1.588    0.370
        29 -12.1573    230.5659    170.2881   6.3353635313e+01   2.8620128405e+00    0.2792443    0.2036672 -12.00   0.00155122    1.392    0.281
        30 -12.8373    193.7497    197.2158   7.5779381137e+01   3.9690544896e+00     1.291712    0.6487359 -58.01  0.004632284    3.799    0.737
        31 -11.6203    123.7080    201.8844   9.2579802061e+01   1.4843720049e+01    0.3422221    0.2501935 -73.10  0.001011891    1.707    0.414
        32 -12.3768     89.7193    150.9170   9.2490473172e+01   3.2668710571e+01    0.6851326    0.4538319 -21.92  0.002853999    2.135    0.532
        33 -11.6391    133.7166    145.0388   7.8932140513e+01   2.6112078675e+01     1.185206    0.2878681 -53.52  0.002658151    5.913    0.831
        34 -12.2265     54.7083    147.5841   1.0228225751e+02   3.8492164823e+01     0.686985    0.4023553 -55.87  0.003198237    1.557    0.358
        35 -12.6286    106.7042    203.2093   9.6939015898e+01   1.7307055365e+01    0.5239836    0.3007433  60.96  0.002179909    2.342    0.573
        36 -11.1775     38.9095    146.3319   1.0681730514e+02   4.0579816887e+01    0.3226749    0.2592461  69.91 0.0009514972    1.315    0.239
        37  -9.9142    111.7693    150.0793   8.6017283890e+01   2.9083487431e+01    0.3147887    0.1838187  60.21  0.001039382    2.489    0.598
        38 -12.0608    104.9624    133.4048   8.4262025581e+01   3.4399071832e+01     1.089951    0.4462855 -37.85  0.003259129    3.254    0.693
        39 -12.3139     90.6154    136.8672   8.9324836564e+01   3.6051666022e+01    0.2951583     0.252879 -37.86 0.0004592099    1.171    0.146
        40 -11.1680    134.9073    128.8027   7.4762791260e+01   2.9617158869e+01    0.3440532    0.3217436 -59.95  0.001771969    1.117    0.105
        41 -11.9191     67.9461    198.5224   1.0587831451e+02   2.4087788360e+01    0.4107758    0.2168185 -71.50  0.001178245    1.978    0.494
        42 -10.7812    112.1422    128.7560   8.1064321554e+01   3.4176789342e+01    0.3241115    0.2509054  18.40 0.0008388457    1.465    0.317
        43 -11.1249     99.2478    124.5473   8.3876249976e+01   3.7588286137e+01    0.3064492    0.2538947  -6.29  0.000552814    1.384    0.277
        44 -14.1092     82.5542    157.4939   9.5803178513e+01   3.2131093349e+01      1.51004    0.9616144  75.48 2.378986e-05    2.311    0.567
        45 -11.0688    117.6372    123.6487   7.8227431029e+01   3.4311473670e+01    0.2530455     0.192062  -8.67 0.0007008762    1.689    0.408
        46 -11.2343     43.3828    129.5986   1.0278073778e+02   4.4393436126e+01    0.3411535    0.1930105  43.71  0.001214131    1.978    0.494
        47 -10.0783    108.0435    118.0485   7.9609147118e+01   3.7496124786e+01    0.2277635    0.2177169 -10.26  0.000295802    1.038    0.036
        48 -11.0260     15.9010    117.4999   1.0984866989e+02   4.9849737189e+01    0.1756131    0.1325094  14.63 0.0009772916    1.558    0.358
        49 -10.5532    231.2267    113.8312   5.1397728999e+01   1.2678787424e+01    0.2236051    0.2148286 -28.90 0.0007236847    1.123    0.110
        50 -10.0672    205.4043    110.1747   5.4745678492e+01   1.8404937425e+01    0.2276303    0.1958692  39.21 0.0006845206    1.294    0.227
        51 -10.9536    115.1544    109.2647   7.5208950463e+01   3.8104388534e+01    0.3207897    0.1770849 -33.61  0.001124742    2.103    0.525
        52 -12.2247     45.8147    106.2805   9.7409226914e+01   4.9969564145e+01    0.3826144    0.2219321  29.84  0.001810986    1.855    0.461
        53 -13.6801     71.0771    152.1800   9.8193303373e+01   3.5166228826e+01    0.5454721    0.4702123 -55.63  0.001284438    1.113    0.102
        54  -9.5375     65.3130    103.6461   8.9844454354e+01   4.8140928816e+01    0.1468176    0.1159832  77.52 0.0007045107    1.732    0.423
        55 -11.0781     31.1281     99.3566   1.0129842450e+02   5.3119419292e+01    0.3678902    0.2060538  38.50  0.001771212    2.077    0.518
        56  -9.6201    154.4574     86.5191   5.8744555449e+01   3.4098909688e+01    0.1492027    0.1449883 -82.39 5.616788e-05    1.035    0.033
        57  -9.5422    158.4932     83.5198   5.7037520986e+01   3.3708334064e+01    0.1471117    0.1446397  85.04 3.461986e-05    1.005    0.005
        58  -9.3032    150.9974     82.9950   5.8537703715e+01   3.5547876539e+01    0.1767858    0.1695091  57.78   -0.0213525    1.030    0.029
        59  -9.2233     70.3181     82.2364   8.2156901208e+01   5.2251263810e+01    0.1417183    0.1054175  -5.33 0.0001816145    1.508    0.337
        60 -11.6298     13.4373     60.0114   9.9354102038e+01   6.3395988105e+01    0.2433494    0.2047586 -49.84 0.0004380629    1.185    0.156
        61 -13.2530    187.4404     52.8660   4.3702952824e+01   3.1853409563e+01     0.635855    0.4839131  42.86 0.0007829209    1.539    0.350
        62 -17.2455      6.6055    205.1799   1.2076964845e+02   2.9238322537e+01     5.440472     1.391509 -70.83   0.01804711    3.143    0.682
        63 -10.7421    167.9861    231.3069   8.7244879652e+01   1.8951417967e+00    0.1908701    0.1550289  20.88 0.0005110207    1.066    0.062
        64 -18.5215     12.9254    239.8739   1.2146753900e+02   2.1250764072e+01      6.51308     5.415736  49.23   0.02610229    1.244    0.196
        65  -9.3301    189.6567     14.7112   3.4057224300e+01   3.6034406004e+01    0.1215692   0.08670045  48.13  0.000702336    1.650    0.394
