#   1 NUMBER                 Running object number                                     
#   2 MAG_AUTO               Kron-like elliptical aperture magnitude                    [mag]
#   3 X_IMAGE                Object position along x                                    [pixel]
#   4 Y_IMAGE                Object position along y                                    [pixel]
#   5 X_WORLD                Barycenter position along world x axis                     [deg]
#   6 Y_WORLD                Barycenter position along world y axis                     [deg]
#   7 A_WORLD                Profile RMS along major axis (world units)                 [deg]
#   8 B_WORLD                Profile RMS along minor axis (world units)                 [deg]
#   9 THETA_WORLD            Position angle (CCW/world-x)                               [deg]
#  10 FWHM_WORLD             FWHM assuming a gaussian core                              [deg]
#  11 ELONGATION             A_IMAGE/B_IMAGE                                           
#  12 ELLIPTICITY            1 - B_IMAGE/A_IMAGE                                       
         1  -8.3802     93.5177     12.0162   1.4753929591e+01   6.0606538960e+01    0.1780907    0.1767059  56.87  0.000415008    1.080    0.074
         2  -8.5424     90.8223      8.6163   1.3828412050e+01   6.1601900695e+01    0.2316576    0.1579245 -60.24 0.0009538254    1.804    0.446
         3 -11.3688    248.1412      5.1133   3.5555780439e+02   2.4462921058e+01    0.5437545    0.3669992 -30.76  0.003544305    1.557    0.358
         4  -8.6055     55.8664     10.1105   2.5972778203e+01   6.9272882362e+01      0.18403    0.1766191 -88.46 0.0006163385    1.298    0.229
         5  -8.2232     47.7940     10.1934   2.9672957068e+01   7.0832659911e+01    0.1919153    0.1382816 -73.44 0.0009030274    2.723    0.633
         6  -9.6469      6.1550      8.3666   5.6227646375e+01   7.7001655372e+01    0.1685605    0.1385454  -4.02 0.0004925467    1.128    0.113
         7  -9.8594    237.3466      8.8861   3.5689876187e+02   2.6188346301e+01    0.2508676   0.06594274 -38.85  0.001096939    2.537    0.606
         8  -8.5680     70.4805      6.0391   1.8233299196e+01   6.6600534592e+01    0.1846145    0.1264215 -25.26 0.0007764322    1.554    0.357
         9  -8.4897     33.9506      5.6509   3.4135681137e+01   7.3861469238e+01    0.2367411     0.149811 -55.36  0.001163937    2.772    0.639
        10  -8.6656     79.0892      3.6582   1.4409344280e+01   6.4855821787e+01    0.2731701    0.1339222 -43.03  0.001099116    2.417    0.586
        11  -8.1475     99.0000      3.0351   9.4358132241e+00   6.0105515846e+01    0.1983194    0.0771732 -20.86 0.0005463929    2.865    0.651
        12  -8.0483    115.6457      2.3325   6.1598823478e+00   5.5977950699e+01    0.1458735   0.09131987 -65.04 0.0001443483    1.787    0.440
        13  -8.7704     62.6702      1.4378   1.8236309595e+01   6.8761986615e+01     0.225017    0.1207573  64.83 0.0007345185    1.952    0.488
        14  -7.9439     39.3106      1.6486   2.8403764824e+01   7.3420749538e+01    0.1140768   0.09814356 -64.10 0.0007044784    1.720    0.419
        15  -9.7377    119.9700    245.3553   6.6107698798e+01   7.1977464339e+00    0.2826385    0.1836565  77.23  0.001525271    2.485    0.598
        16 -10.0233    246.9177    227.4733   4.0080107942e+01  -6.4579429097e+00    0.4931723    0.1897165 -26.74  0.002585921    2.500    0.600
        17 -10.2278    243.1731    245.3607   4.3374808711e+01  -8.1231542631e+00    0.5079256    0.2057699 -22.54  0.002762835    2.602    0.616
        18  -9.2267    248.1223    234.1267   4.0920241227e+01  -7.3654509040e+00    0.2279706    0.1295972 -27.03 0.0009231601    1.532    0.347
        19  -9.3912    248.5307    249.9964   4.3213604044e+01  -9.1696579822e+00    0.2805594    0.1386811  14.19  0.001482603    1.858    0.462
        20 -10.4762    248.9736    241.5980   4.1914272925e+01  -8.2985611391e+00    0.5328518    0.1891118 -34.91  0.002450701    2.644    0.622
        21  -9.1051    233.5118    250.5080   4.5661079175e+01  -7.6923149640e+00    0.2122812    0.1238989  12.89  0.001461228    1.424    0.298
        22  -9.9400    233.3483    245.3416   4.4941801789e+01  -7.0887854303e+00    0.4923525    0.2341443 -13.95  0.002722556    2.461    0.594
        23  -9.7619    210.8793    245.9749   4.8798663989e+01  -4.6524975276e+00    0.2868434    0.1658035 -43.79  0.001251719    2.246    0.555
        24  -9.4747    201.4259    248.9007   5.0862302942e+01  -3.9069880911e+00     0.470993    0.2068679  11.80  0.001973438    3.857    0.741
        25  -9.5384    132.4462    248.3923   6.3908800257e+01   5.0214496242e+00    0.3009678    0.2070728  75.05  0.001193197    2.386    0.581
        26  -8.8183    201.7861    242.8721   4.9950904777e+01  -3.1804707834e+00    0.2113947    0.1431195 -42.19 0.0009776403    1.843    0.457
        27  -9.6780    194.1392    239.1632   5.0797234807e+01  -1.7454926763e+00    0.2405369    0.1458193 -33.67 0.0007980077    1.729    0.422
        28  -8.6424     45.8190    244.3628   8.1396438631e+01   1.6849347977e+01    0.1602342      0.09913  26.09 0.0009441716    1.724    0.420
        29  -9.8309    169.4604    241.9742   5.5812047999e+01   1.0446438060e+00    0.4075657    0.2129203 -21.73  0.001998584    2.827    0.646
        30  -9.3834    140.1698    242.2261   6.1628828697e+01   4.9536784139e+00    0.3253358    0.1789028  -6.74  0.001230507    4.671    0.786
        31  -9.5942      4.0410    241.3497   8.9610359082e+01   2.1791099414e+01    0.3687204    0.1183329  63.42  0.001682288    2.483    0.597
        32  -9.0729    214.2976    240.7835   4.7459973001e+01  -4.4053317086e+00     0.270719    0.1367203 -16.20  0.001466034    2.358    0.576
        33  -9.3529    183.1914    240.1042   5.2951754112e+01  -4.8079379730e-01    0.3341559     0.232983  59.69  0.001867031    2.718    0.632
        34  -8.9013    178.4086    241.7585   5.4078995352e+01  -9.5030428135e-02    0.1521834     0.100463 -24.59 0.0009479999    1.633    0.388
        35  -8.4384     96.6683    242.6777   7.0674651306e+01   1.0799088423e+01     0.115621   0.09105724  -1.10  0.000704984    1.700    0.412
        36  -8.7271     88.0176    242.0246   7.2432269191e+01   1.2062252820e+01    0.1953733    0.1182298  59.03 0.0005896179    1.660    0.398
        37  -9.3913    159.8406    239.6910   5.7379629287e+01   2.6695450241e+00    0.2465723    0.1781383 -68.37  0.001067256    2.257    0.557
        38  -8.2098    153.3036    241.6566   5.8926541141e+01   3.2542733234e+00     0.114608   0.08654788  55.51 0.0007040197    1.683    0.406
        39  -8.2604     62.3189    241.6256   7.7802971984e+01   1.5407607971e+01    0.1339131   0.06864324  58.59 0.0007030743    1.805    0.446
        40  -8.7936     29.1662    241.4425   8.4632156122e+01   1.9254821382e+01    0.2868619    0.0425744  38.69  0.001141386    3.230    0.690
        41  -9.8166    241.8121    237.7185   4.2454630492e+01  -7.1135513523e+00    0.4121675    0.1837664 -16.47   0.00217126    2.651    0.623
        42  -8.1538     37.4955    240.5031   8.2886637188e+01   1.8528191977e+01    0.1222286   0.08789864  55.71 0.0008102185    1.047    0.045
        43  -8.3732    146.1370    239.2152   6.0050510250e+01   4.6145730793e+00    0.1628874    0.1279633  47.60  0.000507062    1.357    0.263
        44  -8.5797     52.8111    238.8888   7.9608514268e+01   1.7078287192e+01    0.2619277   0.09702899  50.42  0.001238627    2.170    0.539
        45 -10.1724    239.2595    220.7680   4.0230237317e+01  -4.7854294306e+00    0.3909511    0.2040678 -21.05  0.001771447    1.785    0.440
        46 -10.0023    247.7821    215.1690   3.7982996463e+01  -5.0518585470e+00    0.5380658    0.2926224 -31.04  0.003413637    1.601    0.375
        47  -9.4894    230.7299    236.7486   4.4096512477e+01  -5.7902821916e+00    0.2371417    0.2123562 -35.53  0.001404266    1.762    0.433
        48 -10.1765    235.8556    229.8468   4.2207164869e+01  -5.5257627847e+00     0.564725    0.2634569 -18.15    0.0023471    2.401    0.583
        49  -8.7437    209.3845    236.8833   4.7739936309e+01  -3.3234210750e+00     0.287309    0.1289424 -21.84  0.001388256    2.888    0.654
        50  -8.4185    135.2491    238.4227   6.2170796847e+01   6.2488135054e+00    0.1727497   0.09479451  41.41  0.000446614    1.587    0.370
        51  -8.6795    128.6362    237.8597   6.3469715548e+01   7.2622125216e+00    0.1512797    0.1182558 -77.72 0.0007848481    1.734    0.423
        52  -9.6288     81.4351    238.5131   7.3515241204e+01   1.3571476620e+01    0.4053333    0.1018028  32.69  0.001504042    3.312    0.698
        53  -9.7220     14.9261    238.0464   8.7356538954e+01   2.1383361993e+01    0.4122388    0.0762674  36.56  0.001761777    3.043    0.671
        54  -9.6999    175.6472    233.0788   5.3392490281e+01   1.5281303112e+00    0.3906237    0.2385059 -58.77  0.002092994    2.684    0.627
        55  -9.0318    202.9573    234.2018   4.8480733976e+01  -2.1800395198e+00    0.2099216    0.1509187 -41.70 0.0006798587    1.713    0.416
        56  -9.7162    108.7481    234.2360   6.7252729592e+01   1.0668029551e+01    0.3381261    0.1948291  60.83  0.001236131    2.151    0.535
        57  -9.1387     93.3254    232.8702   7.0433089935e+01   1.3044337840e+01     0.385923    0.1649912  65.00  0.001258405    5.299    0.811
        58  -8.5410     78.3055    233.9727   7.3789787038e+01   1.4840523129e+01    0.1888631   0.08666367  80.48 0.0007038697    4.192    0.761
        59 -10.0081    214.6620    232.9217   4.6228714574e+01  -3.4458392377e+00    0.4178292    0.3261431 -73.31  0.002346098    3.526    0.716
        60  -8.6138    145.3071    233.6194   5.9502629823e+01   5.6338494081e+00    0.1217305   0.08971836  60.68 0.0004347356    1.788    0.441
        61  -8.8654    122.6078    233.2495   6.4189057170e+01   8.9006254243e+00    0.1537983    0.1176805 -42.31  0.000784752    1.562    0.360
        62  -8.7925    194.5141    231.8918   4.9668874929e+01  -7.9164714948e-01    0.2023136    0.1053013 -34.74 0.0008146222    1.991    0.498
        63  -9.5688    186.2657    230.3931   5.0981203668e+01   5.0212390646e-01    0.2649764    0.2149607 -74.39  0.001384608    2.288    0.563
        64  -8.8772    132.4375    232.2390   6.1994635628e+01   7.6843651736e+00    0.1522271    0.1227723 -79.92 0.0006718562    1.671    0.401
        65  -8.5526     11.1875    231.6645   8.7876320341e+01   2.3015579685e+01    0.1939713    0.1032421  49.82  0.001175262    1.380    0.275
        66  -8.1951     67.3835    231.1938   7.5926511425e+01   1.6790486038e+01     0.170649    0.1056276  83.30 0.0009467851    1.808    0.447
        67  -9.0936    139.9339    229.9632   6.0137504151e+01   7.0054317638e+00    0.1930272    0.1353388  54.77 0.0005909436    1.663    0.399
        68  -9.9732    149.2455    225.6478   5.7624440765e+01   6.3983754080e+00    0.5061052    0.3286578 -86.76   0.00223339    3.735    0.732
        69  -9.0407    229.9916    227.7451   4.2840093455e+01  -4.5959036141e+00    0.2202216    0.1354292 -20.69  0.001069098    1.438    0.305
        70  -8.7211    161.8414    227.5591   5.5323262167e+01   4.2858603761e+00    0.2031281    0.1505115  63.82 0.0008341015    2.080    0.519
        71  -8.8492    127.5743    226.8681   6.2353168831e+01   9.3216981741e+00    0.2126012    0.1604943 -86.33 0.0008824997    1.854    0.461
        72  -8.4431    111.8349    227.5971   6.5841525842e+01   1.1449638122e+01    0.1960818   0.09576647  42.90 0.0009519843    1.748    0.428
        73  -9.8585      6.6898    226.1551   8.8603812677e+01   2.4561767541e+01    0.2616299    0.1607583  42.33  0.001679107    1.349    0.258
        74  -8.7976    206.1023    225.0599   4.6531006330e+01  -1.3281502514e+00    0.2614238    0.1536277 -35.63  0.001305778    1.722    0.419
        75  -8.1684    200.3233    226.1839   4.7746215011e+01  -7.4123804176e-01    0.1493943    0.1034921 -43.58   0.00045921    1.750    0.428
        76  -9.0406    216.5708    223.1774   4.4394609941e+01  -2.3899614159e+00    0.2596331    0.1836042 -48.75   0.00118291    2.057    0.514
        77  -8.6245    142.9951    226.0000   5.8973532710e+01   7.2416894926e+00    0.2166221   0.06249458  34.61 0.0008059477    2.967    0.663
        78  -9.6717    225.1348    222.5198   4.2828887684e+01  -3.3502650799e+00    0.6063073    0.2426578 -22.87  0.002651799    3.372    0.703
        79  -8.6232    180.2925    223.7606   5.1131882138e+01   2.3003626756e+00    0.1829853    0.1416442 -36.96 0.0003942614    1.423    0.297
        80  -8.7243    104.6294    223.6012   6.6966297942e+01   1.3232466132e+01    0.2627072    0.1589529  65.28  0.001309075    2.092    0.522
        81  -8.7019     93.4722    223.4645   6.9435942066e+01   1.4835044571e+01    0.1966001    0.1216571 -86.13 0.0007492444    2.117    0.528
        82  -8.4603    173.0200    223.0012   5.2436432664e+01   3.4332540845e+00    0.1751876    0.1498737  64.40 0.0006827274    1.696    0.410
        83  -9.3849    192.0623    220.9463   4.8461996119e+01   1.1125117298e+00     0.261602    0.1828922 -47.24 0.0008931709    1.784    0.439
        84  -9.0005    158.9846    220.4871   5.4885474736e+01   5.8528602793e+00    0.2957351    0.1299566  47.61  0.001223856    2.810    0.644
        85  -7.9336     55.4946    220.6936   7.7727699056e+01   2.0416861700e+01    0.6211798   0.07465514 -63.93  0.001912881    5.982    0.833
        86  -9.9926     56.0076    216.8903   7.7312651434e+01   2.1157482092e+01    0.1926423    0.1578902  81.41 0.0006745608    1.182    0.154
        87  -8.3485     82.6586    220.3012   7.1544956189e+01   1.6963423025e+01    0.2163267    0.1251083  60.52  0.001094265    1.795    0.443
        88  -8.4568     43.8884    220.3661   8.0305834834e+01   2.1874144814e+01    0.2636766   0.07373972  38.74  0.001098075    2.544    0.607
        89  -8.6375    210.1224    218.7723   4.4825420381e+01  -9.6660986359e-01    0.1873336     0.145496 -34.66 0.0005822814    1.428    0.300
        90  -9.2895    119.9514    218.6358   6.2968728569e+01   1.1953250412e+01    0.2714542     0.182636  70.88  0.001327695    2.055    0.513
        91  -8.1730      1.9904    219.4876   8.9359598125e+01   2.6375158742e+01    0.1770358   0.04844199  48.91 0.0008083942    2.396    0.583
        92  -8.8973    132.6469    215.6875   5.9782874235e+01   1.0611589333e+01    0.4094827    0.2316535  68.07  0.001568612    3.863    0.741
        93  -7.7451    179.6200    217.2977   5.0274120487e+01   3.3994490628e+00    0.1186163   0.09435663  56.10 0.0007022585    1.761    0.432
        94  -8.2442    202.5532    220.0200   4.6381723294e+01  -1.5563894402e-01    0.1651546    0.1073323 -33.37 0.0003678775    1.534    0.348
        95  -8.2317     51.2932    216.9614   7.8393120611e+01   2.1719462936e+01    0.2020255   0.07919397  77.78 0.0007023588    4.106    0.756
        96  -8.6164    169.2152    215.8223   5.2108608707e+01   5.1360738989e+00    0.2078701     0.148335 -62.91 0.0009717704    2.082    0.520
        97  -8.5197    142.6767    216.1001   5.7669426682e+01   9.0279960215e+00     0.185341    0.1615181  85.35 0.0007907513    1.492    0.330
        98  -9.2679    232.3871    214.1191   4.0268302873e+01  -3.1186395867e+00    0.2858246    0.1721507 -34.85  0.001340992    1.603    0.376
        99  -8.4754     11.4051    215.8325   8.7220203053e+01   2.6281059664e+01    0.2240062    0.0681347  31.33 0.0009939922    2.749    0.636
       100  -8.1425    185.4178    214.1661   4.8657764272e+01   3.0695542756e+00    0.1541937    0.1176648 -51.75 0.0006715666    1.703    0.413
       101  -7.8973    154.2805    214.6597   5.5000369070e+01   7.5427617022e+00    0.1210627   0.09889144  65.28 0.0005057893    1.626    0.385
       102  -8.5573     92.8492    213.7459   6.8514909232e+01   1.6882344567e+01    0.2465372    0.1504131  69.59 0.0008219955    2.018    0.505
       103  -9.3920    213.8130    211.8332   4.3048004322e+01  -4.6335052521e-01     0.264232    0.2498327  65.78  0.001534215    1.733    0.423
       104  -8.1691    224.7937    212.0421   4.1191059408e+01  -1.9025534124e+00    0.1504391   0.08184126 -34.46 0.0007837665    1.721    0.419
       105  -8.6216    161.6166    211.9702   5.3066248377e+01   6.9096879540e+00    0.2165728    0.1675644 -66.44  0.001155547    1.818    0.450
       106  -9.0634    204.2069    210.5478   4.4552731883e+01   1.0080451952e+00    0.2366484    0.1746423 -48.04 0.0008177118    1.748    0.428
       107  -9.2418    175.0523    209.6153   4.9964540486e+01   5.3058581751e+00    0.2655487    0.2153291  74.47  0.001135461    2.017    0.504
       108  -8.7183     71.8391    210.7216   7.3094545896e+01   2.0439516211e+01    0.2645229    0.1436941  70.79  0.001221312    2.200    0.545
       109  -8.8180      3.7889    211.4711   8.8705088207e+01   2.7923202213e+01    0.2283892   0.08449049  35.88  0.001139435    2.162    0.538
       110  -8.2160    192.1693    210.1523   4.6721051392e+01   2.7403492532e+00    0.1501946    0.1469829  -9.68 0.0005348374    1.353    0.261
       111  -8.4769    147.6709    210.1192   5.5723395402e+01   9.3527194971e+00    0.1894946    0.1642008  83.38 0.0006959701    1.524    0.344
       112  -8.5533    115.9712    209.9325   6.2729971826e+01   1.4243356697e+01    0.2147363    0.1446817  60.38 0.0005986163    1.692    0.409
       113  -9.7136    236.5079    207.3277   3.8471009962e+01  -2.7142731591e+00    0.3574021    0.1870385 -35.23  0.001845194    1.752    0.429
       114  -9.4856    246.7218    206.7569   3.6758583692e+01  -3.8594003646e+00     0.296651    0.1621086 -27.05   0.00112864    1.544    0.352
       115  -9.4652    250.2313    201.7119   3.5368277827e+01  -3.6145414719e+00    0.3483165    0.1349699 -34.16  0.001560312    2.203    0.546
       116  -9.7781    124.1792    206.1357   6.0339550723e+01   1.3740762461e+01    0.2706874    0.1893408  58.40            0    1.609    0.379
       117  -7.6103    156.3405    207.6738   5.3503134954e+01   8.4639880457e+00    0.1291163    0.1001621  63.06 0.0007051369    1.732    0.423
       118  -7.9464    139.2801    207.6713   5.7182047974e+01   1.1099795296e+01    0.1281972    0.1002929  65.77  0.000341492    1.600    0.375
       119  -9.0633     99.2532    206.0143   6.6104724608e+01   1.7561354626e+01    0.3313458    0.1971728  76.36 0.0009790956    2.457    0.593
       120  -9.7538     12.7679    204.5235   8.6426286498e+01   2.8628243814e+01    0.4882747    0.2175264  59.19  0.002485071    1.832    0.454
       121  -9.3326    194.8858    203.0984   4.5034577282e+01   3.4608242456e+00    0.3934357    0.2143119 -44.79  0.001197694    2.000    0.500
       122  -9.2166    192.2721    197.1102   4.4504999859e+01   4.8105036114e+00    0.2453442    0.1952115 -44.37 0.0007576934    1.431    0.301
       123  -8.8900    183.6825    203.7614   4.7299478343e+01   4.9953750947e+00    0.2710576    0.1886244  55.74   0.00117917    2.105    0.525
       124  -8.3023    130.8406    203.7707   5.8487662998e+01   1.3169083915e+01    0.1811058    0.1497373  58.97 0.0005371677    1.311    0.237
       125  -9.2989    163.3314    202.6102   5.1228568961e+01   8.2882920658e+00    0.2696367    0.2150881  58.64 0.0008826887    1.604    0.376
       126  -9.2951    243.3307    200.6980   3.6262043414e+01  -2.6561441653e+00    0.3025124     0.143348 -34.24  0.001118949    1.839    0.456
       127  -8.4090    227.7528    202.2529   3.9048452628e+01  -9.1738598347e-01    0.1915572   0.08058009 -27.89 0.0008958334    2.436    0.589
       128  -8.5463    210.9935    201.7210   4.1846954351e+01   1.3980041819e+00    0.2024236    0.1499756 -46.91 0.0009065563    1.685    0.407
       129  -8.1200    222.0149    201.2185   3.9839382320e+01  -1.8863822497e-02    0.1579232    0.1227872 -45.01 0.0004683812    1.637    0.389
       130  -9.0557    139.6117    199.7159   5.5900510412e+01   1.2574195650e+01    0.2728595    0.2088972 -86.45  0.001439994    1.858    0.462
       131  -8.1179     79.3634    200.6852   7.0241219550e+01   2.1606947602e+01    0.1505556    0.0878857  59.88 0.0007040774    1.763    0.433
       132  -9.3992    237.2190    197.5053   3.6681093980e+01  -1.4629928588e+00    0.3896843    0.1354878 -35.71  0.001554495    2.544    0.607
       133  -8.1058    176.8425    198.7946   4.7822124661e+01   6.8673136955e+00    0.1571497    0.1542828 -66.91 0.0004373382    1.305    0.234
       134  -9.1342    149.3901    198.2032   5.3495985534e+01   1.1300604016e+01    0.3422284    0.2373464  78.93  0.001295888    2.631    0.620
       135  -8.7444    133.0120    198.9934   5.7278369387e+01   1.3771802290e+01    0.1946619    0.1750851  28.96  0.001167145    1.030    0.029
       136  -8.6905    123.8872    198.8311   5.9351330337e+01   1.5260109503e+01    0.2449347    0.1727241  80.83 0.0008840633    2.030    0.507
       137  -8.8769    112.6568    198.0396   6.1873269517e+01   1.7199303079e+01    0.4183207    0.2321661  63.32    0.0017239    2.612    0.617
       138  -8.8806     88.7329    198.6115   6.7714328560e+01   2.0718657216e+01    0.3547914    0.1733385  60.21  0.001422723    2.590    0.614
       139  -8.0245    202.3649    197.2716   4.2639779703e+01   3.3018801280e+00      0.16537    0.1115421 -44.71  0.000936149    1.655    0.396
       140  -8.5743     60.5292    196.5200   7.4432548030e+01   2.5110645030e+01    0.2340584      0.11937  89.82  0.001015663    2.345    0.574
       141  -8.7728    215.8341    195.4875   3.9910437193e+01   1.6672855351e+00    0.2221694    0.1515682 -49.83 0.0008927162    1.923    0.480
       142  -8.7863    185.1216    194.6794   4.5467435422e+01   6.2986247041e+00    0.2059008    0.1710709 -45.71 0.0006974912    1.378    0.274
       143  -9.4549    245.4844    193.0038   3.4595779606e+01  -1.8784192096e+00    0.2477291    0.1595192 -41.41 0.0006969686    1.704    0.413
       144  -8.7402    224.4588    193.7133   3.8116429554e+01   7.4891105350e-01    0.2161627    0.1055481 -41.65  0.001066086    2.062    0.515
       145  -8.7567    160.7637    193.8723   5.0319773708e+01   1.0286047770e+01    0.2366534    0.1932909 -76.48  0.000945257    1.712    0.416
       146  -8.3298     76.8018    193.8061   7.0088224103e+01   2.3526922792e+01    0.1963413    0.1411268  61.48 0.0004597313    1.318    0.241
       147  -8.8539     42.0644    192.2943   7.8648805337e+01   2.8373608731e+01    0.3258269    0.1935808  49.32  0.001420708    1.441    0.306
       148  -8.1855    172.3985    191.2674   4.7430595176e+01   8.8923017335e+00    0.1734419    0.1268106 -54.43 0.0005713581    1.641    0.391
       149  -8.7894    139.3162    190.2069   5.4444976668e+01   1.4512460204e+01    0.2684127    0.2029389  86.07 0.0008009883    1.906    0.475
       150 -10.1369     92.2591    188.9987   6.5608572996e+01   2.2356378393e+01    0.8481804    0.1932117  43.82  0.002542784    3.926    0.745
       151  -8.1846    148.4154    188.9042   5.2171209644e+01   1.3262822160e+01    0.1849663    0.1243232 -79.32 0.0008043648    2.579    0.612
       152  -8.4710    237.2898    188.0711   3.5008342847e+01  -1.4254404509e-01    0.1722314    0.1232811 -27.33 0.0007021335    1.195    0.163
       153  -8.3860    223.1667    188.1257   3.7337548808e+01   1.7587860633e+00     0.145941    0.1289993 -28.10 0.0009892809    1.274    0.215
       154  -8.9442    216.3900    187.4370   3.8376337591e+01   2.8209450234e+00    0.2700638    0.1724956 -36.90 0.0009370848    1.476    0.322
       155  -8.9655    155.8544    187.2452   5.0241170246e+01   1.2349645831e+01    0.2856812    0.1938322 -65.19  0.000893904    2.013    0.503
       156  -8.6168    129.0626    188.0806   5.6477898896e+01   1.6652826795e+01    0.2175795    0.1644541  70.82 0.0006845488    1.659    0.397
       157  -8.3404    179.0000    191.0432   4.6046609987e+01   7.8816727041e+00    0.2054377   0.07284316 -44.30 0.0007921053    2.871    0.652
       158  -8.2424    230.6029    186.8547   3.5870014656e+01   9.2633277279e-01    0.1662396    0.1016709 -41.44 0.0009463424    1.673    0.402
       159  -8.4147    191.1425    187.0745   4.2941926167e+01   6.6620851968e+00    0.1852969    0.1638137 -87.65 0.0008587913    1.708    0.415
       160  -9.1728    120.3634    185.4981   5.8141867863e+01   1.8649507899e+01    0.4055407    0.2336316 -75.73  0.001609041    2.678    0.627
       161  -8.8832    109.3105    185.6179   6.0867318494e+01   2.0436309257e+01    0.3466193    0.2160926  75.38  0.001250238    2.394    0.582
       162  -9.1900    249.2240    185.1890   3.2643880528e+01  -1.2704161723e+00    0.2366216     0.154802 -35.70 0.0009154366    1.413    0.292
       163  -8.1409    164.7632    186.5597   4.8198737287e+01   1.1002284076e+01     0.180294    0.1234024  46.21 0.0004665291    1.552    0.356
       164  -9.5978     17.0966    191.5418   8.4750930263e+01   3.1193545824e+01    0.3385334    0.1073313  51.87  0.001408495    2.568    0.611
       165  -8.2999    182.8626    184.5678   4.4109612278e+01   8.4104331843e+00    0.2032842      0.15299 -44.64 0.0004155319    1.406    0.289
       166  -8.6122     66.6077    184.6257   7.1629829817e+01   2.7105472617e+01    0.2956643    0.1578289  62.37  0.000876771    2.039    0.510
       167  -8.4351    210.2816    184.0877   3.8841689887e+01   4.2399286342e+00    0.1795255    0.1383064 -29.61 0.0004394075    1.195    0.163
       168  -8.4368    202.6414    184.1931   4.0246679334e+01   5.3722950268e+00    0.1884402     0.151793 -44.35 0.0006041929    1.394    0.283
       169  -8.7014    174.1292    183.2639   4.5642988452e+01   1.0069413183e+01    0.2290768    0.1758526 -73.37 0.0006097959    1.989    0.497
       170  -8.5759    223.9479    183.1877   3.6307750484e+01   2.3984764840e+00    0.1770707    0.1522807 -30.27 0.0005857975    1.243    0.195
       171  -7.8670     44.2977    182.6403   7.7242266652e+01   3.0432167611e+01    0.1504153   0.08482841  64.27 0.0007034207    1.709    0.415
       172  -8.3249    235.4338    180.9911   3.4022893367e+01   1.1337262920e+00    0.1857385    0.1010065 -33.93 0.0005237932    1.584    0.369
       173  -8.8423    147.4612    180.4216   5.0910154004e+01   1.5127945160e+01    0.2890949    0.2058322  76.47 0.0009591143    2.230    0.552
       174  -9.0654     26.4752    180.1565   8.1673337683e+01   3.3000531758e+01    0.3853311    0.1300724  62.85  0.001364901    3.381    0.704
       175  -8.3671    240.6262    179.7650   3.2980222496e+01   6.1287077447e-01    0.1691426   0.09664213 -40.14 0.0008128606    1.671    0.401
       176  -8.2613    137.3852    179.1056   5.3005945557e+01   1.7138414604e+01    0.1929158    0.1364714 -68.39 0.0009021495    1.758    0.431
       177  -8.7673    250.5252    172.8580   3.0212174764e+01   2.9566629031e-01    0.2240555    0.1183723 -32.96 0.0006697239    1.547    0.354
       178  -9.2687    248.9916    177.1614   3.1229208436e+01  -1.1611459387e-01    0.2623089     0.161902 -35.25 0.0007012558    1.405    0.288
       179  -8.4042    247.3305    173.6761   3.0837194779e+01   5.9999362798e-01    0.1864433    0.1473018 -33.00 0.0005779858    1.246    0.197
       180  -9.1638    191.1668    177.9697   4.1252697987e+01   8.2349390494e+00    0.2198168    0.2071045 -44.75 0.0004630571    1.254    0.203
       181  -7.5689    169.2981    178.6196   4.5795046220e+01   1.1746325041e+01    0.1347131    0.1114084  88.74 0.0007022346    1.763    0.433
       182  -8.3499    231.1294    176.6844   3.3919124977e+01   2.3734389652e+00    0.2126719    0.1431561 -38.41 0.0007264536    1.413    0.292
       183  -8.3627    217.4669    177.0036   3.6262642194e+01   4.3040707360e+00    0.1872899     0.111615 -37.60 0.0005147746    1.538    0.350
       184  -8.3368    205.1959    177.2056   3.8475239142e+01   6.1386264649e+00     0.168302    0.1453036 -45.89 0.0004407429    1.349    0.259
       185  -8.3229    129.1512    176.9846   5.4598311947e+01   1.9017826910e+01    0.2287443    0.1629427 -88.37 0.0006219668    2.015    0.504
       186  -8.5253    100.9911    176.0330   6.1501291362e+01   2.3988156949e+01     0.202842    0.1898368  -8.65            0    1.247    0.198
       187  -8.8440    103.4504    173.9602   6.0536976287e+01   2.4071736280e+01    0.3816972    0.2134693  63.61   0.00138128    2.459    0.593
       188  -8.1928     88.9827    176.9313   6.4770893139e+01   2.5687508986e+01    0.2463628    0.1561592  65.13  0.001112606    1.791    0.442
       189  -8.8735    183.0700    175.7908   4.2432179348e+01   9.9554473846e+00    0.2242258    0.1803441 -52.21  0.000674047    1.422    0.297
       190  -9.5116     57.3809    173.0909   7.2764510643e+01   3.1172274600e+01    0.7921863    0.3244283  78.04  0.002163238    5.483    0.818
       191  -9.0440    158.5139    174.5343   4.7357330526e+01   1.4400783393e+01    0.2910455    0.2119893  83.84 0.0009935852    2.328    0.570
       192 -10.2097     75.6975    170.0035   6.7356202569e+01   2.9396540970e+01     1.179354    0.4419998 -78.88  0.003208018    5.226    0.809
       193  -8.1234    224.3604    174.1229   3.4550470493e+01   3.7410001939e+00    0.1780841    0.1037277 -44.42 0.0005733268    1.783    0.439
       194  -8.9751    175.5761    172.4274   4.3311785005e+01   1.1849149648e+01    0.2343278     0.217107 -25.41 0.0005670806    1.074    0.069
       195  -7.7920    134.5348    171.5403   5.2330731046e+01   1.9263912128e+01    0.1450038    0.1367962  57.02 0.0001611335    1.076    0.071
       196  -9.2591    121.2127    170.2865   5.5380082138e+01   2.1894078670e+01    0.3353035    0.2454592 -82.80 0.0009788775    1.735    0.423
       197  -8.4601     44.9938    171.0542   7.5936354815e+01   3.3229958689e+01    0.2460184     0.137155  63.99  0.001126593    1.792    0.442
       198  -8.4616    230.4725    169.9745   3.2760926574e+01   3.4948460312e+00    0.1871758    0.1061053 -35.01  0.000541135    1.524    0.344
       199  -8.1836    205.6043    169.8327   3.6986965725e+01   7.3162238295e+00    0.1828927     0.115426 -47.65 0.0007692827    1.717    0.418
       200  -8.3844    198.3253    169.8437   3.8329753622e+01   8.4930020054e+00     0.196261    0.1574279 -52.07 0.0005893697    1.457    0.314
       201  -8.4246    244.8691    169.2220   3.0377000896e+01   1.5793381886e+00    0.1902741    0.1788198 -87.52 0.0009880852    1.682    0.406
       202  -8.2079    237.4071    169.1872   3.1512289582e+01   2.6215553365e+00    0.1705049    0.1003867 -42.51 0.0008643995    1.668    0.400
       203  -8.9465    167.0007    168.3336   4.4322487668e+01   1.4138179681e+01    0.2667168    0.2123843  88.14 0.0009679986    1.861    0.463
       204  -8.0971    149.5072    169.0397   4.8342988519e+01   1.7122781299e+01     0.208631    0.1423003 -52.03 0.0007070539    1.538    0.350
       205  -8.6580    218.8463    168.1621   3.4337702652e+01   5.5180002059e+00    0.1846222    0.1663707 -41.00 0.0007262388    1.289    0.224
       206  -8.5598    191.9404    166.5595   3.8896374546e+01   1.0139727152e+01    0.2042837    0.1685527 -32.54 0.0004374387    1.139    0.122
       207  -8.2304    111.4044    167.1380   5.7331583702e+01   2.4331885547e+01    0.2020672    0.1414121 -75.05 0.0007427816    1.673    0.402
       208  -8.1618    185.3223    166.2368   4.0125933332e+01   1.1329572897e+01     0.190591    0.1205181 -49.03  0.000430721    1.681    0.405
       209  -8.3782     21.0009    166.6704   8.2137959339e+01   3.6898204551e+01    0.2341277   0.03552772  44.89 0.0007051687    4.349    0.770
       210  -8.2872    233.8579    164.5601   3.1183766301e+01   3.8390790785e+00    0.2031388     0.125078 -37.81 0.0006361266    1.433    0.302
       211  -9.1063    136.7579    164.2428   5.0428881966e+01   2.0466975725e+01    0.5785556    0.2552468  56.25  0.001779503    3.901    0.744
       212  -9.7321     94.6574    162.3372   6.0979267630e+01   2.8331534319e+01    0.7496935    0.3794893  72.23  0.002177383    4.542    0.780
       213  -7.8567    240.4625    163.9736   3.0048786434e+01   2.9760437007e+00    0.1640965   0.09479325 -52.26 0.0006293804    2.415    0.586
       214  -8.6663    212.9458    163.4473   3.4429216839e+01   7.2203982195e+00    0.2360834     0.165691 -47.39 0.0007318927    1.532    0.347
       215  -8.4898    159.6422    164.1366   4.5100181371e+01   1.6304385675e+01    0.2198469    0.1782192 -70.15  0.001046434    1.526    0.345
       216  -8.8931     33.8181    163.3158   7.8288794373e+01   3.6467060893e+01    0.4986155    0.1051775  49.01  0.001444024    4.637    0.784
       217  -8.6219    246.4446    162.9372   2.8954686237e+01   2.2898974117e+00    0.1856209   0.09880501 -35.66 0.0004438026    1.553    0.356
       218  -8.9741      3.4805    162.3396   8.6628995814e+01   3.9477830909e+01    0.4187567    0.1195512  51.07  0.001631242    2.967    0.663
       219  -8.3325    204.8145    162.3579   3.5655187262e+01   8.7286683364e+00    0.1838308    0.1521119 -35.95 0.0004860378    1.156    0.135
       220  -8.8138    177.3698    160.4856   4.0575034585e+01   1.3819102941e+01    0.2272571    0.2040414  83.81 0.0005529221    1.419    0.295
       221  -8.3857    151.8041    160.9534   4.6233516013e+01   1.8407344639e+01    0.2380082    0.1736641 -81.16  0.001071625    2.037    0.509
       222  -8.5990    227.4840    159.0213   3.1117341163e+01   5.6666762365e+00    0.2776859    0.1546102 -49.18  0.001365523    2.074    0.518
       223  -8.1535     60.9908    160.4917   7.0192406493e+01   3.3900688338e+01    0.2230926   0.09305368  51.94 0.0008104207    2.544    0.607
       224  -9.9999    249.7919    157.3423   2.7398403243e+01   2.6525847540e+00    0.3347012    0.2500774 -49.32  0.001536685    1.590    0.371
       225  -8.6301    237.4346    158.5071   2.9454191836e+01   4.2503942996e+00    0.2200149   0.09913638 -44.77 0.0008986471    2.232    0.552
       226  -9.2719    105.5237    157.7562   5.7219445693e+01   2.7605006244e+01    0.3984234    0.2434836  66.02  0.001017684    2.184    0.542
       227  -8.5394    196.4771    157.5536   3.6217959087e+01   1.0990996741e+01     0.222264    0.1226018 -49.62 0.0006132451    1.976    0.494
       228  -8.9870    167.4310    157.0214   4.1954618031e+01   1.6319585819e+01    0.2889664    0.2238715 -80.27  0.000779686    1.853    0.460
       229  -7.9016    128.2793    158.6839   5.1446178501e+01   2.3276706009e+01    0.1491287    0.1170361  79.69   0.00031525    1.573    0.364
       230  -8.6217    217.9976    156.4537   3.2166650333e+01   7.5799995628e+00    0.2522894    0.1599691 -48.58 0.0007978059    1.707    0.414
       231  -7.9704    188.2499    157.6166   3.7805927299e+01   1.2421048445e+01    0.1355378    0.1073379 -66.12 0.0005653792    1.658    0.397
       232  -8.4912    157.4536    155.7800   4.3894143687e+01   1.8441852234e+01    0.2694166    0.1418978 -51.70  0.000849902    2.004    0.501
       233  -8.9907    119.3743    154.8338   5.2979673405e+01   2.5817539275e+01    0.3570891    0.2417073  89.60  0.001204554    2.177    0.541
       234  -8.7909     81.5933    154.6271   6.3370280980e+01   3.2387572818e+01    0.4519572     0.224896  65.59  0.001511299    3.185    0.686
       235  -9.5687    241.7590    154.0192   2.7924599281e+01   4.3053707932e+00    0.3355877    0.2413983  84.89  0.001646442    3.366    0.703
       236  -8.9676     34.8333    155.5922   7.7234442102e+01   3.8362941474e+01    0.2078446     0.109058  43.54 0.0009513131    1.780    0.438
       237  -8.1851    144.4273    154.5178   4.6650807727e+01   2.1181651057e+01    0.1472285    0.1427588  88.04 0.0002183703    1.080    0.074
       238  -9.2375    132.6082    152.6361   4.9151431107e+01   2.3851964248e+01    0.3986131    0.2788924  77.45  0.001037249    2.081    0.519
       239  -8.5629    133.4947    148.0609   4.7979330936e+01   2.4731333185e+01    0.2976134    0.1443579 -45.54  0.001136046    2.094    0.522
       240  -8.5983     67.8112    153.6883   6.7242461231e+01   3.4713141886e+01    0.2912395    0.1727148  77.74  0.001044374    2.093    0.522
       241  -9.0723     10.0082    153.0000   8.4240168190e+01   4.1347470255e+01    0.1961882   0.07466282  21.79 0.0008029738    2.946    0.661
       242  -9.1024     29.7999    151.1620   7.8275414954e+01   4.0049579242e+01    0.2656879    0.1047206  61.04 0.0009547459    2.957    0.662
       243  -9.4383    248.9378    149.0776   2.5916829108e+01   4.0096870985e+00    0.2957177    0.1465987 -35.35 0.0008012077    1.630    0.387
       244  -8.7428    243.3763    149.6144   2.6819633364e+01   4.7431482190e+00    0.2628333    0.1263721 -34.71  0.001323189    1.716    0.417
       245  -8.5449     49.2235    155.0009   7.2921879566e+01   3.6858547461e+01    0.2426467    0.1397198  75.20  0.001050544    1.923    0.480
       246  -8.6886    189.2173    149.7878   3.5980478617e+01   1.3715210043e+01    0.2453955    0.1708086 -49.72 0.0008733522    1.487    0.327
       247  -7.8052    182.2982    150.6899   3.7534289586e+01   1.4813846195e+01    0.1363717    0.1137602 -79.12 0.0005496093    1.598    0.374
       248  -7.9388    162.5048    150.5059   4.1659182868e+01   1.8583091100e+01    0.1450562    0.1409644 -70.18 0.0008085665    1.104    0.094
       249  -8.4155     97.8285    150.0713   5.7930021816e+01   3.0850953469e+01    0.2913911    0.1872736  54.55  0.001270812    1.638    0.390
       250  -8.1182    212.8475    149.6018   3.1639641469e+01   9.5922103822e+00    0.1597197    0.1299677  56.48 0.0002643534    1.563    0.360
       251  -8.4226    198.7386    148.7821   3.3971186982e+01   1.2185493561e+01    0.1798779    0.1574331 -61.64 0.0004685247    1.352    0.260
       252  -9.6100     89.1887    146.1591   5.9686460646e+01   3.3322944842e+01    0.6907361    0.3644426  86.75  0.002024704    4.255    0.765
       253  -8.7148    233.5114    147.4719   2.7861658791e+01   6.5821566364e+00    0.2603988    0.1079763 -37.46 0.0008944586    2.030    0.507
       254  -8.9428     39.6969    147.6512   7.4896775631e+01   3.9925075094e+01    0.4018976    0.1656491  57.66     0.001463    2.821    0.645
       255  -8.2582    223.2040    146.7838   2.9337453304e+01   8.3452298146e+00    0.1729675    0.1376575  -7.94 0.0003561265    1.288    0.223
       256 -10.1686    148.8362    145.0283   4.3592505767e+01   2.2412396286e+01     0.537622     0.356848 -84.65  0.001629158    2.723    0.633
       257  -9.8599     55.0003    144.7533   6.9795041166e+01   3.8837013901e+01    0.7379457    0.3083864  63.02  0.002268834    3.879    0.742
       258  -7.7172    206.6674    146.3274   3.2026009227e+01   1.1226579906e+01    0.1332246    0.1067599 -70.33 -0.0002516529    1.715    0.417
       259  -9.1262    139.1047    144.8467   4.5897158423e+01   2.4370463426e+01    0.3704969    0.2399023 -73.76  0.001480337    2.268    0.559
       260  -9.7964    106.3306    144.1740   5.4391023052e+01   3.0806731350e+01    0.6179084    0.3676668  76.53  0.002152666    2.970    0.663
       261  -8.5935     13.6090    146.3341   8.2692275827e+01   4.2790178332e+01    0.2261052    0.1264982  63.21 0.0008602848    1.678    0.404
       262  -8.0302    240.3853    145.2028   2.6377028817e+01   5.8776912915e+00    0.1789899   0.09925838 -42.93 0.0005195269    1.634    0.388
       263  -8.6935    247.2853    143.9669   2.5140849132e+01   5.0279785382e+00    0.1827767    0.1279431 -32.50 0.0005311837    1.149    0.130
       264  -8.6649    165.2459    143.6906   3.9579708877e+01   1.9466718942e+01    0.2444927    0.1920088 -54.37 0.0006451977    1.321    0.243
       265  -9.6327    124.7691    142.3988   4.9014161665e+01   2.7746681908e+01    0.4593253    0.3002046 -83.76  0.001353783    2.402    0.584
       266  -9.0722    243.8023    141.0753   2.5054202997e+01   5.9984912345e+00    0.3789024    0.1565011 -28.47  0.001610241    2.533    0.605
       267  -9.5690     69.3577    140.7697   6.4707506706e+01   3.7886895153e+01    0.3707358    0.2269064  81.04   0.00151672    2.074    0.518
       268  -9.1990      2.9888    142.0171   8.5567266408e+01   4.4704877666e+01    0.2308195    0.1215943  61.11 0.0008228563    1.756    0.430
       269  -8.1379    181.8878    141.5945   3.5645950064e+01   1.6658356133e+01    0.1838654    0.1387395  58.90 0.0004527255    1.589    0.371
       270  -8.3453    250.4911    140.5016   2.4007428147e+01   5.0793414083e+00    0.1252458   0.09944135 -31.29 0.0008102555    1.043    0.041
       271  -9.1280     23.7711    138.4362   7.8838369675e+01   4.4005588509e+01     0.434992    0.1694998  56.86   0.00162358    2.855    0.650
       272  -7.7893    218.5237    138.4813   2.8357118674e+01   1.0531365088e+01    0.1353095    0.1162489 -30.26 0.0001282026    1.011    0.011
       273  -8.3903    207.4952    137.5779   3.0008007515e+01   1.2633565728e+01    0.2399486     0.115675 -48.26 0.0006723797    2.137    0.532
       274  -8.6522    197.6277    137.4373   3.1725579982e+01   1.4469006337e+01    0.2716865    0.1931058 -60.38  0.001116808    1.727    0.421
       275  -8.5062    172.0897    138.0147   3.6850177563e+01   1.9282368052e+01    0.2294946     0.179147 -76.85 0.0007142671    1.696    0.411
       276  -9.0457    248.3482    134.7530   2.3146665231e+01   6.2801160032e+00    0.2688622    0.1335531 -39.09 0.0008660941    1.631    0.387
       277  -8.1993    162.4213    136.1982   3.8515558694e+01   2.1594656102e+01    0.2114034    0.1384304 -56.11 0.0006045289    1.660    0.398
       278  -8.5399     38.7668    135.9778   7.3728777151e+01   4.3156203551e+01    0.2589301    0.1634701  50.39 0.0006956615    1.571    0.363
       279 -10.0127     83.5342    133.2010   5.8900649880e+01   3.7635710379e+01    0.4862768    0.3048737 -83.49  0.001424575    2.016    0.504
       280  -8.6753    179.3032    133.6678   3.4382837945e+01   1.8722728083e+01    0.2735911    0.1650958 -51.66  0.000849409    1.724    0.420
       281  -7.9589    237.6971    133.3588   2.4349413413e+01   8.1740854864e+00     0.129073   0.09089492 -56.96 0.0007038387    1.720    0.418
       282  -8.6846    112.8104    133.0885   5.0216650334e+01   3.2326397878e+01     0.254068    0.2052158  82.95 0.0008866108    1.415    0.293
       283  -9.0440    142.9445    131.5131   4.1947776356e+01   2.6609718031e+01    0.2931406     0.212042 -65.61 0.0006976497    1.587    0.370
       284  -9.4730    132.0661    131.1016   4.4579437614e+01   2.8946491963e+01    0.3726532    0.2475956 -67.51  0.001137557    1.831    0.454
       285  -8.4170    250.7315    130.4277   2.1951794217e+01   6.5779770399e+00    0.2210648   0.08954192 -35.91 0.0006061952    1.978    0.494
       286  -8.5733    247.1648    129.8755   2.2314940408e+01   7.2159070326e+00    0.1944469    0.1429204 -44.08 0.0006834351    1.252    0.201
       287  -8.0807    204.5459    130.4381   2.8946564964e+01   1.4455680798e+01    0.1396754    0.1243295 -35.73 0.0001166638    1.022    0.022
       288  -7.9243    192.7331    130.3227   3.1031547023e+01   1.6729387441e+01    0.1402828    0.1082879 -65.28 0.0001841496    1.564    0.361
       289  -8.9174    168.2731    129.1432   3.5610989592e+01   2.1870003227e+01    0.2773526    0.2157567 -76.18 0.0004836432    1.639    0.390
       290  -9.2097    152.7635    128.9122   3.8998443416e+01   2.5142002598e+01    0.4000387    0.2247794 -58.24  0.001062639    2.106    0.525
       291  -9.7372     99.2630    127.8014   5.2957918281e+01   3.6235495735e+01    0.5729076    0.3557785  85.08  0.001763198    2.685    0.628
       292  -8.9113     13.1475    129.5173   8.1390942362e+01   4.7271747743e+01     0.371331    0.1773788  67.25  0.001594021    2.209    0.547
       293  -7.7377    220.6636    129.7130   2.6133766819e+01   1.1653866832e+01    0.1325471   0.09969109  -2.13 0.0006438584    1.631    0.387
       294  -8.2205    211.5201    129.0165   2.7453178152e+01   1.3418240358e+01    0.1937937    0.1062472 -56.31 0.0008081244    2.393    0.582
       295  -7.6775    186.6521    129.3222   3.1946033322e+01   1.8113743095e+01    0.1475559    0.1138085 -76.61 0.0007049284    1.741    0.426
       296  -8.7723     73.0642    129.1506   6.1414359253e+01   4.0407779038e+01    0.2937228     0.199554  60.22 0.0009362388    1.604    0.376
       297  -8.9645     50.0314    128.5116   6.8907863888e+01   4.3845725365e+01    0.3349498     0.208279  66.98  0.001157216    1.813    0.448
       298 -10.1192     44.2089    123.1393   7.0026584729e+01   4.6012563669e+01    0.7768975    0.3678721  73.85   0.00256582    3.461    0.711
       299  -9.6578    117.8599    125.1938   4.6985116030e+01   3.3251846679e+01    0.5331697    0.3294434  70.48  0.001611994    2.497    0.600
       300 -10.0618     60.2908    125.2402   6.4887794650e+01   4.3360283783e+01    0.6692838    0.3518915  71.25  0.002330597    2.978    0.664
       301  -7.8019    228.7132    125.3450   2.3965304558e+01   1.0981159663e+01    0.1329206    0.0935991 -57.65  0.000589187    1.649    0.394
       302  -8.8521    179.2233    124.6331   3.2297684243e+01   2.0528888783e+01    0.2476136     0.215037 -70.55 0.0006180286    1.280    0.219
       303  -9.7003     28.8076    122.6782   7.5314757163e+01   4.7779269880e+01    0.5921164    0.2589921  71.01  0.002048462    3.280    0.695
       304  -8.0651    188.4995    123.5178   3.0248790196e+01   1.8860040724e+01    0.1467429    0.1330964 -49.35 0.0002985357    1.071    0.067
       305  -9.0569    158.4763    121.2005   3.5833448459e+01   2.5592264341e+01     0.339876    0.2290966 -66.64 0.0008302014    1.887    0.470
       306  -8.1027     83.8576    122.3978   5.6534849601e+01   4.0406542932e+01    0.2074824    0.1536227  21.45 0.0009309296    1.641    0.391
       307  -8.4430    171.9937    121.3000   3.2959960822e+01   2.2699332561e+01    0.2001607    0.1973268 -68.95 0.0004099323    1.058    0.055
       308  -9.7238    141.6405    118.5163   3.9109098020e+01   2.9807587191e+01    0.4589487    0.3000461 -71.52  0.001173196    2.131    0.531
       309  -8.4145     71.0499    119.9864   6.0228108222e+01   4.3161681824e+01    0.2535068    0.1767697  74.87 0.0006162475    1.712    0.416
       310  -9.4936    130.4908    118.0024   4.1808137172e+01   3.2324153537e+01    0.3819434    0.2605119 -76.78  0.001022952    2.029    0.507
       311  -9.6253      2.8813    117.2966   8.3760028932e+01   5.1203417654e+01     0.410939     0.165095  69.20  0.001606161    2.802    0.643
       312  -8.1789    185.7957    115.8063   2.8920708961e+01   2.0892573995e+01    0.2028651    0.1634272 -63.01 0.0005476152    1.338    0.253
       313  -9.4824    109.3541    114.1178   4.6690449256e+01   3.7680831362e+01      0.47826    0.3120499 -79.67  0.001363802    2.216    0.549
       314  -8.4217    193.0231    114.9954   2.7407135028e+01   1.9555278557e+01    0.2263354    0.1653024 -65.61 0.0004938598    1.633    0.388
       315 -11.4552    248.9024    107.8326   1.7510175935e+01   1.0345625151e+01    0.7009185    0.2703173 -38.21  0.003171684    2.023    0.506
       316 -11.5327    249.4438     98.9241   1.5560113363e+01   1.1619533770e+01    0.8473952    0.1927286 -40.33  0.003039467    3.219    0.689
       317  -9.7065     92.6585    112.5411   5.1411898447e+01   4.1356296777e+01    0.4313976    0.2902063 -80.77  0.001184007    1.927    0.481
       318  -9.4462     78.8151    112.3029   5.5902146558e+01   4.3909838391e+01    0.4470109     0.281652  81.66  0.001697737    2.405    0.584
       319  -9.3186    122.0306    112.3868   4.2638464919e+01   3.5446164381e+01    0.3368635    0.2467302 -74.42 0.0007808056    1.646    0.392
       320  -8.7736    174.8226    111.5480   2.9987714073e+01   2.4052782274e+01    0.3061917    0.1791991 -55.32 0.0008321691    1.875    0.467
       321  -8.6714    159.1344    111.7060   3.3304115252e+01   2.7452620924e+01    0.2701377    0.1989703 -54.77 0.0005563609    1.358    0.264
       322  -9.9240    132.7841    108.7340   3.8808261253e+01   3.3950180753e+01    0.5733551    0.4205927 -87.71  0.002449423    1.830    0.454
       323  -8.8846     66.5034    110.4704   5.9740161645e+01   4.6396088193e+01    0.3434447    0.2094059  70.90  0.001157075    2.307    0.567
       324  -8.8092     14.4803    111.2014   7.8994495273e+01   5.2074805629e+01    0.2814916    0.1342541  57.31  0.001191878    2.345    0.574
       325  -8.4204    189.2541    107.7788   2.6332755729e+01   2.1692087532e+01    0.2654174    0.1602283 -43.74 0.0006155118    1.500    0.333
       326  -9.5861    150.7296    103.1532   3.2941918097e+01   3.1136241378e+01    0.4699617    0.2806118 -66.20  0.001276636    2.362    0.577
       327  -9.3222    139.9906    104.4921   3.5851460880e+01   3.3284369419e+01    0.3627036    0.2624326  87.09 0.0008252822    1.884    0.469
       328  -9.9230     45.9666    102.2725   6.5570858302e+01   5.1432026985e+01    0.8041848    0.3745852  63.77  0.002522847    3.967    0.748
       329 -10.5778     22.7186    102.8451   7.4738917808e+01   5.3675422439e+01    0.6168916    0.3462971  68.61  0.001862423    2.106    0.525
       330  -8.6463    166.7828    104.0659   2.9701552295e+01   2.7317620376e+01     0.241413    0.1930666 -62.83 0.0005899897    1.297    0.229
       331  -8.5616      6.8441    102.8434   8.0896204325e+01   5.4801803744e+01    0.1892736    0.1403427  70.32  0.000568042    1.337    0.252
       332  -9.1365    128.3709    101.7912   3.8075663480e+01   3.6500698262e+01      0.29637    0.2409963 -87.38  0.000673805    1.423    0.297
       333  -8.3208    159.9505    100.9694   3.0316510981e+01   2.9488356626e+01    0.2462477    0.1779827 -69.22 0.0004700115    1.642    0.391
       334 -10.0090    108.6174     98.5231   4.2725753384e+01   4.1586552034e+01    0.5301803    0.3537303  75.15 0.0009229068    2.172    0.540
       335  -8.6701     82.0566     99.9911   5.1714234921e+01   4.6499950565e+01    0.2530515    0.1870964  85.00 0.0008291147    1.713    0.416
       336  -8.9005     94.9839     96.8751   4.6518428309e+01   4.4801955760e+01    0.2749763    0.2202032 -60.54 0.0005500879    1.235    0.190
       337  -9.4788     63.8978     95.9104   5.7223891862e+01   5.0609429354e+01    0.4924278    0.3009512  80.29  0.001724371    2.697    0.629
       338  -8.6150    164.9814     94.2500   2.7459928000e+01   2.9678577569e+01    0.2919438    0.1784257 -53.85   0.00077766    1.678    0.404
       339  -7.9381    188.5157     93.5033   2.2883277737e+01   2.4495628198e+01    0.1503513    0.1316744 -56.54 -2.654619e-05    1.060    0.057
       340  -8.3392    176.4819     93.0514   2.4907950981e+01   2.7273929631e+01    0.2309483    0.1367569 -44.28 0.0005915361    1.552    0.356
       341  -9.2794    139.0543     92.0896   3.2614155676e+01   3.6168739033e+01    0.3729648    0.2614105 -78.60  0.000889242    1.919    0.479
       342  -8.2318    157.8336     91.7850   2.8264046278e+01   3.1827888882e+01    0.2181808    0.1745178 -68.85  0.000535829    1.329    0.247
       343  -9.8611    125.0322     90.7931   3.5816186824e+01   3.9700555379e+01     0.481848    0.3365706  71.28  0.002047612    1.763    0.433
       344  -7.9735    107.3122     92.3448   4.1333214600e+01   4.3308914049e+01    0.1612735    0.1285709  -9.15 0.0007046377    1.708    0.414
       345  -8.9233      5.0243     92.0077   8.0339904233e+01   5.7757755697e+01    0.2219299    0.1373371  61.90  0.000787949    1.758    0.431
       346  -9.0672     35.0102     89.9859   6.7405446649e+01   5.5936749591e+01    0.4053637    0.2218178  86.13  0.001204851    2.627    0.619
       347  -7.9340    151.2243     88.9909   2.8906062299e+01   3.3941732112e+01    0.2045809    0.1241925 -42.32 0.0003723144    1.580    0.367
       348  -9.5650     86.4921     86.5505   4.6357100435e+01   4.8964878327e+01    0.4543033    0.3049033  86.91  0.001281353    2.411    0.585
       349  -9.3070     48.6872     84.4560   6.0332396413e+01   5.5742181458e+01     0.444936    0.2462395  69.25  0.001561563    3.340    0.701
       350  -8.5344    158.0984     83.7807   2.5954331901e+01   3.3332302877e+01     0.236575     0.197019 -75.42  0.000504336    1.255    0.203
       351  -9.4545    104.7692     82.9513   3.9247968148e+01   4.5995815871e+01    0.3785608    0.2789834 -74.46 0.0008959406    1.679    0.404
       352  -9.0242    140.8732     82.2329   2.9282432670e+01   3.7766134229e+01    0.3806612    0.2001577 -50.91 0.0008933671    1.958    0.489
       353  -8.1974    167.4379    114.0129   3.2109767273e+01   2.5156871200e+01    0.2320516    0.1423936 -43.39 0.0005262725    1.533    0.348
       354  -8.8007     10.1952     80.9285   7.6527971937e+01   6.0349438496e+01    0.2713023    0.1246277  47.62  0.001163012    2.600    0.615
       355  -8.5360    150.4002     80.2887   2.6563100143e+01   3.5854151132e+01    0.2188489    0.1381149 -50.29 0.0004871723    1.554    0.356
       356  -8.4175    119.4189     80.2082   3.4109573935e+01   4.3272731867e+01    0.2277595    0.1437996 -55.53 0.0006552723    1.686    0.407
       357  -8.2684     74.5798     80.1062   4.8692049097e+01   5.2741760664e+01    0.2144953      0.13359 -77.01 0.0008040279    2.487    0.598
       358  -8.2084    166.9380     79.3190   2.2946006789e+01   3.2061580077e+01    0.2057453    0.1906491 -64.04   0.00046383    1.012    0.012
       359  -7.9990    184.2166     77.9130   1.9522418216e+01   2.8251755399e+01    0.2045856    0.1098344 -40.12 0.0008679527    1.689    0.408
       360  -9.1591     24.7659     80.7790   6.9917252133e+01   5.9318530927e+01    0.3718673    0.2173195  73.26  0.001122531    2.335    0.572
       361  -8.0288    157.4321     76.4584   2.3973886358e+01   3.4877892886e+01    0.1567948      0.13935 -67.70 6.497547e-05    1.075    0.069
       362  -9.3320    128.1687     75.1990   3.0206295673e+01   4.2228929775e+01    0.3819549    0.2484922 -60.74  0.000706038    1.765    0.434
       363  -8.5859    140.6289     75.1362   2.7181243237e+01   3.9221725238e+01    0.2501597    0.1783663 -57.74 0.0006812886    1.452    0.311
       364  -9.6284     63.1263     73.8339   5.1221671488e+01   5.6211928386e+01    0.4010958    0.2504621 -69.12 0.0009863353    1.986    0.496
       365  -9.3274     82.5030     72.5737   4.3303362350e+01   5.2976802861e+01    0.3950372    0.2747467 -76.50  0.001110897    2.026    0.506
       366  -8.5925    163.4497     72.8119   2.1742450903e+01   3.4083370125e+01    0.2902848    0.1344729 -42.78  0.001113413    2.004    0.501
       367  -7.9740    151.6472     73.3100   2.4221323844e+01   3.6872560823e+01     0.164178    0.1154865 -75.18 0.0007044128    1.722    0.419
       368  -8.3246    115.7757     72.8124   3.2732969118e+01   4.5656792886e+01    0.2153534    0.1801637 -79.64 0.0005017871    1.322    0.244
       369  -8.3565    106.0062     71.8693   3.5257263617e+01   4.8108300717e+01    0.2464291    0.1860045 -79.54 0.0007188537    1.685    0.407
       370  -8.9131     95.0833     70.8014   3.8342430858e+01   5.0755650889e+01    0.3476744    0.2079733 -59.95 0.0008861687    2.026    0.506
       371  -9.0117     51.4960     69.7744   5.4895578061e+01   5.8977158954e+01    0.3960396    0.2282514 -75.20  0.001474667    2.580    0.612
       372  -8.6247     16.9713     70.0337   7.1278430557e+01   6.2677254658e+01    0.2121239     0.148874  64.59 0.0008129801    1.726    0.421
       373  -8.8867    147.1685     67.9560   2.3523224320e+01   3.8957765103e+01    0.3173303    0.1904378 -52.36 0.0008228787    1.702    0.413
       374  -8.6061    138.7990     66.0824   2.4750015644e+01   4.1373456729e+01    0.2472628    0.1954291 -67.44 0.0007742734    1.329    0.248
       375  -8.7227    121.7634     65.6987   2.8740121990e+01   4.5629320117e+01    0.2903794    0.1854262 -63.40 0.0007063263    1.949    0.487
       376  -8.6770    110.1332     63.6507   3.1210969172e+01   4.8802975054e+01    0.2627421    0.2043545 -58.40 0.0006801994    1.357    0.263
       377  -8.2978     37.4150     64.1994   5.9698721780e+01   6.2160557776e+01    0.1986548    0.1295781 -73.49 0.0009368624    1.776    0.437
       378  -7.9275    158.4285     61.5265   1.9332608554e+01   3.7287197056e+01    0.1516105    0.1378415 -67.78 3.601017e-05    1.013    0.013
       379  -9.4129     73.4090     59.6273   4.2119938204e+01   5.7553458310e+01    0.3437221    0.2406482 -59.00  0.001080157    1.604    0.377
       380  -9.9085    248.4826     58.5176   6.9465857530e+00   1.7733506199e+01    0.3119101    0.2097224  14.52  0.001484126    3.313    0.698
       381  -8.5868     97.6438     60.3090   3.3782224179e+01   5.2332786314e+01    0.2743476    0.1830271  62.14  0.001012776    1.688    0.408
       382  -8.2759    130.6081     57.7077   2.3859128329e+01   4.4910152232e+01    0.2107455    0.1372172 -48.22 0.0005780702    1.536    0.349
       383  -9.4838     23.6612     56.3214   6.4334073845e+01   6.5475170695e+01    0.4490787    0.2672198  80.71  0.001890927    2.938    0.660
       384  -8.6829      7.9376     57.3208   7.3112915262e+01   6.6395559669e+01    0.2313389    0.1654696  76.15 0.0009075513    1.686    0.407
       385  -8.2754    140.3571     56.1851   2.1199908194e+01   4.2724136945e+01    0.2171947    0.1307262 -46.94 0.0004287797    1.636    0.389
       386  -8.7611    119.1506     55.7206   2.5960833810e+01   4.8098621744e+01    0.2656521     0.196866 -54.50 0.0006335845    1.403    0.287
       387  -8.4747     44.4372     55.6867   5.3422711285e+01   6.3227284473e+01    0.2514459    0.1328978 -57.85 0.0007371834    1.936    0.483
       388  -8.8046     62.9434     54.6807   4.4523607151e+01   6.0517906505e+01    0.2711395    0.2008235 -53.74 0.0006657743    1.400    0.286
       389  -8.3138     54.3956     54.1922   4.8135036236e+01   6.2063743464e+01    0.2049272    0.1324278 -60.36 0.0009485823    1.768    0.434
       390  -8.3007    105.8223     53.0232   2.8595207296e+01   5.1799693203e+01    0.2532305    0.1649415 -64.79 0.0007354481    2.031    0.508
       391  -9.2684     92.6045     50.6477   3.1730359952e+01   5.5287627288e+01    0.3919829    0.2222765 -53.51  0.001189969    2.091    0.522
       392  -8.6624    172.0071     50.0388   1.3640286860e+01   3.5759399150e+01    0.2087214    0.1873284 -72.76            0    1.019    0.018
       393  -8.0746    129.7895     48.9629   2.1036605377e+01   4.6587222494e+01    0.1955542    0.1205725 -35.11  0.000445321    1.661    0.398
       394  -8.2516    144.5496     48.5280   1.7840289250e+01   4.2907470405e+01    0.1511053    0.1367659 -75.75 0.0002501397    1.038    0.036
       395  -8.3341    112.3652     47.1429   2.4584560159e+01   5.1230260760e+01     0.216741    0.1308863 -47.34 0.0009369503    1.725    0.420
       396  -8.8644     82.4068     46.7045   3.3615218843e+01   5.8243362599e+01    0.2712899    0.2262574 -82.01 0.0007710343    1.501    0.334
       397  -8.4029     45.2851     44.4755   4.8632935646e+01   6.5503527628e+01    0.2169245    0.1640266 -70.13 0.0005603939    1.742    0.426
       398  -8.1140     16.4436     44.2850   6.4652843263e+01   6.8871678773e+01    0.1736534      0.11894 -73.86  0.000937141    1.634    0.388
       399  -8.0675    132.7156     43.3227   1.8435513016e+01   4.6728885415e+01    0.1539782    0.1082503 -67.27 0.0002049794    1.596    0.374
       400  -8.5223     58.3076     42.6320   4.1586591042e+01   6.3740114884e+01    0.2515869     0.166199 -54.30  0.001215714    1.729    0.422
       401  -9.4400      5.4516     42.3172   7.0772184700e+01   7.0063121808e+01    0.2585767    0.1516009  53.98  0.001216529    2.419    0.587
       402  -8.9417     69.8455     41.5357   3.6170674825e+01   6.1769264864e+01     0.271194    0.2198312 -73.11   0.00107938    1.631    0.387
       403  -7.8049    140.4683     41.4531   1.6254828798e+01   4.5025862691e+01    0.1508729    0.1332648 -76.96 9.006476e-05    1.080    0.074
       404  -8.4432    106.0396     41.0641   2.3926843181e+01   5.3753610385e+01    0.2335969    0.1717839 -69.58 0.0005713238    1.664    0.399
       405  -8.1001     37.0047     40.5144   5.1323633507e+01   6.7480962811e+01    0.1723439    0.1108694  55.28 0.0005192044    2.296    0.564
       406  -8.3420     95.7009     38.1412   2.5681237106e+01   5.6684803319e+01    0.2295219    0.1726438 -54.24  0.000581214    1.477    0.323
       407  -7.9475     80.5458     36.5023   2.9896029988e+01   6.0388158717e+01    0.1384257    0.1367774  60.40 9.648936e-05    1.069    0.064
       408  -9.1791     26.2780     35.4931   5.5367526845e+01   6.9824021321e+01     0.244376    0.2141435  87.77 0.0007987516    1.547    0.353
       409  -8.1188    126.0240     35.5040   1.7028233760e+01   4.9581872402e+01    0.2158377    0.1384215  65.04  0.000435804    1.495    0.331
       410  -8.5391    111.9856     34.9195   1.9974299740e+01   5.3211201971e+01    0.2350422    0.1677512 -68.32 0.0006347683    1.678    0.404
       411  -8.3125    119.1668     33.0910   1.7599936151e+01   5.1662818770e+01    0.2045293    0.1608111 -60.27 0.0005799633    1.342    0.255
       412  -8.6009     48.5341     33.1743   4.1891481016e+01   6.7163986502e+01    0.1955508    0.1845144  75.93 0.0006553207    1.342    0.255
       413  -8.4841     60.6941     32.3663   3.5784433786e+01   6.5134766361e+01    0.1965106    0.1639644 -85.06 0.0006860144    1.705    0.413
       414 -10.3956    249.4726     29.2138   5.5677017564e-01   2.1407742605e+01    0.3702074    0.2419919  -9.93    0.0019719    2.612    0.617
       415  -8.4414     72.4653     31.0644   3.0353622252e+01   6.2980990518e+01    0.2040847    0.1340449 -37.64  0.001009685    1.560    0.359
       416  -8.3123     13.3968     31.1297   6.1802128024e+01   7.1978141345e+01     0.169242    0.1145243 -69.11 0.0009384374    1.709    0.415
       417  -8.1767    101.6747     29.3205   2.0302585464e+01   5.6539350195e+01    0.1474523    0.1082431 -71.34 0.0004839553    1.680    0.405
       418  -8.8328     81.5709     27.3748   2.5379247358e+01   6.1540543973e+01    0.2898987    0.2053871 -65.02  0.001042899    1.940    0.484
       419  -9.0259      3.7020     27.5336   6.7183565353e+01   7.3417449259e+01    0.1926721    0.1437892 -87.93 0.0008228036    1.759    0.431
       420  -9.2635     91.1184     25.6083   2.1602254597e+01   5.9576447607e+01    0.4859635    0.2805507 -66.13  0.001891232    3.000    0.667
       421 -10.2456    248.7002     22.4200   3.5916134036e+02   2.2381546377e+01    0.2907865    0.2023482  49.73  0.001791271    2.136    0.532
       422  -8.3521     34.6752     23.2872   4.4395696677e+01   7.1060303922e+01    0.1159242    0.1041782  74.17 0.0002854171    1.606    0.377
       423  -8.4220    104.4943     22.5451   1.6738697847e+01   5.6719746698e+01    0.1401228    0.1306403  74.89 0.0002246802    1.037    0.036
       424  -8.8005     48.6918     21.6813   3.5891013569e+01   6.9055237576e+01    0.2298097    0.1884884 -81.97 0.0006428539    1.942    0.485
       425  -8.4852    120.8367     21.5839   1.2832780708e+01   5.2708951174e+01    0.1851698    0.1285605  82.80 0.0002675194    1.478    0.323
       426  -8.8461     63.8003     20.9470   2.8703499903e+01   6.6266308305e+01    0.2331138    0.1809825 -52.47 0.0009385844    1.577    0.366
       427  -9.1380     18.4444     21.1334   5.3748740346e+01   7.3491796713e+01    0.2365959    0.1478477  40.64 0.0006444851    1.964    0.491
       428  -8.9009     74.0036     19.3930   2.4074328964e+01   6.4301036461e+01    0.2507139    0.1812757 -48.25 0.0007804821    1.613    0.380
       429  -8.0397     38.7662     18.0314   3.9094570668e+01   7.1299268733e+01    0.1639869    0.1009827 -36.56 0.0005158591    1.596    0.373
       430  -7.7351     15.2962     18.2716   5.4516462346e+01   7.4349542626e+01    0.1237044   0.08054563 -19.88 0.0006933376    1.522    0.343
       431  -8.3189     87.7306     17.3834   1.8785962416e+01   6.1404082544e+01    0.2063617    0.1540761 -71.98 0.0007420697    1.707    0.414
       432  -8.0521    112.8124     16.6201   1.2453189989e+01   5.5317041145e+01    0.1923021    0.1256798  79.44 0.0003369421    1.568    0.362
       433  -8.3963     97.3638     15.1635   1.5245236958e+01   5.9332640443e+01    0.1891787    0.1206008 -39.19 0.0004842431    1.669    0.401
       434  -8.1290     30.3030     15.7074   4.2778785886e+01   7.2955675008e+01    0.1094468    0.1022716  81.31 0.0003868687    1.573    0.364
       435  -9.1306      7.2289     15.3775   5.9194409715e+01   7.5622197461e+01    0.1602929    0.1023277  28.95 0.0009497581    1.732    0.423
       436  -8.6788    218.3378    247.6855   4.7766961915e+01  -5.7137221820e+00    0.1555077    0.1012114 -32.26  0.001079799    1.629    0.386
       437  -8.5657    218.6925    244.6723   4.7274505027e+01  -5.3913623041e+00    0.1806355    0.1235587  -2.38  0.001047676    1.226    0.184
       438  -9.2735    175.4335    247.2286   5.5376554531e+01  -4.7762660950e-01    0.2132877    0.1863509  79.61  0.001098019    1.950    0.487
       439  -9.4341    156.2433    247.3332   5.9066093089e+01   2.0057700448e+00    0.2694285    0.1745657 -25.29  0.001097155    1.872    0.466
       440  -8.2083    113.0000    248.0371   6.7818979873e+01   7.6902453652e+00    0.1631566   0.07010172 -59.19 0.0007180015    2.904    0.656
       441  -9.4810    103.6745    246.5093   6.9585164766e+01   9.1948380930e+00     0.387196    0.2173214 -89.72  0.001886825    3.129    0.680
       442  -8.6412     92.8634    248.6208   7.2013948378e+01   1.0255789234e+01    0.1877785   0.08163132  42.02 0.0009510711    1.777    0.437
       443  -9.7020     64.1119    248.6182   7.7925406315e+01   1.3892301454e+01    0.2803344   0.09062506  33.35  0.001256132    2.465    0.594
       444  -8.8636     34.7244    247.6843   8.3815028307e+01   1.7467750473e+01    0.2567886   0.06835694  47.00  0.001173898    2.469    0.595
       445  -8.9161     22.1123    248.1919   8.6327494336e+01   1.8712469076e+01    0.1720688   0.09182248  53.82 0.0006209112    1.364    0.267
       446 -10.4425    223.9816    243.1157   4.6158670793e+01  -5.8007609057e+00    0.5016484    0.2132374 -38.98  0.002825108    2.533    0.605
       447 -10.4786    147.0860    244.6576   6.0538015870e+01   3.6329202246e+00    0.3514248    0.2489965 -13.35  0.001258682    1.735    0.424
       448  -9.3502     75.6971    247.5589   7.5466332973e+01   1.2647968932e+01    0.2365552     0.102885  29.23  0.001146729    2.157    0.536
