#   1 NUMBER                 Running object number                                     
#   2 MAG_AUTO               Kron-like elliptical aperture magnitude                    [mag]
#   3 X_IMAGE                Object position along x                                    [pixel]
#   4 Y_IMAGE                Object position along y                                    [pixel]
#   5 X_WORLD                Barycenter position along world x axis                     [deg]
#   6 Y_WORLD                Barycenter position along world y axis                     [deg]
#   7 A_WORLD                Profile RMS along major axis (world units)                 [deg]
#   8 B_WORLD                Profile RMS along minor axis (world units)                 [deg]
#   9 THETA_WORLD            Position angle (CCW/world-x)                               [deg]
#  10 FWHM_WORLD             FWHM assuming a gaussian core                              [deg]
#  11 ELONGATION             A_IMAGE/B_IMAGE                                           
#  12 ELLIPTICITY            1 - B_IMAGE/A_IMAGE                                       
         1 -15.6934    177.2717    146.0417   9.3853900491e+01   1.7189041823e+01     4.802767     4.219786 -33.45   0.02536763    1.104    0.094
         2  -9.8082    193.6758     11.3351   5.8843245016e+01   3.4807804076e+01    0.1269699   0.07854114 -70.90 0.0007051028    1.713    0.416
         3 -11.9636    247.2939    247.5811   1.0031545421e+02  -1.2560282572e+01     0.794341    0.4950378   3.18  0.004750537    1.555    0.357
         4 -10.8479    168.6326    203.6309   1.0784111233e+02   7.0831410176e+00    0.2910254    0.2187712  52.36  0.001486709    1.493    0.330
         5 -10.4589    150.5544    201.0302   1.1133991902e+02   1.0878513826e+01    0.2853626    0.1988072  54.14  0.001373028    1.612    0.380
         6 -10.7176    139.6847    199.7736   1.1356220716e+02   1.3099848538e+01     0.308237    0.2652149 -86.62  0.001183455    1.386    0.279
         7 -11.4340    148.2319    195.2883   1.1079310055e+02   1.2498209907e+01    0.3415401    0.3272641   9.53   0.00140184    1.024    0.023
         8 -10.9523    139.4310    191.7402   1.1213932306e+02   1.4862693149e+01    0.3363014    0.2595709 -74.45  0.001657304    1.622    0.384
         9 -11.4485    140.4335    186.2741   1.1086532588e+02   1.5862947730e+01    0.3772226    0.2747607 -55.66  0.001380366    1.456    0.313
        10 -11.7481    155.3853    190.5107   1.0825863008e+02   1.2180675849e+01    0.3043225    0.2602465 -89.73  0.001182502    1.485    0.327
        11 -10.0134    128.1031    189.0258   1.1427289743e+02   1.7503625883e+01    0.3053986    0.2213413 -62.16  0.001489793    1.511    0.338
        12  -9.9465    139.7163    207.4230   1.1491328505e+02   1.1491627390e+01    0.2579535     0.178049 -62.18  0.001256464    1.696    0.410
        13  -9.9705    110.8541    184.5079   1.1755428269e+02   2.1540231166e+01    0.3042911    0.1812757 -39.03   0.00132704    1.930    0.482
        14  -9.4625    114.6496    139.4956   1.0738796748e+02   3.1231604474e+01    0.2653238    0.1392889 -48.86  0.001065051    1.853    0.460
        15  -9.3835    107.4075    140.2137   1.0947205324e+02   3.2388663373e+01    0.2160648    0.1417356 -61.20 0.0009471297    1.700    0.412
        16  -9.6177    126.4046    156.7933   1.0822839360e+02   2.5087268288e+01    0.2943739    0.1463926 -53.50  0.001121847    2.095    0.523
        17  -9.0627    110.5042    116.5096   1.0292580074e+02   3.7097697103e+01    0.1501694     0.141606 -16.19 0.0008105251    1.020    0.019
        18  -9.8785    104.4373    153.6907   1.1318857144e+02   2.9791086703e+01    0.2894952    0.1441323 -56.55  0.001134671    2.070    0.517
        19 -11.0569    128.8894    152.3995   1.0664484845e+02   2.5610203324e+01    0.3541644    0.2157841 -51.20  0.001101328    1.648    0.393
        20 -12.1987    138.1405    163.1706   1.0671045091e+02   2.1404888867e+01    0.6045981     0.323976 -58.07  0.002341351    2.221    0.550
        21  -9.6444    146.6066    112.9480   9.2756709433e+01   3.0494249381e+01    0.3366456    0.1449548 -42.01  0.001221303    2.305    0.566
        22 -12.5878    145.2714    180.5641   1.0861458985e+02   1.6202155201e+01    0.6512746    0.4173722 -73.99  0.002584567    2.560    0.609
        23 -10.3922    121.0318    182.2724   1.1469445430e+02   2.0274592759e+01    0.3717142    0.2501064  60.57  0.001682103    1.814    0.449
        24 -11.8746    146.3173    131.0617   9.7364124702e+01   2.6806389517e+01    0.4206733    0.2269596 -47.07  0.001480474    1.857    0.462
        25  -9.5931    132.5188    134.9557   1.0170844577e+02   2.8791025465e+01    0.2405441    0.1488903 -45.37  0.001030877    1.586    0.369
        26  -9.2819     96.5056    133.4395   1.1088898461e+02   3.5843048686e+01    0.2806406    0.1249048 -41.19   0.00103524    2.341    0.573
        27  -9.9404    122.5779    150.5166   1.0782208660e+02   2.7238904751e+01    0.4112693    0.1458533 -49.41  0.001337865    2.771    0.639
        28  -9.3397    103.4997    132.0233   1.0864151620e+02   3.4951898557e+01    0.2371871    0.1419247 -47.50  0.001033866    1.599    0.375
        29 -10.3041    119.3412    164.4615   1.1161166010e+02   2.4643747537e+01    0.3011205    0.1885974 -54.40  0.001137653    1.612    0.380
        30 -10.7065    128.8034    168.9019   1.1018325216e+02   2.1887209193e+01    0.3417227    0.2056237 -57.12  0.001459774    1.791    0.442
        31  -9.9882    111.5990    148.7149   1.1025587015e+02   2.9679410584e+01    0.2901526    0.1388905 -47.38  0.001123377    2.016    0.504
        32  -9.2577    154.5450    106.7555   8.9314091720e+01   2.9985893900e+01    0.2803261    0.1473182 -36.45 0.0009887675    1.968    0.492
        33  -9.7703    122.0148    127.6339   1.0263103407e+02   3.2475535385e+01     0.361823    0.2213026 -45.73  0.001367617    1.599    0.374
        34 -11.5583    134.8760    171.2625   1.0919377952e+02   2.0217609225e+01    0.4566162    0.2500132 -53.80  0.001877252    1.918    0.479
        35 -10.2862    117.2557    145.7144   1.0812003747e+02   2.9331253370e+01    0.3475282    0.2133549 -54.37  0.001502175    1.669    0.401
        36 -10.4283    134.3428    184.4605   1.1194234449e+02   1.7381496942e+01    0.2928623    0.1850718 -53.90 0.0009886335    1.646    0.392
        37 -10.3999    124.1000    161.8763   1.0988699587e+02   2.4360644748e+01    0.2347614    0.2092728  87.73 0.0008378718    1.274    0.215
        38  -9.9078    129.5515    174.2995   1.1109369912e+02   2.0529641391e+01    0.2834083    0.1470726 -55.17  0.001126205    2.052    0.513
        39 -11.0686    124.3696    142.9979   1.0566926326e+02   2.8601886621e+01    0.3577238    0.2149237 -41.49  0.001275176    1.662    0.398
        40  -9.4399    118.8637    172.4844   1.1334093634e+02   2.2888836943e+01    0.3041096    0.2011728 -71.36  0.001317911    1.949    0.487
        41 -10.9318    130.1506    158.6165   1.0768923942e+02   2.3962442188e+01    0.3048547    0.2226627 -41.03  0.001105438    1.371    0.271
        42  -9.4349    115.9849    122.4600   1.0294572758e+02   3.4771197798e+01    0.3085625    0.2057445 -30.47  0.001372085    1.649    0.394
        43  -9.9875    120.4454    157.7858   1.0993992205e+02   2.5974487424e+01    0.3702793    0.1408251 -47.36  0.001277109    2.560    0.609
        44 -10.8083    197.1464     29.3281   6.2448026216e+01   3.2131006476e+01    0.2602548   0.08616424  58.58  0.001088256    2.614    0.617
        45  -9.1893    103.6929    118.4594   1.0529822086e+02   3.7933990526e+01    0.2742094    0.1306612 -46.50   0.00107474    2.019    0.505
