#   1 NUMBER                 Running object number                                     
#   2 MAG_AUTO               Kron-like elliptical aperture magnitude                    [mag]
#   3 X_IMAGE                Object position along x                                    [pixel]
#   4 Y_IMAGE                Object position along y                                    [pixel]
#   5 X_WORLD                Barycenter position along world x axis                     [deg]
#   6 Y_WORLD                Barycenter position along world y axis                     [deg]
#   7 A_WORLD                Profile RMS along major axis (world units)                 [deg]
#   8 B_WORLD                Profile RMS along minor axis (world units)                 [deg]
#   9 THETA_WORLD            Position angle (CCW/world-x)                               [deg]
#  10 FWHM_WORLD             FWHM assuming a gaussian core                              [deg]
#  11 ELONGATION             A_IMAGE/B_IMAGE                                           
#  12 ELLIPTICITY            1 - B_IMAGE/A_IMAGE                                       
         1 -10.7940     18.3814      6.0436   1.0678528720e+02   7.0094667795e+01    0.8183768    0.6831585  56.15  0.005697822    2.781    0.640
         2 -10.2950      9.9024     18.8410   1.1590170134e+02   6.9065926166e+01     1.152143    0.4291326 -18.40  0.004048713    6.179    0.838
         3 -11.1338     23.9709     32.5406   1.1494273138e+02   6.5811366526e+01     1.786523     0.479084 -37.05  0.003244255    3.373    0.704
         4  -9.6149      2.1941     14.4927   1.1773752341e+02   7.0249422100e+01     0.431501     0.177003 -53.58  0.001884477    3.093    0.677
         5 -10.3953      5.1998      4.5634   1.1225853421e+02   7.1420019224e+01    0.4338348    0.3087115  -4.78  0.001418127    1.169    0.144
         6 -10.3164      4.5161     41.9533   1.2587935260e+02   6.5647338184e+01    0.7507163    0.2731856 -54.53  0.003751122    2.189    0.543
         7 -10.1681      7.1862     28.4184   1.2054415599e+02   6.7773471117e+01    0.2900376    0.2626129  -7.41  0.001018818    1.384    0.277
         8  -9.8792     60.7897     31.9203   1.0058206767e+02   6.1598133360e+01    0.9461586    0.3587839 -28.34  0.003723059    2.908    0.656
         9  -9.0110     67.7927      9.1651   8.9045637064e+01   6.3256391700e+01    0.3076916    0.1495393  47.73 0.0005455618    2.043    0.510
        10  -9.8708     63.0058     20.9909   9.5508436629e+01   6.2702635705e+01    0.4952463     0.289482 -47.41  0.001645297    2.640    0.621
        11 -10.1434     64.4831     13.4141   9.1902926866e+01   6.3347253115e+01    0.3895463    0.2880902 -26.56  0.002146035    1.420    0.296
        12 -10.4356     89.5673     38.2342   9.3563747402e+01   5.6000336507e+01    0.8391061    0.3136302  34.77   0.00315899    3.196    0.687
        13  -9.3088    110.0824     32.1841   8.5704374891e+01   5.2775333714e+01    0.6877794    0.2199303 -31.62  0.002540579    3.195    0.687
        14  -8.7740    102.4570      8.5828   7.9117210591e+01   5.6872609846e+01    0.3362184    0.2300312 -64.39  0.001002243    2.517    0.603
        15  -8.5925    104.2485      2.6370   7.6517219904e+01   5.7010596094e+01    0.3570596    0.1795499  30.80  0.001519826    2.065    0.516
        16  -9.4712    100.8007     32.2273   8.8175815759e+01   5.4656861190e+01    0.6934001    0.2195497 -28.56  0.002098389    3.463    0.711
        17  -9.1480    102.9604     21.2247   8.3622255522e+01   5.5516478106e+01    0.3953549    0.2169678 -32.99  0.001559279    1.958    0.489
        18  -8.2697    104.2103     15.3888   8.1182419591e+01   5.5869335014e+01    0.3675871    0.1954132  17.00  0.001656033    2.585    0.613
        19 -10.2014     79.1483     23.9892   9.1411981591e+01   5.9699887930e+01    0.6925358    0.2743158  33.81  0.002615913    2.753    0.637
        20  -8.4324     57.7386      7.4293   9.1671695293e+01   6.5029145624e+01    0.2986625    0.1373685  18.56  0.001349833    2.999    0.667
        21  -9.0817     47.4047     18.9623   1.0032661450e+02   6.5176619655e+01    0.5021501    0.2469111 -10.22  0.002332401    2.909    0.656
        22  -9.7537     52.6792     13.5690   9.6101451148e+01   6.5107006709e+01    0.5024658    0.2767462  27.24  0.002600985    1.705    0.413
        23 -10.1398     46.2297     29.5599   1.0501010906e+02   6.3891810484e+01    0.4546507     0.243705 -46.04   0.00104224    2.211    0.548
        24  -9.7330    132.6443     17.8444   7.5712590855e+01   4.9432076591e+01    0.4950369    0.2968637  21.58  0.002045544    2.136    0.532
        25  -9.3420    118.7999     21.5074   7.9888990781e+01   5.2147716688e+01    0.2823308    0.2170472 -23.54  0.001175622    1.404    0.288
        26  -8.6733    120.2883     16.0001   7.7670633923e+01   5.2389027975e+01    0.3002254    0.1955492   4.65  0.001580775    1.866    0.464
        27  -9.1026    115.1410      4.1632   7.4685619188e+01   5.4583038311e+01     0.307855    0.2405821 -62.00  0.001571144    1.727    0.421
        28  -8.6473    112.1587     15.6869   7.9387461295e+01   5.4178253431e+01    0.2703063    0.1689019 -31.87 0.0006074578    1.764    0.433
        29  -9.3407    113.9507     10.0226   7.6988532887e+01   5.4332435488e+01      0.47511      0.19108  40.02 0.0004437243    2.406    0.584
        30  -8.2361    110.2950      7.6719   7.6969298681e+01   5.5321438613e+01    0.2062405    0.1793374 -60.76 0.0004508601    1.497    0.332
        31  -8.7607    111.3153      4.3460   7.5563831984e+01   5.5387994096e+01    0.2589754    0.1486368  15.94  0.001295157    2.112    0.526
        32  -8.3918     78.8436      3.1697   8.3211883654e+01   6.1903912058e+01     0.227755    0.1877876 -30.38 0.0008225079    1.485    0.327
        33  -9.8064     73.3559     18.1336   9.0927996302e+01   6.1372508085e+01    0.7477424    0.1866727 -32.54  0.002280122    3.881    0.742
        34  -7.7092     75.2780     10.3511   8.7187996310e+01   6.1868734881e+01    0.2116906    0.1346616  -9.72 0.0007918812    1.570    0.363
        35  -8.1289     72.3934      8.4901   8.7312315090e+01   6.2549810683e+01    0.1489015    0.1380722 -26.81 -9.23422e-05    1.427    0.299
        36  -8.1261     77.0051      6.7581   8.5207039057e+01   6.1910841742e+01    0.2340293    0.1523542 -17.82 0.0009882144    1.540    0.351
        37  -9.2622     96.1014      5.2045   7.9410297679e+01   5.8450326687e+01    0.5162823    0.2837575 -31.58  0.002529657    2.042    0.510
        38 -10.6328     36.8851      9.1131   1.0024341565e+02   6.7709766942e+01    0.7149575    0.2759061 -38.81  0.002322137    2.794    0.642
        39  -9.5827     85.0811     12.9460   8.5335043859e+01   5.9849812403e+01    0.3588423    0.2510922 -54.34  0.001482424    2.351    0.575
        40  -7.8260     80.4779     12.5505   8.6513340284e+01   6.0728829463e+01    0.2200161    0.1286955 -43.77  0.001152279    2.409    0.585
        41  -9.6297    233.1300     11.6640   6.0354110416e+01   2.6153172297e+01    0.3292481    0.2342575 -41.46 0.0009993672    1.448    0.310
        42  -8.0313    141.3332     12.2835   7.2298778988e+01   4.7968209350e+01    0.2098792     0.165431 -12.06 0.0005699286    1.462    0.316
        43  -8.6889    133.3699     11.9878   7.3673280351e+01   4.9837393143e+01    0.3210113    0.1630723 -48.66  0.001395942    2.661    0.624
        44  -8.1428    131.0011      6.7239   7.2414772716e+01   5.0851449646e+01    0.2459695    0.1922611  30.78  0.001061082    1.273    0.214
        45  -8.3525    125.8343      4.5630   7.2681627968e+01   5.2199081665e+01    0.2282188    0.1694966  36.38 0.0006623495    1.257    0.204
        46  -8.5507    125.0262     13.0203   7.5661348503e+01   5.1627736298e+01    0.2117731    0.1847647 -17.84 0.0008635665    1.271    0.213
        47  -8.6280    126.7222      9.0181   7.3986839720e+01   5.1616011262e+01    0.2990685    0.1914577  41.50 0.0005555392    1.417    0.294
        48  -8.9003    121.6475      5.9575   7.3969020924e+01   5.3012235647e+01    0.3851534     0.230651  76.65  0.001567183    2.053    0.513
        49  -8.5813     85.1417      6.4770   8.2772062575e+01   6.0453790592e+01      0.25878    0.1556058  22.61  0.001461944    1.639    0.390
        50  -7.4475    205.4205      6.5667   6.1914038252e+01   3.3155970425e+01    0.1280113    0.1066993 -89.83 9.017876e-05    1.006    0.006
        51  -7.8963    143.1859      5.1623   6.9775207116e+01   4.8179184678e+01    0.1692741    0.1437055 -75.28 0.0005180815    1.335    0.251
        52  -8.5611    135.3005      2.2123   7.0194985704e+01   5.0248792027e+01    0.3638152    0.1873635  33.88  0.001750581    2.179    0.541
        53  -8.5490     89.0608      2.4309   8.0133246875e+01   6.0060272272e+01    0.2025833    0.1441543   4.62 0.0006895413    1.397    0.284
        54  -9.6433     63.7791      3.0734   8.7765652417e+01   6.4501145410e+01    0.3117265    0.2409168 -36.28  0.001595899    1.708    0.415
        55  -7.2542    181.6397    114.7450   9.3616425592e+01   2.2178534727e+01    0.1563329    0.1226489  19.81 0.0006964019    1.619    0.382
        56 -11.0971    201.4520    249.1517   1.1693819903e+02  -6.5959165223e+00    0.8357037    0.2397622  44.30  0.003241285    3.124    0.680
        57 -10.3301     62.8394     95.6902   1.1981621734e+02   4.9649548109e+01      0.63866    0.4152314  87.22  0.001533637    2.948    0.661
        58  -8.5333     63.6926     86.8261   1.1729131690e+02   5.1432666083e+01    0.4503515    0.2025402 -31.11  0.001655614    3.324    0.699
        59  -9.7423     65.7935    110.9774   1.2250501706e+02   4.5856310319e+01    0.4004838    0.2977482 -83.33   0.00118036    1.621    0.383
        60  -9.2725     59.6365    110.0387   1.2408708939e+02   4.6862449964e+01    0.5507385    0.3450261 -84.32  0.002374391    2.342    0.573
        61  -9.4478     36.3063    111.5765   1.3113668543e+02   4.9077731102e+01    0.3071451    0.1920596  80.29  0.001536566    2.303    0.566
        62  -8.9098     14.0211    105.0399   1.3635589198e+02   5.2372294752e+01    0.2457834    0.1640857 -49.08 0.0007777373    1.302    0.232
        63  -8.8434    158.7654    111.8010   9.7906478049e+01   2.8129814308e+01    0.3006251    0.2099774 -53.79 0.0004898702    1.498    0.332
        64  -9.8553     14.0266    111.2030   1.3733196343e+02   5.1010439010e+01    0.3930616     0.223397  80.74  0.001464875    2.400    0.583
        65 -10.9054     44.4765    102.4282   1.2693692471e+02   5.0313656852e+01    0.8296796    0.4850852  70.78   0.00294465    3.288    0.696
        66 -10.4529     32.7421     63.6843   1.2138836240e+02   5.9538108030e+01     1.202653    0.4651199 -29.23  0.004489645    4.088    0.755
        67 -10.7798     20.6397    101.1569   1.3377726688e+02   5.2743815247e+01    0.9309786    0.4846359  82.65  0.003322259    3.937    0.746
        68 -10.1526     19.5399     85.8010   1.3116557921e+02   5.6134642038e+01     1.083605    0.2229202 -56.33  0.004088478    3.069    0.674
        69 -10.3011     25.4825     78.1347   1.2756043094e+02   5.7278580322e+01    0.5473649    0.3809636  83.12  0.001825217    2.293    0.564
        70 -10.0171     34.5098     90.8457   1.2750431345e+02   5.3827271984e+01    0.5814773    0.2722625 -72.65  0.001621038    3.046    0.672
        71 -10.3041     36.3632     81.2925   1.2471072517e+02   5.5675459460e+01      1.05377      0.50603 -11.81  0.003758425    5.072    0.803
        72  -9.0935     40.0381    107.2437   1.2923249986e+02   4.9690414956e+01    0.1723009    0.1515329 -57.19 0.0004236027    1.060    0.057
        73  -9.9145    139.5624    103.2245   1.0022752978e+02   3.4273034792e+01    0.7742146    0.3504403 -44.78  0.001490133    2.183    0.542
        74  -8.1829     82.1168     94.2460   1.1359384074e+02   4.7202067996e+01    0.3538468    0.2286579  -1.94  0.001513784    2.556    0.609
        75  -8.0575     77.9820    105.5213   1.1768716733e+02   4.5367940674e+01     0.335779    0.1847519 -20.71  0.001147597    3.906    0.744
        76  -9.3870     81.4800    100.3889   1.1538265060e+02   4.5971477943e+01     0.405275    0.2587798 -66.04 0.0009316849    1.874    0.466
        77  -9.7134      5.7700    103.8156   1.3849550247e+02   5.3178224242e+01    0.4162657    0.3043904  60.62  0.002215457    1.697    0.411
        78  -8.6384    165.8798    103.9037   9.4210786872e+01   2.8084834778e+01    0.3141332    0.2151985 -46.59 0.0003952229    1.455    0.313
        79 -10.0730    149.5037    102.1933   9.7525901468e+01   3.2246446824e+01    0.8099508    0.3461559 -40.11  0.001382137    2.368    0.578
        80  -7.7888     73.8523    102.3234   1.1812297150e+02   4.6685657033e+01    0.3519911    0.1339613 -45.08  0.001346158    2.449    0.592
        81  -9.2603    159.0750    100.8414   9.4924513334e+01   3.0301690127e+01    0.4812824    0.2321846 -46.60 0.0007679161    2.107    0.525
        82  -8.9967    242.8106     97.3844   7.8453741516e+01   1.1385519184e+01    0.2830554   0.09622027 -40.42  0.001011949    2.595    0.615
        83  -9.4457     94.2527     97.2733   1.1082974196e+02   4.4554695154e+01    0.3268915     0.268924 -68.25 0.0005688135    1.375    0.273
        84  -8.7839     95.9050     91.0563   1.0864533820e+02   4.5579397132e+01    0.4670082    0.2959403  -6.95  0.001842993    2.814    0.645
        85  -7.4377    170.7798     95.9409   9.1009136432e+01   2.8487357549e+01     0.201342    0.1268435 -38.68 0.0003928024    1.597    0.374
        86 -10.2914      4.3768     89.7011   1.3661138111e+02   5.6290375727e+01    0.6064647    0.3123941 -86.67  0.001904246    2.674    0.626
        87  -9.5164      5.6006     79.1517   1.3429721570e+02   5.8424444194e+01    0.8423205    0.2735949 -31.47  0.003180204    4.866    0.795
        88  -9.5976     15.8708     70.8150   1.2911035033e+02   5.9480551359e+01    0.5191208    0.1913741 -52.78  0.001525905    1.955    0.488
        89  -7.5790    167.2111    114.0148   9.6560705653e+01   2.5710135717e+01    0.2092853    0.1257352 -42.01 0.0003865167    1.650    0.394
        90  -9.9509     17.0659     61.8054   1.2650024931e+02   6.1171082044e+01    0.7050204    0.3903162  26.99  0.004264572    2.166    0.538
        91 -10.9149     21.6235     53.8693   1.2268150973e+02   6.2331194552e+01    0.7115635    0.4740655 -73.54  0.002891252    2.304    0.566
        92 -11.1916    182.5662    246.8417   1.2009717705e+02  -3.1080519559e+00    0.5769478    0.2307483  43.74  0.002622697    2.114    0.527
        93  -9.7162     64.5067    103.2982   1.2113571827e+02   4.7756351672e+01    0.5704718    0.4991649  18.01  0.003163975    1.303    0.233
        94  -7.6129    117.4471    242.5202   1.3180805587e+02   8.6842987753e+00    0.1255533     0.104304  59.14 6.763359e-05    1.035    0.034
        95  -9.8854    155.0251    246.7106   1.2526369339e+02   1.6206642105e+00    0.2452811    0.1377688  45.75  0.001304746    1.482    0.325
        96 -10.1931     13.2170     45.3285   1.2342211701e+02   6.4497074447e+01    0.7199367    0.3331731 -17.12  0.002701019    2.846    0.649
        97  -9.9409    187.3060    233.5124   1.1712660506e+02  -1.8697143684e+00    0.4087853    0.2391585  52.59  0.001528123    1.828    0.453
        98  -9.6037      6.6122     32.6962   1.2220363532e+02   6.7109541002e+01    0.2126635    0.1414385  -1.67  0.000748366    1.528    0.346
        99  -8.5720     27.3909    230.8048   1.4687906295e+02   2.3650298972e+01    0.1783946    0.1493685  81.04 0.0009981209    1.273    0.214
       100  -9.7860    138.7126     91.9070   9.7303676481e+01   3.6765702102e+01    0.7069209    0.4120181 -38.22  0.001994293    1.737    0.424
       101  -8.7616    140.3636     83.1612   9.4389506258e+01   3.8085812457e+01    0.3584275    0.2517296 -60.38 0.0006258844    1.723    0.420
       102  -9.3813    140.3526     76.5904   9.2464970703e+01   3.9302819576e+01     0.737963     0.334597 -42.11  0.001810287    2.225    0.551
       103  -7.3798    202.7917     94.3620   8.4275663678e+01   2.1071465036e+01    0.2030866    0.1381777  46.48 0.0002743254    1.564    0.361
       104  -9.2249    150.2245     89.4326   9.3826154241e+01   3.4618687638e+01    0.4324227    0.3022102 -33.34   0.00148394    1.500    0.333
       105  -9.0806    157.7099     90.2345   9.2326204380e+01   3.2706067314e+01    0.4581344     0.251812 -24.34  0.001659092    2.590    0.614
       106  -7.7942    116.1902     85.2219   1.0123846640e+02   4.2908532926e+01     0.211216    0.1925311  42.13   0.00069801    1.125    0.111
       107  -8.9608    109.8121     90.4080   1.0449613643e+02   4.3135747930e+01    0.3891399    0.2585201  16.05  0.001669263    2.157    0.536
       108  -8.7419    113.4874     88.9774   1.0306852259e+02   4.2703478698e+01    0.3409055     0.258017 -46.54   0.00159029    1.305    0.233
       109  -8.9064    163.2154     86.9535   9.0188402406e+01   3.2014858519e+01    0.3622102    0.2372259 -63.29 0.0007203748    1.960    0.490
       110  -7.8027    174.4067     89.2162   8.8427101076e+01   2.8889441386e+01    0.2233668    0.1397587 -50.03 0.0007037598    1.664    0.399
       111 -10.1688     85.1808     86.5991   1.1057687553e+02   4.8317616086e+01    0.4631876    0.3473293 -75.51 0.0009352645    1.873    0.466
       112  -9.3363     87.0935     78.9404   1.0778251409e+02   4.9544375199e+01    0.6033696    0.3376353  20.90  0.002037402    2.573    0.611
       113 -10.1625     47.8782     84.5854   1.2176824200e+02   5.3812716231e+01    0.4717604    0.3330969  87.01   0.00182544    2.337    0.572
       114  -9.1312     48.6890     77.4576   1.1965935049e+02   5.5194461499e+01    0.5484907    0.2915354   4.66  0.002350576    3.262    0.693
       115 -10.2258    103.8615     82.6073   1.0391380387e+02   4.5839372870e+01    0.5909119    0.2972067 -51.91 0.0008901372    2.232    0.552
       116  -9.3563    105.5313     71.2648   9.9992346189e+01   4.7673028120e+01    0.6544574    0.4289573 -25.41    0.0030121    1.672    0.402
       117  -9.1518    157.6942     83.1469   9.0339993511e+01   3.4043915980e+01    0.4139608    0.2598379 -34.74  0.001587228    1.660    0.397
       118  -7.6286     68.7804     84.3815   1.1502853541e+02   5.1251544742e+01     0.173485    0.1271695  16.76 0.0007474105    1.572    0.364
       119  -8.6424    170.1421     82.6936   8.7527899295e+01   3.1126085669e+01    0.3141181    0.2124617 -42.70  0.001424673    1.480    0.324
       120  -8.2459    149.6188     75.3514   8.9922771686e+01   3.7371928098e+01    0.3068202    0.2195427 -62.18 0.0007067823    1.706    0.414
       121  -7.5955     63.3995     82.1909   1.1613946470e+02   5.2433601092e+01    0.1804125     0.117871 -57.68 0.0004243501    1.580    0.367
       122  -9.1721    241.8880     81.2918   7.4903213885e+01   1.4304706562e+01     0.223894    0.1705821 -86.18  0.001188372    1.426    0.299
       123  -8.8636    118.9629     80.4638   9.9080711621e+01   4.3261370945e+01    0.3360498    0.2167685 -55.38 0.0006261556    1.832    0.454
       124  -8.1729    119.9848     75.9856   9.7458460636e+01   4.3889105837e+01    0.2626754    0.2132158  22.23 0.0007180194    1.330    0.248
       125  -9.0707     74.2295     79.3282   1.1188816728e+02   5.1495570741e+01    0.6086422    0.2291581 -49.00  0.002040974    2.490    0.598
       126  -7.8050     68.5397     79.9761   1.1387976626e+02   5.2185581011e+01    0.2061085    0.1196226 -47.44 0.0007207571    1.552    0.356
       127  -8.5469    150.1048     80.9484   9.1435415965e+01   3.6245654764e+01    0.3899958    0.2757674 -63.08  0.001338478    1.748    0.428
       128  -8.9140    166.2196     78.7195   8.7242625614e+01   3.2794161845e+01    0.2901828     0.212153 -25.91 0.0006115089    1.541    0.351
       129  -8.1163    184.1627     78.0655   8.3473671482e+01   2.8517184801e+01    0.2277412    0.2053807  17.89  0.000644748    1.295    0.228
       130  -8.7373    156.9615     76.1483   8.8505598979e+01   3.5485370572e+01    0.3730254      0.22734 -36.90 0.0008294034    1.677    0.404
       131  -8.4945    130.4229     64.6996   9.1290702572e+01   4.3621647442e+01    0.3912861    0.2277651 -45.66  0.001201028    1.849    0.459
       132  -9.3890    127.3522     75.2252   9.5296384140e+01   4.2454812660e+01    0.3784554     0.272636 -62.39 0.0008365989    1.774    0.436
       133  -9.1376    129.0280     69.0964   9.2999370910e+01   4.3179303657e+01    0.5545416    0.3382817  15.40  0.002092771    2.864    0.651
       134  -9.7565     81.5518     72.5378   1.0756724749e+02   5.1691526768e+01    0.3700355    0.2942558 -72.63 0.0009727462    1.770    0.435
       135  -9.0985     83.0438     64.8672   1.0469969703e+02   5.2870690666e+01      0.52363     0.317748  -8.53  0.002257877    2.547    0.607
       136 -10.5411     54.9880     70.8920   1.1572663897e+02   5.5766170355e+01    0.5359108    0.3754672  64.06   0.00125939    2.498    0.600
       137 -10.1482     62.1296     60.7437   1.1022240846e+02   5.6758472506e+01     0.594439    0.2671516  31.14  0.002728075    2.455    0.593
       138  -9.1247    115.2938     71.8999   9.7470732840e+01   4.5609424609e+01     0.566433     0.242001 -35.32  0.001399014    2.455    0.593
       139  -8.3085    162.5083     72.7674   8.6340062171e+01   3.4738669146e+01    0.2877714    0.2274579 -59.23  0.001033115    1.378    0.274
       140  -7.5320    186.7588     72.1843   8.1409101419e+01   2.8885064198e+01    0.1901086    0.1674873  33.33 0.0001964096    1.282    0.220
       141  -8.0969    169.4192     71.6233   8.4587817985e+01   3.3249338579e+01    0.2875047    0.1396504 -41.20 0.0009384324    2.066    0.516
       142  -9.6248    146.9230     68.1993   8.8427277719e+01   3.9248109000e+01    0.6714373    0.3080061 -37.87  0.001745318    2.211    0.548
       143  -8.5006    156.5806     69.5308   8.6674024281e+01   3.6724157340e+01    0.3363516    0.1511138 -31.41  0.001081515    2.516    0.603
       144  -9.7405     94.6922     68.1246   1.0216824124e+02   5.0271112123e+01     0.448579    0.2358354 -47.06  0.001053617    1.993    0.498
       145  -9.2008     97.2504     58.4770   9.8284644355e+01   5.1482766821e+01    0.7124308    0.3936596  -9.09  0.002551841    3.617    0.724
       146  -7.6549     23.2453     69.0258   1.2613610261e+02   5.9298042927e+01    0.1638899    0.1218501 -46.29 0.0003510265    1.062    0.058
       147  -9.2137    121.2702     66.2495   9.4111753260e+01   4.5354591497e+01    0.4106762    0.2723897 -57.38 0.0006962711    1.958    0.489
       148  -8.0861    121.8892     61.3870   9.2414283236e+01   4.6041203243e+01    0.2770286    0.1848952  34.81 0.0008507117    1.558    0.358
       149  -8.9368    138.1324     66.3762   8.9928775890e+01   4.1597620701e+01    0.3243925    0.2339268 -55.31 0.0006016038    1.613    0.380
       150  -8.1334    138.4624     62.4537   8.8650013705e+01   4.2173109159e+01    0.2354103    0.2158637  33.61 0.0007177641    1.069    0.065
       151  -9.3344    109.7826     63.9271   9.6475172134e+01   4.8132918072e+01    0.3451468    0.2577479 -61.50 0.0007265072    1.773    0.436
       152  -8.9265    110.8059     58.2222   9.4346633583e+01   4.8880340152e+01     0.404795    0.2895577  15.08  0.001192059    1.660    0.397
       153  -9.5959     54.6768     63.2642   1.1356235425e+02   5.7260325624e+01    0.3899203    0.3033481   0.41  0.001817991    1.332    0.250
       154 -10.0031    242.2418     60.4204   7.0118037237e+01   1.7545730766e+01    0.3059253    0.2618436 -65.13  0.000353508    1.018    0.018
       155  -9.6273    246.5843     55.9768   6.8608273417e+01   1.7249839578e+01    0.2916461    0.2358645  34.53 0.0009266691    1.731    0.422
       156  -8.5377    157.3768     62.8167   8.4541998877e+01   3.7642931624e+01    0.2727162    0.2485323 -59.12 0.0007338512    1.147    0.128
       157  -9.1135     49.3402     61.9212   1.1500592798e+02   5.8150139080e+01    0.2369273     0.107969 -54.46  0.001068711    2.392    0.582
       158  -7.7832    152.5979     60.8070   8.4965300450e+01   3.9115516281e+01    0.1989719    0.1348476 -47.15 0.0004979464    1.577    0.366
       159  -9.9058     72.9976     59.1350   1.0606816201e+02   5.5482681347e+01    0.4549978    0.2500051 -50.15 0.0007964757    2.045    0.511
       160  -9.7275     74.7076     51.1351   1.0281800009e+02   5.6575555061e+01    0.8361094    0.4438645  14.80  0.003394767    3.142    0.682
       161  -7.5911    164.4921     60.4789   8.2403728257e+01   3.6284176378e+01      0.14772    0.1390613  85.57 0.0008095687    1.059    0.055
       162  -8.8715    146.3163     59.0016   8.5796687251e+01   4.0896153995e+01    0.2889482    0.2335365 -39.34 0.0007383612    1.284    0.221
       163  -8.9272    147.4955     54.0415   8.4030384511e+01   4.1382745402e+01    0.3939805    0.2362326 -21.66  0.001725989    2.031    0.508
       164  -9.2997    129.2598     57.6083   8.9353878246e+01   4.5037611579e+01     0.545574    0.3392791 -14.65  0.002375361    2.145    0.534
       165  -8.9247     87.5086     58.4969   1.0123090900e+02   5.3231571105e+01    0.2496206    0.2212425 -57.57  0.000639757    1.399    0.285
       166  -8.9160    138.7689     56.9147   8.6868163510e+01   4.2986854114e+01    0.2888583    0.2196272 -36.17 0.0004890717    1.362    0.266
       167  -9.4387    118.2691     54.7974   9.1232565325e+01   4.7874593842e+01    0.4637248    0.3037351 -33.75  0.001580243    1.553    0.356
       168  -9.1788    121.1418     46.6473   8.7821758507e+01   4.8481843601e+01    0.3737671    0.2043013 -33.77 0.0004194014    1.887    0.470
       169  -8.2009    122.8205     40.7877   8.5466148838e+01   4.8933017617e+01     0.427368    0.2272183  14.60  0.001438385    4.088    0.755
       170  -9.2165     52.7129     37.7784   1.0568632284e+02   6.1848306171e+01    0.5798817    0.3730991 -41.70  0.003445634    1.579    0.367
       171  -7.0817    138.6794    215.2749   1.2392471329e+02   1.0125818309e+01    0.1379351    0.0973046  68.84 0.0003445206    1.574    0.365
       172  -7.4976     47.2723    208.5267   1.4147849610e+02   2.5828121383e+01    0.1401915    0.1163883  36.42 0.0009327381    1.583    0.368
       173 -10.0301     49.9694     54.1246   1.1233472664e+02   5.9491509396e+01    0.5373981     0.260439 -50.40  0.002339903    2.113    0.527
       174  -9.5333     55.6302     43.5726   1.0672085574e+02   6.0559075601e+01      0.65194    0.3266136 -11.42  0.002476775    3.980    0.749
       175  -9.9948      9.7689    207.5627   1.4829104910e+02   3.0167927815e+01    0.5007399    0.2801081  25.37  0.002956387    2.842    0.648
       176 -10.1344    172.7982    205.1548   1.1520607332e+02   5.6824155793e+00    0.2335592    0.2174468  46.84  0.000263307    1.038    0.037
       177  -9.7060    162.7432     53.0034   8.0583346419e+01   3.7857940755e+01    0.4767547    0.3227631 -35.06  0.001601803    1.548    0.354
       178  -9.3770    157.1986     47.9692   8.0192818978e+01   3.9942552555e+01    0.5987792    0.2317469 -44.18  0.002180879    2.873    0.652
       179  -9.3029     44.4266     53.0062   1.1397283757e+02   6.0329037247e+01    0.3475766    0.1718572 -36.62 0.0009167427    1.769    0.435
       180  -9.1185    105.3755     51.6094   9.3656180391e+01   5.1023107937e+01    0.6366006    0.2590482 -33.41  0.002537962    2.527    0.604
       181  -7.7119    139.3260     52.3074   8.5306890732e+01   4.3561512802e+01    0.2579945    0.1616161  35.71 0.0007609971    1.739    0.425
       182  -8.4945    142.0063     48.7587   8.3602559110e+01   4.3457934475e+01    0.2784141     0.213832 -27.62 0.0009880168    1.386    0.279
       183  -8.3360    243.0699     49.9212   6.7675894379e+01   1.8922687812e+01    0.1975864    0.1657622  27.72  0.001132249    1.717    0.418
       184  -9.0686    192.2173    194.5844   1.0926809969e+02   3.8994864876e+00    0.5832691    0.3289931 -66.68  0.002044652    3.871    0.742
       185  -9.0829    149.7473     47.0607   8.1428007775e+01   4.1867458130e+01     0.493263    0.1734432 -35.15  0.001093723    2.891    0.654
       186  -8.5868     39.7905     35.2073   1.0960664945e+02   6.3805891708e+01     0.304129    0.1853421  22.59  0.001396227    1.691    0.409
       187 -10.1327     37.7924     41.9987   1.1278696145e+02   6.2933644927e+01    0.4970164    0.3251847 -63.13  0.002680676    2.609    0.617
       188 -10.1685     35.8579     38.0113   1.1214176802e+02   6.3787309716e+01    0.3361348    0.1850707 -32.23 0.0003878631    1.540    0.351
       189  -9.7186    130.4875     45.7214   8.5254986867e+01   4.6543363545e+01    0.7878445    0.3513349 -19.75  0.002780464    3.444    0.710
       190  -8.6410    136.2186     26.9680   7.7937663595e+01   4.7625567851e+01    0.3702553     0.193746 -24.45  0.001641274    2.150    0.535
       191  -8.7767    132.9563     35.9900   8.1544278739e+01   4.7287856964e+01    0.3083802     0.244158 -45.30 0.0006045428    1.421    0.296
       192 -10.4048    133.9132     31.0630   7.9741151202e+01   4.7677293755e+01    0.2490634    0.2212424  40.51            0    1.035    0.034
       193  -8.6575    111.9589     46.8656   9.0262302167e+01   5.0399947832e+01    0.2360399    0.1942717 -39.79 0.0005279902    1.318    0.241
       194  -9.8661     69.3363     42.2884   1.0148696728e+02   5.8807772239e+01    0.6273865    0.2914926 -48.90  0.002057797    2.952    0.661
       195  -8.4473     71.3500     35.3172   9.8248512940e+01   5.9518188918e+01    0.3007214    0.1541749  32.40  0.001507532    1.963    0.490
       196  -7.8924    183.9005     45.8604   7.4786401834e+01   3.3662805431e+01    0.2070081    0.1810863  41.36 0.0002954424    1.251    0.201
       197  -7.3624    162.4704     46.4702   7.8730721667e+01   3.8869569493e+01    0.1427037    0.1334211  71.72  8.99216e-05    1.025    0.024
       198  -9.2453    139.5904     40.7649   8.1623170248e+01   4.5133381026e+01    0.6170759    0.3667824 -66.39  0.002299328    2.962    0.662
       199  -9.0514    138.4423     36.1550   8.0408698354e+01   4.6001294480e+01    0.2549036    0.2348736  82.22 6.320942e-05    1.177    0.151
       200  -7.7599    225.3084     42.6562   6.8122611942e+01   2.4037289730e+01    0.1472862   0.09115124 -66.92 0.0007044039    1.696    0.410
       201  -9.0744    153.1060     41.0161   7.8918275753e+01   4.1892094900e+01    0.3101357    0.2305979 -55.75  0.000744081    1.539    0.350
       202  -9.6491    144.9104     37.5899   7.9511512050e+01   4.4299586000e+01    0.6176783    0.3220488 -60.53  0.002253233    3.480    0.713
       203  -8.5814    113.7876     41.3551   8.7916171203e+01   5.0799202733e+01     0.393305    0.2422148  -0.23  0.001754741    2.327    0.570
       204  -9.4733    105.2514     39.2798   8.9460014234e+01   5.2842105863e+01    0.6160465    0.3052062 -24.45  0.002180792    2.259    0.557
       205  -7.3100    173.5746    190.4721   1.1233437562e+02   8.3445716132e+00    0.1423898    0.1355873  34.27 0.0001164495    1.023    0.022
       206  -7.7482    159.8016     39.0285   7.7047638123e+01   4.0531855054e+01    0.1809563     0.111769 -31.49 0.0008545322    1.744    0.427
       207  -8.7264    118.8283     34.8056   8.4426088364e+01   5.0587301506e+01    0.2604229    0.1803701 -31.53 0.0006951926    1.525    0.344
       208  -9.1247    101.0056    175.9914   1.2585611919e+02   2.5230158253e+01    0.2005724    0.1796959  86.42   -0.0106749    1.005    0.005
       209  -7.5472    230.0000    167.9854   9.6454328355e+01   1.3740351170e+00    0.2372631   0.07647822 -39.30 0.0008068118    2.973    0.664
       210  -7.5124     48.5681    167.1384   1.3660182491e+02   3.4881803757e+01    0.1682386    0.1018292 -58.60 0.0004203987    1.531    0.347
       211 -10.2436     85.0280     47.9737   9.8417513066e+01   5.5373977745e+01    0.3718544    0.2862534 -54.69 0.0009322767    1.724    0.420
       212  -7.7835    235.1624    155.8669   9.2906822242e+01   2.5296637922e+00    0.2003127    0.1632046  -4.08 0.0006880977    1.331    0.249
       213  -7.6634      1.7193    156.0219   1.4572632152e+02   4.1901594055e+01    0.1620308    0.1128167 -79.23 0.0003448686    1.068    0.064
       214  -8.8912    153.5028     34.9032   7.6998310915e+01   4.2587691800e+01    0.2177664     0.177429  59.47 0.0006919396    1.125    0.111
       215  -8.5014     70.0155     26.2813   9.5237789337e+01   6.0944059462e+01    0.2958882    0.1837694  17.44 0.0006489139    1.683    0.406
       216  -9.9533     76.1659     31.8130   9.5352216356e+01   5.9215888744e+01    0.3557324     0.302271  74.50  0.001329775    1.904    0.475
       217  -8.7256    119.1075    150.0704   1.1667720514e+02   2.7992555820e+01    0.2136107    0.2025308 -76.04 0.0002674286    1.022    0.021
       218  -9.0898     84.7014     21.8990   8.8920931143e+01   5.8957773745e+01    0.2539965    0.1971588   2.56 0.0006105299    1.202    0.168
       219  -8.8421    164.2757     94.4232   9.2012970950e+01   3.0337605491e+01    0.2915774    0.2402663 -65.64 0.0006311532    1.326    0.246
       220  -7.3025      4.0177    149.9903   1.4464538181e+02   4.3065551146e+01    0.1386794    0.1036147 -80.45            0    1.003    0.003
       221  -8.6963     45.0060     15.6969   9.9879835352e+01   6.5897853271e+01    0.3093579    0.1598539  30.70  0.001710887    1.857    0.461
       222  -7.9793    134.0000    149.0051   1.1281285650e+02   2.5308812664e+01    0.3556434   0.08598271 -49.47 0.0009543663    4.095    0.756
       223  -7.7744    133.4574    144.4126   1.1193431623e+02   2.6467660764e+01    0.2866598     0.144001 -60.69  0.001027163    2.441    0.590
       224  -9.7301     67.3100    144.3754   1.2865343371e+02   3.7847105963e+01     0.460627    0.3423249  83.70   0.00250019    1.456    0.313
       225  -8.2857     42.2421     28.0070   1.0594064927e+02   6.4599628434e+01     0.178547    0.1378123  -9.19 0.0003391395    1.042    0.040
       226  -8.4034    152.2924     29.6676   7.5644777938e+01   4.3517465362e+01    0.2123958    0.1274251 -34.59 0.0002811781    1.790    0.441
       227  -8.9285    151.1159     26.2962   7.4840663135e+01   4.4191519242e+01    0.3428643    0.1887742 -82.70  0.001246832    3.603    0.722
       228  -8.6768     91.8071     21.0152   8.6537632234e+01   5.7734775855e+01    0.2656373    0.1490396  34.64 0.0008259098    1.670    0.401
       229  -9.2324     91.0919     25.9335   8.8588070060e+01   5.7304428505e+01     0.371829    0.2374176 -47.19  0.001483587    2.135    0.532
       230  -8.5205    144.1443     25.5128   7.5904711954e+01   4.5937980953e+01    0.2275532    0.1896673 -24.77 0.0005610013    1.325    0.245
       231  -8.8187    128.3883     25.6068   7.9144069664e+01   4.9569512835e+01    0.3306387    0.2231883 -27.83  0.001455208    1.604    0.377
       232  -7.3615    184.5720    142.2197   9.9697646084e+01   1.5865650864e+01    0.2003204     0.148094 -31.07  0.000346507    1.453    0.312
       233 -10.2888    230.7151    135.1140   8.9073884892e+01   7.1967088361e+00    0.2725418    0.2578898  54.41  0.000743528    1.143    0.125
       234  -8.5356    112.1430    133.8506   1.1492435111e+02   3.3084985832e+01    0.2987796    0.2144339  83.30  0.001008648    1.879    0.468
       235  -7.6070    140.2861     22.6805   7.5760091455e+01   4.7157009377e+01    0.1298455    0.1010993 -70.30 0.0001919728    1.593    0.372
       236  -9.4793    134.2043    131.9174   1.0887588087e+02   2.9155681210e+01    0.4911417    0.3837547  43.24  0.002240179    1.313    0.239
       237  -8.1418    111.5437     20.7015   8.1303180257e+01   5.3793182967e+01    0.2894162    0.1864567  -8.44  0.001536492    1.779    0.438
       238  -9.6019     98.4025    128.5730   1.1735174702e+02   3.6790343649e+01     0.589688    0.3688013  80.47  0.002261249    2.841    0.648
       239 -10.6555     70.0008    126.4530   1.2459007691e+02   4.1708789960e+01      0.68204    0.5792649 -34.27  0.001971588    1.294    0.227
       240  -9.8929     58.1415    124.5811   1.2747096476e+02   4.3697521659e+01    0.5880728       0.3426  84.85  0.002288265    2.887    0.654
       241  -8.8496    160.1518    126.4704   1.0131794584e+02   2.4702231684e+01    0.5463009    0.2384369 -53.63  0.001551698    2.743    0.635
       242  -9.8949    117.2608    125.5846   1.1167879968e+02   3.4014101786e+01    0.6643276    0.4439015 -77.74  0.002202456    2.132    0.531
       243 -10.4461    123.7039     90.0873   1.0063093700e+02   4.0389496819e+01      1.17638    0.5911205 -33.28  0.003506469    2.275    0.560
       244 -10.2997    132.0343    119.7842   1.0645392700e+02   3.2329490795e+01    0.9512681    0.5864638  78.27  0.002441653    3.217    0.689
       245 -10.5687    133.4937    109.4090   1.0340886960e+02   3.4286706702e+01    0.8951786    0.3943344 -47.51  0.002265695    2.258    0.557
       246 -10.0479    108.5268    114.4630   1.1128445488e+02   3.8203716971e+01     0.683153    0.4219923 -77.50  0.001474911    2.834    0.647
       247  -8.6925     40.9557     20.5776   1.0348409867e+02   6.5781337903e+01    0.2090473    0.1381393 -25.28  0.000188662    1.296    0.228
       248  -9.1371    110.0920    106.8960   1.0892387716e+02   3.9587297513e+01    0.5897808    0.3526879  27.80  0.002302853    2.151    0.535
       249  -8.6226     95.8113     16.7850   8.3852315859e+01   5.7413894999e+01    0.2205851    0.1717421 -25.64 0.0004929355    1.387    0.279
       250  -7.9585     96.5086     12.9549   8.2230905583e+01   5.7660889894e+01    0.2474991    0.1399954  31.37  0.001020238    1.712    0.416
       251 -11.0684    120.8323    110.4184   1.0695557099e+02   3.6705990606e+01     1.413304    0.5580899 -48.62  0.003405601    2.495    0.599
       252  -7.4104    189.4545     15.4978   6.5950490147e+01   3.6055189705e+01    0.1330524    0.1149244  84.22 0.0002099223    1.011    0.011
       253 -10.2323    108.5961     99.7771   1.0744026256e+02   4.1412442713e+01    0.9012073     0.546917  64.57  0.003579776    2.556    0.609
       254  -9.7063     27.0963    122.7420   1.3557934382e+02   4.7380747534e+01    0.5026073    0.2698804  77.17  0.002001238    2.884    0.653
       255  -9.1901     41.1393    121.7644   1.3161858297e+02   4.6272115798e+01     0.398333    0.1900773 -72.57  0.001341982    2.191    0.544
       256 -10.0927    128.4404    100.7221   1.0236991330e+02   3.7209037410e+01     1.001978    0.5867179 -24.43  0.002703394    2.485    0.598
       257  -9.6440    140.7189    118.4520   1.0394415472e+02   3.0764111612e+01    0.4750245    0.3287521 -74.82  0.001222493    2.021    0.505
       258  -9.1322    140.1651    112.3671   1.0251166139e+02   3.2203833018e+01    0.3776156    0.2423211  44.35  0.001636549    1.590    0.371
       259  -7.0201    177.6518    119.6611   9.5707306212e+01   2.2111129192e+01    0.1635585    0.1263209   7.38 0.0007046456    1.788    0.441
       260  -9.2640    248.9313    116.4462   8.1846937709e+01   6.7874997195e+00    0.2440953    0.2406902 -62.47 0.0004219224    1.104    0.094
       261  -7.9975    234.5574    116.3094   8.4101872417e+01   9.8179954803e+00    0.2647835    0.1872032 -55.00 0.0007318879    1.451    0.311
       262 -10.1349     91.8509    112.9192   1.1550847651e+02   4.1507615975e+01    0.5879189    0.4229012 -84.01  0.001610627    1.902    0.474
       263  -8.8010     91.7512    104.2141   1.1337095230e+02   4.3471405907e+01    0.7179893     0.451178   8.57  0.002879804    2.807    0.644
       264  -8.7846    152.7311    115.9663   1.0039965570e+02   2.8631419344e+01    0.2253651    0.2028789 -43.83 0.0005613886    1.103    0.094
       265 -10.1856     78.0810    113.1057   1.1945253501e+02   4.3640266342e+01    0.5308705    0.3207497 -75.95  0.001955957    2.375    0.579
       266 -10.0012     24.2910    112.1740   1.3463840496e+02   5.0009242979e+01    0.3653995    0.2163298 -44.29  0.002086561    1.617    0.382
       267  -7.4303      1.0000    115.9989   1.4150059087e+02   5.0800724199e+01    0.1947125   0.05058357 -69.60 0.0005936919    2.879    0.653
