#   1 NUMBER                 Running object number                                     
#   2 MAG_AUTO               Kron-like elliptical aperture magnitude                    [mag]
#   3 X_IMAGE                Object position along x                                    [pixel]
#   4 Y_IMAGE                Object position along y                                    [pixel]
#   5 X_WORLD                Barycenter position along world x axis                     [deg]
#   6 Y_WORLD                Barycenter position along world y axis                     [deg]
#   7 A_WORLD                Profile RMS along major axis (world units)                 [deg]
#   8 B_WORLD                Profile RMS along minor axis (world units)                 [deg]
#   9 THETA_WORLD            Position angle (CCW/world-x)                               [deg]
#  10 FWHM_WORLD             FWHM assuming a gaussian core                              [deg]
#  11 ELONGATION             A_IMAGE/B_IMAGE                                           
#  12 ELLIPTICITY            1 - B_IMAGE/A_IMAGE                                       
         1 -14.6663    178.5775     35.1755   6.8791876046e+01   3.6308289341e+01     1.280412     1.024642  21.28  0.004326997    1.689    0.408
         2 -12.3337    189.6539     14.7524   6.2196133255e+01   3.6053864848e+01    0.2592439    0.2354907 -82.69 0.0008205363    1.128    0.114
         3 -13.7693    198.2735      4.3101   5.8811831897e+01   3.5126768351e+01     0.881322    0.4894998  71.78  0.004224036    1.505    0.335
         4 -11.5690    169.1039    235.9659   1.1646163499e+02  -3.1212138023e-02    0.3239357     0.222492 -55.31 0.0004596592    1.755    0.430
         5 -18.9233     51.8357    242.7187   1.4050699698e+02   1.7473209577e+01     6.375122     5.701799  65.31   0.04645696    1.317    0.241
         6  -9.9863     24.1943    213.2348   1.4323389611e+02   2.6979216187e+01    0.1483808    0.0819732  48.65 0.0008595248    1.685    0.407
         7 -10.3739    158.5276    204.7451   1.1345178384e+02   7.8067855558e+00    0.3540295    0.2038965  67.80  0.001300125    3.097    0.677
         8 -10.2095    163.2506    204.1039   1.1231084395e+02   7.0411508963e+00    0.2061994    0.1934781  -4.05 0.0005028959    1.145    0.126
         9 -11.4156    139.3047    200.5776   1.1696747741e+02   1.2314079082e+01    0.2959582    0.2179737 -87.18  0.001424411    1.726    0.421
        10 -12.5741    193.4182    192.5459   1.0370219855e+02   3.5655718951e+00    0.8503132    0.4909435 -52.63  0.002897643    1.998    0.500
        11 -10.0041     26.6815    199.7338   1.4159339510e+02   2.9678192936e+01    0.1079226    0.0877473 -53.46 0.0006957151    1.555    0.357
        12 -10.7143    208.9759    197.9209   1.0159868413e+02  -3.3601816151e-01    0.2051406    0.1754929  87.46 0.0005744459    1.656    0.396
        13 -10.5130    154.1600    196.1757   1.1286383087e+02   1.0421576435e+01    0.2175412    0.2046778   6.55 0.0006520238    1.158    0.137
        14 -10.2548     10.6376    213.8531   1.4582036250e+02   2.8260108863e+01   0.08692142   0.07962035  38.60  0.000362513    1.567    0.362
        15  -9.3928    180.2907    192.6216   1.0648059250e+02   6.0775283092e+00    0.1464443     0.116456 -89.55 0.0007019431    1.738    0.425
        16 -10.8312    167.6822    188.6854   1.0844907575e+02   9.3548471141e+00    0.2800025    0.2590235  87.51 0.0008087735    1.185    0.156
        17  -9.8879    163.3008    188.2988   1.0934309258e+02   1.0302038402e+01    0.1461152    0.1175588  -0.84            0    1.580    0.367
        18 -10.5450     73.0579    184.0567   1.2961765301e+02   2.7445254104e+01    0.2076763    0.1827153 -83.37 0.0004323245    1.056    0.053
        19 -10.6544    163.3051    211.2257   1.1356312493e+02   5.6110715043e+00    0.2870181    0.1784471 -56.67 0.0009620556    1.867    0.464
        20 -11.1265    205.5139    180.4769   9.8795252019e+01   3.5808155456e+00    0.3511446    0.2973244  44.63  0.001472632    1.229    0.186
        21 -11.2473    208.5320    178.5071   9.7784833418e+01   3.3802361626e+00    0.3778008    0.3041759  19.08  0.001998072    1.330    0.248
        22 -19.0653     38.1667    105.4111   1.2560217545e+02   5.0576514047e+01     17.16159    0.7771425 -60.09   0.02533593   18.736    0.947
        23 -14.0483     12.4462    206.0637   1.4491386349e+02   2.9752676607e+01    0.5303198    0.2888229  35.53  0.003149223    2.095    0.523
        24 -12.3839     73.3966    174.8925   1.2819050535e+02   2.9590234889e+01    0.5304741    0.4122602  27.16  0.002880737    1.580    0.367
        25 -10.0087    195.7158    174.3422   9.9520406886e+01   6.7098611921e+00    0.2583539    0.2143512 -86.99 0.0009119643    1.584    0.369
        26 -11.4741    195.8876    170.2420   9.8619001804e+01   7.5016278129e+00    0.4368813    0.3965217 -60.61 0.0009660418    1.190    0.159
        27 -10.6760    193.8270    164.9341   9.7909624032e+01   9.0019682590e+00    0.3914948    0.2919843 -56.63  0.001475458    1.467    0.318
        28  -9.8341    220.5796    228.8802   1.0509561450e+02  -7.5291070299e+00    0.2863521    0.1163548 -49.03  0.001128797    3.489    0.713
        29 -10.9304     18.6662    219.1243   1.4472352368e+02   2.6316416629e+01    0.1726574    0.1228915 -70.10 0.0006910561    1.416    0.294
        30  -9.9909    120.1009    163.7995   1.1467781964e+02   2.4361077270e+01    0.2311388    0.1947886  75.89 0.0004501419    1.249    0.199
        31 -10.1505    115.1445    162.1794   1.1559295922e+02   2.5683194988e+01    0.2163609     0.207122 -40.58 0.0003899447    1.144    0.126
        32 -12.3010    112.5121    149.9805   1.1377345799e+02   2.9105205572e+01    0.6199782    0.3889364  85.04  0.002289887    2.751    0.637
        33 -11.8995     98.2425    160.8181   1.1960599551e+02   2.9049675961e+01    0.3055174    0.2907391  72.26  0.000403222    1.069    0.065
        34 -13.5426    103.0912    153.4969   1.1693787556e+02   2.9978282111e+01    0.9176399    0.6823668 -21.76  0.004215397    1.896    0.473
        35  -9.9830     14.6456    160.1099   1.4029603070e+02   3.9940968549e+01    0.1985673    0.1565393 -10.17 0.0009515032    1.893    0.472
        36 -11.3716    120.1303    156.3941   1.1316610414e+02   2.6120164403e+01     0.352399     0.296524  77.89   0.00105748    1.276    0.216
        37 -12.7596    134.0623    145.8303   1.0737046337e+02   2.5839781988e+01     1.332777      0.34198 -54.81  0.003084779    5.574    0.821
        38  -9.7707      9.7430    153.4668   1.4072718624e+02   4.1887619620e+01    0.2308542    0.1245354   4.82  0.001133566    3.340    0.701
        39 -10.4041    174.8615    149.0831   9.8466180039e+01   1.6371098581e+01    0.2437554    0.2138289 -84.41 0.0006021599    1.277    0.217
        40 -11.9552    145.0002    145.8698   1.0467846579e+02   2.3542105154e+01    0.3919308    0.3238607  70.65  0.001141508    1.337    0.252
        41 -11.8682     89.4388    146.9203   1.1921988222e+02   3.3916085286e+01    0.4722887    0.1998275  42.64  0.001226634    2.441    0.590
        42 -10.6022      4.1246    146.4990   1.4131276006e+02   4.3919076206e+01    0.1965377    0.1689527 -30.37  0.001396671    1.504    0.335
        43 -12.8691    111.2906    139.9023   1.1191417737e+02   3.1750708197e+01    0.7808676    0.5237831 -16.84  0.003073156    2.532    0.605
        44 -12.4904    101.1566    139.2967   1.1449095420e+02   3.3756072791e+01    0.3046692     0.286621 -41.52 0.0005230085    1.109    0.099
        45 -11.2500     18.6320    214.2023   1.4436193776e+02   2.7367389616e+01    0.1766147    0.1220044  63.65 0.0004431104    1.246    0.198
        46 -11.8802    105.9370    130.8128   1.1129601739e+02   3.4912555846e+01    0.4507626    0.3379697 -61.92  0.001247156    1.348    0.258
        47 -11.1733    105.9430    125.9011   1.1014534891e+02   3.6067202140e+01    0.2966813    0.2561356  -0.85 0.0006645365    1.389    0.280
        48 -12.3843    135.2992    121.9596   1.0137496344e+02   3.1063362167e+01    0.6208358     0.340964 -51.96  0.002454381    1.867    0.464
        49 -12.1622    118.1479    129.5803   1.0771578554e+02   3.2862773177e+01    0.4067314    0.3935268  42.90   0.00113108    1.074    0.069
        50 -10.4662    198.6561    222.8301   1.0829509829e+02  -2.9021943717e+00    0.2195828    0.1646692  27.84 0.0004435451    1.236    0.191
        51 -11.1551    160.7716    127.5438   9.6567000429e+01   2.4197838973e+01      0.38102    0.2879306 -86.33  0.001669771    1.740    0.425
        52 -11.6138    124.4374    126.8155   1.0538714333e+02   3.2237881384e+01    0.5064039    0.3020641  72.55  0.001715233    3.157    0.683
        53 -10.7142     85.0223    126.0938   1.1605766544e+02   3.9655949422e+01    0.2336507    0.1755777  78.92  0.000818213    1.709    0.415
        54 -10.7366    112.3884    118.9714   1.0668801647e+02   3.6443193372e+01    0.2826559    0.2276725  43.75 0.0001734902    1.280    0.219
        55 -10.9609    168.4335    113.2754   9.1265385771e+01   2.5481964962e+01    0.3932011    0.2888838 -74.73   0.00107949    1.720    0.419
        56 -11.0757    134.5975    106.2742   9.7495377297e+01   3.4643225772e+01    0.6186667    0.1409187 -43.06  0.001592538    4.446    0.775
        57 -10.5005      2.4053    112.7911   1.3758064920e+02   5.1704313867e+01    0.2117044     0.158641 -45.17 0.0006868992    1.287    0.223
        58 -10.6505    205.2308    110.4753   8.3152135457e+01   1.7534090794e+01    0.3642832    0.2573638  33.02  0.001202817    1.806    0.446
        59 -12.9426     61.6052    109.2858   1.1918626026e+02   4.7001011900e+01    0.5701014    0.3200263  33.26  0.002728743    1.971    0.493
        60 -11.0105     83.2570    107.1462   1.1209048209e+02   4.4326828925e+01    0.3580453     0.240948  59.79  0.001651533    1.977    0.494
        61  -9.7430    153.7942    103.9444   9.2177397752e+01   3.0802325414e+01    0.2095657    0.1988022 -67.52  0.001095197    1.051    0.049
        62 -11.4757     66.9604    104.0253   1.1629750876e+02   4.7470371016e+01    0.3325813    0.1982379  14.13  0.001475241    2.372    0.578
        63 -10.0389     68.0148     98.6956   1.1464952047e+02   4.8505218811e+01    0.1878779    0.1784533   9.12  0.001142068    1.128    0.113
        64 -10.7025     84.1693     76.8665   1.0346525467e+02   5.0517092180e+01    0.1931892    0.1893559 -60.10 0.0003957434    1.190    0.160
        65 -13.7487    165.1159     52.3010   7.5640598041e+01   3.7232606545e+01     1.008082    0.7825322 -47.41  0.002315772    1.348    0.258
        66  -9.8909     13.6308     59.9387   1.2350504265e+02   6.2105593826e+01    0.1643132    0.1160763 -47.25 0.0004680213    1.160    0.138
        67 -11.3362      1.5400    247.8394   1.4942721572e+02   2.2321232395e+01    0.1439817   0.08912066 -88.51 0.0008250455    1.269    0.212
        68 -13.1612    182.6486     28.4996   6.6489495104e+01   3.6154595335e+01    0.5051191    0.4296103  62.47  0.001159775    1.154    0.133
        69  -9.6628    113.7023     21.9940   7.7070350994e+01   5.2930275972e+01     0.170747    0.1543369  36.79 0.0004574378    1.050    0.048
        70 -12.2555    159.0449    238.4192   1.1888125487e+02   1.2860011325e+00    0.3141205    0.2395282 -48.26  0.001648388    1.503    0.335
