#   1 NUMBER                 Running object number                                     
#   2 MAG_AUTO               Kron-like elliptical aperture magnitude                    [mag]
#   3 X_IMAGE                Object position along x                                    [pixel]
#   4 Y_IMAGE                Object position along y                                    [pixel]
#   5 X_WORLD                Barycenter position along world x axis                     [deg]
#   6 Y_WORLD                Barycenter position along world y axis                     [deg]
#   7 A_WORLD                Profile RMS along major axis (world units)                 [deg]
#   8 B_WORLD                Profile RMS along minor axis (world units)                 [deg]
#   9 THETA_WORLD            Position angle (CCW/world-x)                               [deg]
#  10 FWHM_WORLD             FWHM assuming a gaussian core                              [deg]
#  11 ELONGATION             A_IMAGE/B_IMAGE                                           
#  12 ELLIPTICITY            1 - B_IMAGE/A_IMAGE                                       
         1 -13.9329    186.9143     48.6778   4.8388525687e+01   3.2785450125e+01      1.19198      1.01054  23.66 0.0009207965    1.403    0.287
         2 -14.1086    197.6221     40.4238   4.4632469460e+01   3.1335749560e+01     1.352629     1.104683 -34.58   0.00367509    1.254    0.203
         3 -14.7879    207.2510     30.5634   4.0916984875e+01   3.0312702022e+01     1.996482     1.443337  22.32  0.001583935    2.025    0.506
         4 -13.1704    234.4893      5.4625   3.2607212547e+01   2.7049213976e+01    0.5665724    0.5227514 -29.11  0.003752937    1.351    0.260
         5 -12.9499    228.4261      4.6823   3.2886598530e+01   2.8421971126e+01    0.5716205    0.3906964 -42.69  0.002855801    1.373    0.272
         6 -10.8450     61.6778      8.1068   6.3349057865e+01   6.5788011711e+01    0.1984136    0.1584327  39.24  0.000470883    1.300    0.231
         7 -10.3156     43.3267      7.3271   7.0471317896e+01   6.8860631732e+01    0.1290238   0.07672878   7.58 0.0007050143    1.700    0.412
         8 -12.5388    109.6140    200.8310   1.0220561855e+02   1.8117147394e+01    0.6081853    0.3676248 -37.65  0.002647578    2.147    0.534
         9 -11.1176    140.5201    249.7918   1.0224477068e+02   4.2301816139e+00    0.3976063    0.1859422  39.75  0.001632049    1.752    0.429
        10 -11.5438    140.4983    244.9488   1.0163498380e+02   5.0193319952e+00    0.2598408    0.2267755 -55.35  0.001483405    1.390    0.281
        11 -16.5502     72.0812    149.1100   1.0349503640e+02   3.5728963577e+01     19.57075     10.68994  76.36   0.02070727    3.411    0.707
        12 -10.3572     42.2487    167.3343   1.1392522480e+02   3.4877299793e+01    0.1928001    0.1572708  36.12 0.0004830326    1.363    0.266
        13 -11.4237     32.3870    165.0406   1.1610753765e+02   3.6419074501e+01    0.3001376    0.2122045 -56.63  0.001547483    1.405    0.288
        14 -10.0576    120.0088    194.0428   9.8769959759e+01   1.7888806150e+01    0.2038826    0.1915516  60.05 0.0003235832    1.051    0.049
        15  -9.7119    187.5298    162.5560   7.7299632039e+01   1.2112831711e+01    0.2616108    0.1359014 -51.32  0.000835559    2.328    0.570
        16  -9.6061     48.6844    160.8187   1.1150243571e+02   3.5746564451e+01    0.1881062    0.1528754 -82.46 0.0008392068    1.099    0.090
        17 -12.3292     90.2406    153.0641   9.9230712638e+01   3.2118728657e+01    0.6853977    0.4703769 -23.64  0.003096869    2.037    0.509
        18 -18.0672     13.5464    245.1561   1.2573687186e+02   2.1227384212e+01     4.129694     1.895736  31.05   0.02451674    2.412    0.585
        19 -11.6172    133.8133    145.1647   8.6024625586e+01   2.6338986892e+01     1.252802    0.3362943 -54.05  0.003044492    5.295    0.811
        20 -10.0630    187.4859    151.4942   7.4855953618e+01   1.4280994089e+01    0.1507588    0.1387275  -9.65  0.000315859    1.007    0.007
        21 -10.7239    149.3393    187.7249   9.0893567414e+01   1.4172408935e+01    0.3368483    0.2169219  48.64  0.001522317    1.632    0.387
        22 -10.6540    174.4245    148.7622   7.7082106620e+01   1.7442109073e+01     0.356742    0.2848576 -66.90  0.001644663    1.613    0.380
        23 -10.7940    144.0743    146.1555   8.3656803082e+01   2.4104894461e+01    0.4443704    0.2526104 -64.75  0.001597204    2.719    0.632
        24 -10.6485     40.3397    146.8734   1.1187316799e+02   4.0035712292e+01    0.2804893    0.2374841  -8.78 0.0009997686    1.507    0.336
        25 -11.1528    103.3532    139.0385   9.2831464205e+01   3.3375638912e+01    0.5465113    0.3403171 -27.40  0.002218624    2.211    0.548
        26 -12.4955     91.0030    138.5731   9.6208134847e+01   3.5531071714e+01    0.2887786    0.2594022 -42.82 0.0004051886    1.103    0.093
        27 -14.5683     56.8653    187.5124   1.1271168801e+02   2.8490697670e+01     1.746555     1.135769  64.91  0.009525224    1.548    0.354
        28 -16.7576     48.5346    201.1256   1.1598553436e+02   2.6421228641e+01     8.924231     2.962699  59.43   0.02962042    4.729    0.789
        29  -9.9040     93.7643    205.4511   1.0643627415e+02   1.9542647682e+01    0.3077511    0.1938228 -24.20  0.001284279    2.967    0.663
        30 -10.9612     99.3813    180.7720   1.0159053430e+02   2.4143687544e+01    0.2705573    0.2352512  36.64 0.0005752433    1.163    0.140
        31 -11.4791    135.8954    128.6636   8.1599743846e+01   2.9667404638e+01    0.8768395    0.1939471 -48.84  0.002135095    4.884    0.795
        32 -10.8387    135.0000    118.9888   7.9388901605e+01   3.2012689926e+01    0.7487667    0.1347496 -43.15  0.001673141    5.655    0.823
        33 -10.5893    134.5828    106.8063   7.6246792142e+01   3.4760672127e+01    0.7167589    0.1486615 -44.57  0.001751993    4.750    0.789
        34 -10.8988    105.9222    130.8606   9.0294290507e+01   3.4888210513e+01    0.3612557    0.3238753 -65.24  0.001093199    1.144    0.126
        35 -10.7013    189.2866    177.7639   8.0132527557e+01   8.8880541659e+00    0.5274182    0.3190659 -53.18  0.002081483    2.097    0.523
        36 -10.6753    112.4302    129.5582   8.8160469745e+01   3.4021132063e+01    0.3546156    0.2731022   9.14 0.0006995177    1.604    0.377
        37 -10.3810    160.9273    127.8711   7.5186810534e+01   2.4605201443e+01     0.365083    0.2237146 -47.35  0.001535653    1.650    0.394
        38 -11.8299    119.2098    123.7062   8.4857900721e+01   3.4109904216e+01    0.7718716    0.4717854 -24.44  0.002970434    2.300    0.565
        39 -11.1263     99.5050    125.6210   9.0925564018e+01   3.7263029212e+01    0.2985713    0.2450823  -8.71 0.0005509575    1.434    0.303
        40  -9.9617    108.3118    118.7990   8.6721468766e+01   3.7308975800e+01    0.2259107    0.2037577  45.85 0.0003120886    1.174    0.148
        41 -10.3528    143.6109    178.9134   9.0580979704e+01   1.7033060712e+01    0.2542496    0.1982991  22.68 0.0006506541    1.335    0.251
        42  -9.5739    167.9354    112.8172   6.9707849602e+01   2.6187098287e+01    0.3061078    0.2072577 -67.12  0.001235778    2.155    0.536
        43 -11.6518    117.6853    109.5371   8.1628202302e+01   3.7641031512e+01    0.6280059    0.4984214  60.33  0.002998001    1.494    0.331
        44 -10.2696    205.4066    110.2383   6.1416790059e+01   1.8432605548e+01    0.3161982    0.2298826  43.74 0.0008590586    1.475    0.322
        45 -11.3893     19.0732    110.7992   1.1295060240e+02   5.0693785725e+01    0.2401061    0.1867023 -79.82 0.0005277771    1.196    0.164
        46 -12.1480    205.0961    195.1785   8.0352311377e+01   3.0387199707e+00    0.6004854    0.2772534  22.67  0.002268743    3.042    0.671
        47  -9.7778    149.1493    176.8176   8.8879343902e+01   1.6467716547e+01    0.2119594    0.1972405  69.21 0.0004296966    1.215    0.177
        48 -11.4923     33.8100    100.4499   1.0631524060e+02   5.2036516653e+01    0.3300084    0.2555523 -41.30  0.001068401    1.197    0.165
        49 -10.4382    146.6816    172.0489   8.8524042485e+01   1.7934107913e+01    0.2120394    0.1894112 -44.98  0.001142753    1.152    0.132
        50  -8.7951    129.3095     96.6455   7.4796285199e+01   3.8039919208e+01    0.1582383    0.1259765 -80.08 0.0004135778    1.725    0.420
        51 -11.8086     52.5286     93.3501   9.8249650599e+01   5.1823550084e+01    0.4903158    0.4074973  81.86  0.002249186    1.545    0.353
        52 -10.8877    137.8638    168.8707   9.0010986667e+01   2.0251110042e+01    0.4366998    0.3427608  81.39  0.002089382    1.719    0.418
        53  -8.9324    157.5387     89.5431   6.5686257778e+01   3.3119054392e+01    0.1534368    0.1484007 -60.73 0.0003718493    1.084    0.077
        54  -8.8014     75.7090     85.2981   8.7968555340e+01   5.0531990890e+01    0.1346466    0.1161173  87.77 0.0002518955    1.560    0.359
        55 -10.1570    157.9461     82.3286   6.3509188685e+01   3.4363331190e+01    0.2827334    0.2166327  -4.19 0.0008358033    1.617    0.382
        56  -9.2008    184.5032     76.9914   5.6592984709e+01   2.9016743893e+01    0.2228319    0.1434324 -33.78 0.0005204365    1.533    0.348
        57 -10.2188     58.8520     67.5918   8.8690687885e+01   5.6751050487e+01    0.2989798    0.2082855  46.96  0.001464432    1.860    0.462
        58 -16.8443      5.9482    211.5196   1.2540448023e+02   2.8472862912e+01     2.692881    0.9691756 -67.53   0.01273603    2.481    0.597
        59 -11.0841    112.9141    205.9362   1.0219281956e+02   1.6530783720e+01    0.3383215    0.2460907  72.31 0.0008927676    1.645    0.392
        60 -10.0764    169.0067    235.7865   9.4632473966e+01   2.1537275931e+00    0.1888568    0.1704669 -12.65 0.0004132107    1.195    0.163
        61  -9.3645     73.1724     54.2292   7.8685668077e+01   5.7203388880e+01    0.1760971    0.1692993  56.23  0.001061266    1.370    0.270
        62 -10.7846    230.5503    167.2459   6.9850761616e+01   3.4600068958e+00    0.2709368     0.119435 -41.20   0.00114428    2.184    0.542
        63 -11.8166    145.2944     49.8610   5.6335855117e+01   4.2727711992e+01    0.5542858    0.3582044 -83.48  0.001715405    2.616    0.618
        64 -10.2779     32.2354     36.4239   8.8981487858e+01   6.5926804252e+01    0.1724128    0.1445307   2.24  0.001148057    1.200    0.166
        65 -11.7260     26.0491     35.1693   9.1445940083e+01   6.6764357618e+01     0.430732    0.1884019  33.90  0.001177586    2.704    0.630
        66 -10.8261    198.1602     23.7238   4.0232486218e+01   3.3232590355e+01    0.2611456    0.2151899   1.25 0.0009671611    1.573    0.364
        67  -9.9297     81.8987    195.2893   1.0783429279e+02   2.3456665793e+01     0.281136     0.234098  -6.15  0.001613557    1.637    0.389
        68  -9.7245    189.5114     14.9817   3.8954534758e+01   3.6222383620e+01    0.1962156    0.1652133  83.14 0.0006480278    1.072    0.067
        69 -10.0299     37.3969    167.9547   1.1519116739e+02   3.5231786424e+01    0.2520229    0.1488412  54.25  0.001331674    1.725    0.420
        70 -11.4004    184.4098    205.9232   8.6560660767e+01   4.6546371719e+00    0.3895146    0.1798986  24.04  0.001500192    2.813    0.645
        71 -11.8665    107.7383    204.0051   1.0308718841e+02   1.7740400466e+01    0.4628395    0.2841423  60.09 0.0003852053    1.880    0.468
