#   1 NUMBER                 Running object number                                     
#   2 MAG_AUTO               Kron-like elliptical aperture magnitude                    [mag]
#   3 X_IMAGE                Object position along x                                    [pixel]
#   4 Y_IMAGE                Object position along y                                    [pixel]
#   5 X_WORLD                Barycenter position along world x axis                     [deg]
#   6 Y_WORLD                Barycenter position along world y axis                     [deg]
#   7 A_WORLD                Profile RMS along major axis (world units)                 [deg]
#   8 B_WORLD                Profile RMS along minor axis (world units)                 [deg]
#   9 THETA_WORLD            Position angle (CCW/world-x)                               [deg]
#  10 FWHM_WORLD             FWHM assuming a gaussian core                              [deg]
#  11 ELONGATION             A_IMAGE/B_IMAGE                                           
#  12 ELLIPTICITY            1 - B_IMAGE/A_IMAGE                                       
         1 -11.2651    192.1599     19.8984   8.2955969174e+00   3.5688524335e+01    0.5564734    0.3913473 -57.58  0.002254155    1.122    0.109
         2 -10.3442    189.5788     28.9379   1.0634421153e+01   3.5208141742e+01     1.091986    0.2948304 -48.68  0.002657009    2.945    0.660
         3 -12.2913    174.5058     41.8857   1.5224321916e+01   3.6727154040e+01     1.950764     0.963513  41.77  0.008303056    3.572    0.720
         4 -12.5907    202.0946     34.1844   1.0900300427e+01   3.2189824230e+01     0.561094    0.4352254  68.50 0.0004702648    1.515    0.340
         5 -12.2410    208.6773     46.2187   1.3070452966e+01   2.9549258256e+01     1.058735    0.5116337 -65.55  0.005512698    2.319    0.569
         6 -14.2191     10.8699     69.3899   7.7696510126e+01   6.4311760904e+01      2.99925     1.234164  14.46   0.01154227    2.480    0.597
         7  99.0000     35.2962     20.8384   4.2127806110e+01   7.1839297582e+01      3.34903     1.650134  24.85   0.01189068    3.605    0.723
         8 -14.2346     57.2121     66.5909   5.1628606884e+01   5.8794806143e+01     2.143229     1.443342 -35.85  0.007324657    1.679    0.404
         9 -12.7904     53.5889     20.7350   3.2703396137e+01   6.7987656962e+01     1.136026    0.9355328  81.99   0.00413932    1.390    0.281
        10 -13.4763      3.9406     54.3091   7.8958859886e+01   6.8678331686e+01     1.403131    0.7307538 -75.02  0.006254681    2.011    0.503
        11 -13.3741     14.3081     45.7423   6.8968268790e+01   6.9954483225e+01     1.536171    0.8939843  51.70  0.006864514    2.216    0.549
        12 -12.2574     25.8121     40.4788   5.8697684896e+01   6.9745448393e+01     1.244864    0.6391796 -48.60  0.005561721    1.966    0.491
        13 -13.1608     13.5808     34.1679   6.5032225773e+01   7.2667503250e+01     1.944882    0.7251712  35.98  0.007688835    2.606    0.616
        14 -13.8654     33.6392     57.0577   6.0338493437e+01   6.4907893398e+01     2.289617     1.145346  29.49  0.009552112    1.949    0.487
        15 -14.1238     66.4225     30.4851   3.2623802131e+01   6.3656352065e+01     3.397218     1.413192 -29.74     0.012778    3.034    0.670
        16 -12.7752     79.9602     22.3951   2.4498094228e+01   6.1507576309e+01     1.140667    0.7793077 -52.27  0.005884876    1.609    0.379
        17 -12.3145     78.5850      9.8730   1.8962045380e+01   6.3235386720e+01    0.3481454    0.2355699  71.41 0.0003824362    1.312    0.238
        18 -11.8030     76.9772      5.0717   1.6988509260e+01   6.4086400773e+01    0.3073286    0.2242717  66.84  0.000358264    1.184    0.156
        19 -12.4266     47.2961     31.5338   4.1452477823e+01   6.7689531280e+01     1.536888      1.00117  57.70  0.007455491    1.658    0.397
        20 -13.0284    232.3568     73.0839   1.6662449129e+01   2.2223232332e+01     1.799982    0.5791295 -33.71   0.00840583    2.605    0.616
        21 -12.9043    220.7454     38.5925   1.0532083977e+01   2.8330640833e+01    0.7720866    0.3935609 -67.52 0.0003257646    2.031    0.508
        22 -12.4206    160.9412     37.9625   1.5688708648e+01   4.0127437549e+01    0.5836703    0.4534292 -74.00  0.002448505    1.173    0.147
        23 -12.2595    216.9472     28.0977   8.5611448872e+00   3.0169186080e+01    0.6018149    0.3567812 -53.41  0.002659631    1.297    0.229
        24 -11.3882    212.5259     19.5121   6.9781196799e+00   3.1877042619e+01    0.3047283    0.1716288 -34.64  0.001931031    1.535    0.349
        25 -12.6168    226.1838     22.4701   6.8711907322e+00   2.9171765814e+01    0.3540497    0.2419046 -84.60  0.001446487    1.485    0.327
        26 -10.9592    113.4629     22.6812   1.7445311620e+01   5.3148315765e+01    0.6599797    0.4250003  16.14  0.003012628    2.650    0.623
        27 -10.0204    111.5712      4.4866   1.0984988907e+01   5.5443805695e+01    0.7828366    0.3101071 -86.77  0.002976498    3.049    0.672
        28 -11.0912    108.7034      9.1468   1.3130560915e+01   5.5739271554e+01    0.4257193    0.2258927 -54.31  0.001478884    1.920    0.479
        29 -10.3589    100.7976      7.1398   1.3514073739e+01   5.7904055551e+01    0.4500075    0.2276027 -33.11  0.001418762    2.034    0.508
        30 -10.1373    104.6682      6.0760   1.2515027263e+01   5.7027843256e+01    0.2313649    0.1650446  80.39 0.0004105425    1.226    0.184
        31 -11.3413    114.7911     12.8013   1.3634805870e+01   5.3873322001e+01     0.328571    0.2250849  88.99 0.0007892295    1.341    0.254
        32 -10.9648    116.2863      9.6709   1.2295273069e+01   5.3806120447e+01    0.2461181    0.1951409 -51.84 0.0007983363    1.233    0.189
        33 -11.1157     20.3477     22.7315   5.3728108686e+01   7.4112393231e+01    0.6959361    0.3885283 -52.92   0.00334312    2.064    0.516
        34 -11.7993    202.3345     20.9085   7.8793765643e+00   3.3615556543e+01     0.362085    0.2051645 -46.48  0.001154749    1.354    0.261
        35 -12.0687    203.2326     16.7989   6.9008378099e+00   3.3875817685e+01    0.4473842     0.195118 -78.70  0.001765413    2.488    0.598
        36 -10.3929    123.6839     20.7908   1.5206189872e+01   5.0848710619e+01    0.5528179    0.1503364 -50.30  0.001755039    4.292    0.767
        37 -11.6445    141.2094     13.9719   1.0873759063e+01   4.7364214469e+01    0.3507468    0.2444293   1.90 0.0009601442    2.193    0.544
        38 -11.1918     94.2615     15.9296   1.8299811529e+01   5.8684973149e+01    0.3247082    0.1903496  57.02  0.000718892    1.573    0.364
        39 -11.5930    232.2999      3.5953   2.8266595201e+00   3.0014667578e+01     0.596191    0.1525707 -43.95  0.003207565    2.249    0.555
        40 -12.7251    221.5818      8.4831   4.2151421511e+00   3.1376076948e+01    0.5706086    0.1351914 -47.25  0.001092926    2.551    0.608
        41 -11.9496    228.4175     10.1383   4.2712095473e+00   3.0040673165e+01    0.5099424     0.147275 -44.60 0.0008793185    2.148    0.534
        42 -13.9599    244.3857      8.1054   3.2787728775e+00   2.7630336503e+01    0.8317474    0.2984826 -66.88   0.00360199    2.629    0.620
        43 -11.2931    233.8336     11.2191   4.2682136956e+00   2.9030141650e+01     0.197403     0.156059  72.03  0.001114968    1.635    0.388
        44 -11.1395    160.1649     14.5147   9.2892978962e+00   4.2971457998e+01    0.2483029    0.1644072 -38.28 0.0005412117    1.416    0.294
        45 -10.6927    167.4204     13.4518   8.4261120795e+00   4.1485739175e+01    0.4043253    0.1593731 -38.62  0.001983256    2.075    0.518
        46  -9.9783    124.2488     14.0140   1.2808521762e+01   5.1426007350e+01    0.3698208    0.1859202 -75.40  0.001646197    2.243    0.554
        47 -10.6951    125.1740      9.6068   1.1190135680e+01   5.1631063025e+01    0.2975693    0.2155301 -34.43  0.001009087    1.446    0.309
        48 -10.7360    149.6999     12.9474   9.7495642726e+00   4.5494578222e+01    0.3424293    0.1983236 -86.25  0.001841115    1.634    0.388
        49  -9.8334    133.7212     12.3909   1.1161387293e+01   4.9298108838e+01    0.3295679    0.1840335 -55.49  0.001700037    1.673    0.402
        50  -9.4813    130.9519      8.2463   1.0104715283e+01   5.0360372079e+01    0.2455172    0.2107288 -89.60  0.000902693    1.076    0.071
        51  -9.3164    156.0092     12.3091   9.0169616380e+00   4.4123504413e+01    0.1662108    0.1351217 -81.07 0.0006100666    1.084    0.077
        52 -10.6043     88.4580     11.5776   1.7591364936e+01   6.0590293466e+01    0.2364724    0.2158662 -16.66  0.001464378    1.296    0.228
        53 -12.8496    173.2646      5.7888   6.0202891296e+00   4.0978256744e+01    0.4719316    0.2655713 -20.39  0.002620452    2.138    0.532
        54 -10.5829     26.4541      9.4900   4.0330877520e+01   7.5247968696e+01    0.2938666    0.1836902  26.66  0.001098937    1.744    0.427
        55 -11.7438    193.7156      7.8318   5.3688112793e+00   3.6604707510e+01    0.2385004    0.2158222  71.43  0.001093872    1.414    0.293
        56 -10.3761     47.9976      8.5326   2.7866428201e+01   7.0782396912e+01     0.296283    0.1682207  40.17  0.001111696    1.763    0.433
        57  -9.5817     47.4734      5.5204   2.6157782301e+01   7.1227972372e+01    0.2502422    0.1831872  51.92  0.001151445    1.182    0.154
        58 -11.1325      2.8335      5.9998   5.9613798729e+01   7.9526128497e+01    0.2875909    0.2150894  20.96  0.001252919    1.201    0.168
        59  -9.7842    146.1445      5.7051   7.9090427967e+00   4.7007747559e+01    0.1670983    0.1264396  60.38  0.001028091    1.470    0.320
        60  -9.5566     91.2818      6.6223   1.4872683668e+01   6.0347095684e+01    0.1901648    0.1417911 -57.73 0.0008402161    1.371    0.271
        61  -9.9325     93.3453      3.7901   1.3294276871e+01   6.0073360606e+01    0.2156546    0.1657961  26.62 0.0008963958    1.631    0.387
        62  -9.8538    184.4562      3.1620   4.7370814308e+00   3.8897643445e+01    0.3657233    0.1909802  58.70  0.001809357    2.347    0.574
        63 -11.9982     85.5192      1.4694   1.3583095466e+01   6.2239783531e+01    0.4042452    0.1334793  67.62  0.001246637    2.431    0.589
        64 -10.0975    213.4587      2.4392   3.2771711550e+00   3.3393770671e+01    0.1704988    0.0954728 -89.74  0.001119885    1.753    0.429
        65 -10.3660    217.5754      1.4785   2.9197286437e+00   3.2745213191e+01     0.317818    0.1252137  75.64  0.001811129    2.675    0.626
        66 -10.7220     47.3624      1.6359   2.3656732480e+01   7.1637437978e+01    0.3849607    0.1270624  54.83  0.001552634    2.371    0.578
        67  -9.3164    250.6244      1.3016   1.8228621613e+00   2.7298344754e+01    0.1104263   0.04376824 -55.36 0.0001884191    1.760    0.432
        68 -13.1579    186.4785     58.3853   1.8000683179e+01   3.2136283651e+01     1.345192    0.8023536  64.78  0.004758189    1.856    0.461
        69 -10.6310    180.8594    243.7598   5.4151722736e+01   3.6869519139e+00    0.1620338    0.1538258 -75.61   0.00124615    2.067    0.516
        70 -11.7117    186.9218     36.1619   1.2596624347e+01   3.4896388860e+01    0.6015735    0.3053132 -49.29  0.002417199    1.623    0.384
        71 -13.3960    204.8147     77.6606   2.0342637732e+01   2.6088562230e+01    0.7254431    0.4207848  81.89  0.003876398    2.506    0.601
        72  -9.6700    218.6034    239.7773   4.7263051203e+01   9.7466889932e-01     0.126825   0.08183653 -35.56 0.0005941015    1.603    0.376
        73 -13.6036    203.1974     68.9832   1.8614780793e+01   2.7577893591e+01    0.8376126    0.5279688 -65.28   0.00466333    1.700    0.412
        74 -13.0183    197.7188     46.7693   1.4137576093e+01   3.1500212383e+01    0.8650316    0.6302101 -66.67  0.005696597    1.251    0.201
        75 -10.6550     88.4876    238.9808   7.2986504831e+01   1.3622675522e+01      0.15945    0.1249297 -57.76 -5.663136e-05    1.556    0.357
        76 -11.4091    187.9901     43.3096   1.4225068649e+01   3.3810763391e+01     0.372579    0.2717496 -19.29 0.0003213603    1.707    0.414
        77 -13.5153    217.4114     58.9912   1.5085228566e+01   2.6432402863e+01    0.8570334    0.7402615 -43.61  0.001833942    1.167    0.143
        78 -12.4802    204.7100     61.6047   1.6826348829e+01   2.8303067138e+01    0.6221804     0.316185  83.06  0.003136843    2.786    0.641
        79 -12.0617    208.8942     58.2795   1.5695483531e+01   2.7995257414e+01    0.3298289    0.2237624 -70.58  0.001251967    1.517    0.341
        80 -12.5521     87.4708     64.5470   3.9228402160e+01   5.2964316174e+01     1.253119     0.729351  36.22  0.005219356    2.020    0.505
        81 -13.6554     78.1424     59.0171   4.0401608615e+01   5.6099551083e+01     1.208157    0.5325456  48.27  0.004616697    2.173    0.540
        82  -9.8659     15.5831    238.4922   9.0664453876e+01   2.0401597971e+01    0.1202636   0.09882975  34.93 -0.0001367462    1.037    0.036
        83  -9.7808    157.7005    222.6908   5.5697210579e+01   9.0667307451e+00    0.1233934   0.07640734 -11.45 0.0002368038    1.599    0.374
        84 -12.7752     11.8236     24.4634   6.1894075208e+01   7.4923453156e+01    0.4314409    0.3277597  18.82 0.0004925322    1.219    0.180
        85 -14.1688     66.1198     82.9792   5.3166404594e+01   5.3364283662e+01     1.594237     1.326064  -7.54  0.007861376    1.447    0.309
        86  -9.8228    236.7190    145.9911   2.9902022438e+01   1.1707098215e+01    0.1548042    0.1082487 -31.46 0.0003717398    1.066    0.062
        87 -13.0163     59.7117     46.3031   4.2570208679e+01   6.2483835901e+01     2.840523    0.7549164  51.17  0.007891395    4.384    0.772
        88  -9.3595    229.1702    138.3854   2.9496667529e+01   1.3689948369e+01    0.1193172    0.1096367  64.69 0.0003281515    1.576    0.366
        89  -9.2489    182.7152    125.3070   3.3716102606e+01   2.2369360070e+01    0.1223691   0.09481189 -63.49 0.0003785077    1.566    0.361
        90  -9.2321    152.7148    124.2910   3.9068178236e+01   2.7646222613e+01    0.1305608    0.1074163 -76.67 0.0001890885    1.536    0.349
        91 -10.4500    115.5114    121.0313   4.7105852266e+01   3.5143968905e+01    0.2250747    0.1436656 -48.00 0.0004348379    1.537    0.349
        92 -10.9417    181.0412    119.0088   3.2658424855e+01   2.3711290542e+01    0.3773101    0.2642323  22.65 0.0003596332    1.894    0.472
        93 -10.5211    181.5257    115.4965   3.1821580082e+01   2.4223264409e+01    0.3123065    0.1916444  55.90  0.001648953    2.019    0.505
        94 -11.1720     72.9791    119.0034   5.9898080437e+01   4.3211547976e+01    0.2231662     0.218941  45.85            0    1.008    0.007
        95 -10.3224    203.3111    115.7916   2.8596969987e+01   2.0660444104e+01    0.3407779    0.1982011  72.50  0.001584604    3.523    0.716
        96 -13.0570     78.3307     41.5335   3.3411435300e+01   5.9166497518e+01     1.133982    0.3851171  47.37  0.003760102    2.867    0.651
        97 -11.8847     75.9634     52.0156   3.8496914865e+01   5.7899214229e+01    0.2739702    0.2481595 -83.47 0.0003413514    1.175    0.149
        98 -12.7362     81.3739     48.4256   3.5217060589e+01   5.7307139447e+01    0.9500396    0.4263592  50.98  0.003269634    2.089    0.521
        99 -10.6256     93.3048    116.0140   5.2379400583e+01   4.0415463354e+01    0.2136534    0.1971397 -50.64 0.0003861985    1.086    0.079
       100 -11.4017    137.2075    112.8096   3.9755474036e+01   3.2755444467e+01    0.5735412    0.2548734  30.75  0.001863695    3.934    0.746
       101 -11.5780     49.8709     95.0547   6.3413340259e+01   5.3062785814e+01    0.2691799    0.2201687  31.47 0.0003610755    1.207    0.172
       102 -11.9891     54.6277     93.6263   6.0982588250e+01   5.2703669127e+01    0.3076357    0.2750889  69.86  0.001584544    1.197    0.164
       103 -11.8501    185.1812     91.8836   2.6008855303e+01   2.7438069306e+01    0.3459243    0.1944932 -60.23  0.001664493    2.189    0.543
       104 -11.9224     45.1889     91.6699   6.4676162802e+01   5.4628637968e+01    0.4171046    0.2866221 -54.47  0.001919063    1.441    0.306
       105 -11.6838    216.0396     91.4103   2.1990144849e+01   2.2290729587e+01    0.2743251    0.1411267 -37.93 0.0007308585    1.541    0.351
       106 -12.3725    223.3346     87.7429   2.0455260648e+01   2.1664480674e+01    0.3676347    0.2663076  33.63  0.002424934    1.992    0.498
       107 -11.4655     51.6979     87.0129   6.0503408192e+01   5.4851188629e+01    0.3809936    0.2504204 -28.41 0.0007887435    1.928    0.481
       108 -11.8117     48.2115     85.1855   6.1589109809e+01   5.5856354904e+01    0.5145521    0.2748218  24.89  0.001760059    2.005    0.501
       109 -13.9951     37.7138     82.0141   6.5791537391e+01   5.8177107963e+01     2.020196    0.7813516 -51.71  0.004314267    2.463    0.594
       110 -11.7760    161.8264     84.0585   2.7748151749e+01   3.3155139932e+01    0.7110465     0.413145  46.29  0.003485486    1.990    0.498
       111 -12.2752    169.0226     79.4078   2.5437070422e+01   3.2473988433e+01    0.5395265    0.3997145 -49.28  0.001792337    1.199    0.166
       112 -12.7032    114.3226     81.0778   3.6807827054e+01   4.3780814383e+01    0.8725833    0.6109272 -19.47  0.003124281    2.014    0.504
       113 -12.6031    193.5457     67.7220   1.9392085449e+01   2.9502205760e+01    0.5998144    0.4215168 -82.39  0.001261584    1.633    0.388
       114 -10.5715     95.9867    112.5240   5.0688861200e+01   4.0743675731e+01    0.2392715    0.2033063 -54.64 0.0005099599    1.183    0.155
       115 -10.7977    247.8676     83.6538   1.7355497389e+01   1.8622578850e+01    0.2905029     0.231562   7.12  0.002177253    1.857    0.461
       116 -12.3867    220.4657     69.5726   1.7024132952e+01   2.4559039753e+01    0.3650378    0.2668392 -40.67  0.001199487    1.105    0.095
       117 -13.4245    216.9137     77.2873   1.8973223904e+01   2.4110045758e+01     0.857353    0.3772241 -27.29  0.004015195    2.659    0.624
       118 -11.7402    220.8835     79.6106   1.9053053397e+01   2.3155447904e+01    0.2712955    0.2141592 -22.93 0.0005249226    1.388    0.280
       119 -12.1343    235.5460     85.6916   1.8842872151e+01   2.0108883675e+01    0.5268968    0.2908368  84.13  0.002867845    3.306    0.698
       120 -11.3810    238.1904     80.9690   1.7688003600e+01   2.0337613696e+01    0.1658623    0.1638639   8.01            0    1.366    0.268
       121 -11.5331    124.8629     69.8839   3.0941622653e+01   4.3501148431e+01    0.5136347    0.3153422 -79.92  0.001477843    2.610    0.617
       122 -11.7109    136.8057     72.0891   2.9091566794e+01   4.0452974263e+01    0.9027376    0.5610192  70.12  0.003735703    1.848    0.459
       123 -12.2621    145.4319     66.7883   2.5980797236e+01   3.9429956430e+01    0.7939449    0.5896202  35.80  0.002577472    1.741    0.426
       124 -10.2469    130.0948     69.1010   2.9586074143e+01   4.2458072101e+01    0.2098782    0.1995075 -80.58            0    1.039    0.037
       125 -13.6895    116.2845     62.3518   3.0545854441e+01   4.6768012249e+01    0.9991941    0.7616311  48.69  0.001848761    1.367    0.269
       126 -11.8823     97.3922     68.8890   3.7642797287e+01   4.9905329423e+01     0.501256    0.3666043 -74.08  0.001095333    1.697    0.411
       127 -11.4945    155.1686     65.2570   2.3934039726e+01   3.7557069224e+01     1.187743    0.2480377 -37.52   0.00365888    4.149    0.759
       128 -10.5674    151.8476     58.8848   2.2711151823e+01   3.9246780591e+01    0.1930621     0.188328 -25.60  0.001220955    1.213    0.176
       129 -12.5015     72.8768     73.6570   4.7526923071e+01   5.4186889792e+01    0.8947349    0.6562936  51.02  0.003625218    1.363    0.266
       130 -11.4183     82.2138     77.4681   4.5349968425e+01   5.1444489366e+01     0.403163    0.2743418 -44.33 0.0006277807    1.516    0.340
       131 -10.5739     82.7036     72.9476   4.3700475652e+01   5.2304341884e+01    0.2917964    0.2664627  80.81 0.0007231236    1.139    0.122
       132 -12.5298     46.5377     54.0365   5.2088446626e+01   6.3492673782e+01    0.9008823    0.4769132  21.54  0.003345284    2.724    0.633
       133  -9.7372    211.5173    112.2453   2.6775523312e+01   1.9950663274e+01     0.170435    0.1036814  50.92 0.0005853811    2.052    0.513
       134 -10.7921    215.5498     42.0358   1.1628704981e+01   2.8831075688e+01    0.2984418     0.226955 -73.07   0.00127254    1.260    0.206
       135 -12.1286    161.6066    107.2245   3.3414946155e+01   2.9190770752e+01    0.4271709    0.1895128 -45.62  0.001818571    2.075    0.518
       136 -11.6329    241.3745     68.9129   1.5097698818e+01   2.1392378765e+01    0.5093004    0.2583676 -22.72  0.002629978    2.554    0.608
       137 -13.3974    242.3102     60.7500   1.3456494522e+01   2.2248609637e+01    0.4975983    0.3153492 -71.47  0.001031045    1.759    0.431
       138 -11.5996    238.1570     51.3890   1.1934571811e+01   2.3994551850e+01    0.4232386    0.1897298 -47.71  0.002552731    1.660    0.397
       139 -12.5256    232.7679     46.8318   1.1401460317e+01   2.5378821853e+01    0.5464992    0.4241151  66.96  0.004129831    1.642    0.391
       140 -11.4968    225.8824     49.6283   1.2455939067e+01   2.6169562278e+01    0.3817771    0.1653706 -32.84 0.0008615518    1.971    0.493
       141 -10.1325    155.9920     76.9046   2.6895781378e+01   3.5528234386e+01     0.273385     0.190375  78.00  0.001416821    1.691    0.409
       142 -12.1092    249.2460     71.9996   1.5069092590e+01   1.9876712903e+01    0.8884259    0.1857782 -35.03  0.003674634    3.542    0.718
       143 -10.2819    104.0098     75.6609   3.7924617593e+01   4.7112615371e+01    0.2107832     0.186524  56.62  0.000484421    1.116    0.104
       144 -11.6916    103.9269     66.1087   3.4875553825e+01   4.8947941831e+01    0.3173881    0.2787251   7.00            0    1.426    0.299
       145 -12.4757     97.9737     77.4012   4.0219262495e+01   4.8092943623e+01     1.009483    0.6122205 -73.40  0.002719384    2.810    0.644
       146 -11.8551    167.4250     64.9443   2.2023001506e+01   3.5023653280e+01    0.4423147    0.3790974 -80.43  0.001641098    1.151    0.131
       147 -10.1249    161.4682     66.6151   2.3323150395e+01   3.6011752069e+01     0.259275    0.1518489 -35.90 0.0007000064    1.629    0.386
       148 -10.9138     86.7833     74.1157   4.2698449838e+01   5.1190436940e+01    0.5662018    0.2809269 -50.78   0.00216297    2.129    0.530
       149 -11.3613    128.1178     58.3894   2.6749599224e+01   4.4682432309e+01      0.87448     0.248457  51.47  0.002874089    3.563    0.719
       150 -10.3160    136.9952     62.0977   2.6160189646e+01   4.2060420840e+01    0.5067226    0.2179023 -36.53  0.002056588    2.299    0.565
       151 -10.4345    141.1815     61.6417   2.5267258318e+01   4.1190554603e+01    0.3315335     0.157983  62.42  0.000927248    2.181    0.542
       152  -9.8459    108.4958     55.4468   3.0118481379e+01   4.9754048266e+01    0.5737374    0.3630679 -88.71   0.00242168    2.270    0.560
       153 -11.6708     98.3147     55.5996   3.2811754948e+01   5.2122387574e+01     0.686057    0.4632368 -66.69  0.001561966    1.816    0.449
       154 -10.8513    101.9205     53.6733   3.1161808993e+01   5.1601912692e+01    0.3234645     0.299956  53.62  0.001065442    1.115    0.103
       155 -10.0870    145.8218     58.9505   2.3698482574e+01   4.0569625443e+01    0.2620605    0.1652753 -14.41  0.001151568    2.540    0.606
       156 -12.0417    174.0239     56.3063   1.8951516714e+01   3.4908960000e+01    0.3761663    0.2624553  71.65 0.0009615802    1.529    0.346
       157 -10.8376    248.8126     55.5017   1.2005676083e+01   2.1907541700e+01    0.2547083    0.1730302  53.15  0.001294352    2.101    0.524
       158 -11.4586    145.5016     52.6298   2.1934112294e+01   4.1583377175e+01     0.541926    0.3348782  27.77  0.001051853    3.046    0.672
       159 -10.9414    131.6489     34.0051   1.8414032512e+01   4.7353870603e+01    0.3285947    0.2065767 -38.84  0.001162581    1.553    0.356
       160  -9.1333    134.1977     41.2252   2.0304126017e+01   4.5799469471e+01    0.9626641    0.5064532 -77.52  0.003886748    2.740    0.635
       161 -10.1027     38.3352    111.3193   7.1946612690e+01   5.0219129128e+01    0.1639955    0.1115258 -30.51 0.0004800637    1.701    0.412
       162 -11.4068    146.6769     39.0411   1.7790875191e+01   4.3190544076e+01    0.3314861     0.324627  22.19  0.002162836    1.280    0.219
       163 -11.4116    142.2723     46.6941   2.0698040418e+01   4.3166856155e+01    0.2209787    0.1592922 -56.94 0.0001812737    1.301    0.232
       164 -11.9173    144.8853     44.1176   1.9540550535e+01   4.2924279954e+01    0.2557346    0.2378039  -2.75 0.0004078174    1.364    0.267
       165 -10.9129    135.6969     52.9236   2.3656232565e+01   4.3777409358e+01    0.5451632    0.1990494  63.20  0.002058455    2.803    0.643
       166 -10.8706    245.2012     50.2781   1.1252006733e+01   2.3047834354e+01     0.198336    0.1154339 -39.01 0.0002325709    1.273    0.215
       167 -10.5301     90.3500     51.2214   3.3489984512e+01   5.4739710633e+01    0.2144545    0.2022302  67.85 0.0003517648    1.023    0.023
       168 -10.3545    161.4944     48.7267   1.8551707302e+01   3.8594589945e+01    0.3300783     0.238308 -21.82  0.001832573    1.676    0.403
       169 -10.1453    250.4039     48.7423   1.0636158496e+01   2.2450533216e+01    0.1646246    0.1336353 -40.16  0.001066795    1.219    0.180
       170 -11.2974    248.5811     43.3913   9.7399807282e+00   2.3322021719e+01    0.4780528    0.1868829 -52.25  0.002431709    2.035    0.508
       171 -11.2617    155.6211     42.3103   1.7544186004e+01   4.0743695511e+01    0.4977017    0.3299838  47.95  0.002669184    1.846    0.458
       172 -10.4032     99.2655     47.4548   2.9610462062e+01   5.3248986976e+01    0.2610878     0.249738 -70.40 0.0009723182    1.073    0.068
       173 -10.2120    122.4003     44.0561   2.3277092895e+01   4.8205223273e+01     0.349202    0.2522366  15.75   0.00166696    2.218    0.549
       174  -9.5660    104.8094     43.3474   2.6740004057e+01   5.2548813006e+01    0.2081276    0.1199046  53.15 0.0009442833    1.683    0.406
       175  -9.7507    100.4299     41.4139   2.7073119585e+01   5.3898508725e+01    0.3012072    0.2095533  -4.71  0.001370027    2.263    0.558
       176  -9.5750     93.7173     41.9950   2.9012231257e+01   5.5434365696e+01    0.1962547       0.1869 -74.42 0.0005981644    1.071    0.066
       177 -10.3589    240.9595     39.7345   9.4867060491e+00   2.4892596158e+01    0.1795224    0.1084503 -42.04 0.0005194842    1.204    0.169
       178 -11.4030    234.3264     36.7420   9.2920348264e+00   2.6278017536e+01    0.3929621    0.2002945 -66.34  0.001972147    1.953    0.488
       179  -9.2387    114.4771     38.4539   2.2905177026e+01   5.0905968343e+01    0.1414163    0.1245904 -83.22 0.0008079013    1.051    0.048
       180  -9.4190     96.2488     36.6537   2.6279783018e+01   5.5609862224e+01    0.1430494    0.1016333 -66.36  0.000549576    1.579    0.367
       181 -11.5446     92.2326     33.9388   2.6212363760e+01   5.6974909229e+01    0.5443943     0.329486  50.57   0.00259276    1.609    0.379
       182 -11.4729    122.6194     32.7134   1.9436255004e+01   4.9690103237e+01    0.5315633    0.2620965 -32.12 0.0008801646    2.108    0.526
       183 -10.5981     74.4025     33.4260   3.1195660062e+01   6.1350425353e+01    0.4577042      0.24429  59.09  0.002019433    1.765    0.433
       184 -10.2812    169.4884     32.6992   1.3353655562e+01   3.8918499622e+01    0.2291981    0.1410988  73.95 0.0007563422    1.639    0.390
       185 -10.5311    112.2970     32.7957   2.1320868308e+01   5.2198453032e+01    0.2928741    0.1947204  57.50 0.0007839995    1.457    0.314
       186 -11.7252    149.8877     42.1404   1.8255525383e+01   4.2052223507e+01    0.3137517     0.240745 -45.37 0.0003710621    1.216    0.178
       187  -9.6045    241.7059     29.9939   7.5639779084e+00   2.5838514209e+01    0.2257128     0.136234 -58.37  0.001015472    1.329    0.247
       188 -10.2658    237.7571     30.6301   7.8939923864e+00   2.6395898980e+01    0.2219271    0.1254946 -74.84  0.001495073    1.810    0.447
       189 -10.4650    226.9458     30.6796   8.5054864159e+00   2.8163659210e+01    0.3694042    0.1944207  54.29  0.002224899    2.707    0.631
       190 -10.1878    233.5595    108.9674   2.3509184410e+01   1.7251639684e+01    0.1558336     0.138591 -16.92  0.001217997    1.254    0.203
       191 -12.0124    209.8463     22.0416   7.6798420345e+00   3.2098256055e+01    0.2902291    0.1822816 -69.63  0.001100753    1.416    0.294
       192 -11.2685    196.0921    108.0575   2.8004544180e+01   2.3014085120e+01    0.4017407    0.2542272 -67.18  0.002065417    2.318    0.569
       193 -10.1522    104.5061     27.7465   2.0980569104e+01   5.4763312311e+01     0.217394    0.1909493  75.83  0.001278621    1.050    0.047
       194 -10.4891    152.3687     29.5559   1.4313169906e+01   4.3070235476e+01    0.2151297     0.190237  84.62 0.0001090178    1.150    0.131
       195  -9.7886    153.4992     25.5044   1.3022647095e+01   4.3284299905e+01    0.1927066   0.09865757 -44.75 0.0007732824    1.713    0.416
       196  -9.7533    168.8371     26.7864   1.1853295689e+01   3.9747445004e+01    0.1769015    0.1159173 -57.87  0.000466757    1.312    0.238
       197  -9.9252    158.9430     26.6206   1.2770082704e+01   4.1933661804e+01    0.1953963    0.1676859 -28.06   0.00055753    1.349    0.259
       198 -10.5601    233.9006     24.6415   6.9148235053e+00   2.7656901090e+01    0.2771769    0.1658307 -24.00  0.001809104    1.891    0.471
       199  -9.4216    223.2179     26.3765   7.8339827138e+00   2.9263840918e+01    0.1453395   0.08388393 -76.15 0.0008119183    1.722    0.419
       200 -11.2216    149.5844    104.8086   3.5159046114e+01   3.1913498113e+01    0.2842025    0.2075966 -68.47   0.00143372    1.666    0.400
       201 -12.4848    176.2547     23.4527   1.0340964347e+01   3.8543397889e+01    0.2718175    0.2124857 -38.51 0.0002245709    1.263    0.208
       202 -10.7361    147.9740     24.7048   1.3393629326e+01   4.4637924920e+01    0.3266192    0.2223583  39.89  0.001752859    2.023    0.506
       203 -11.3775    144.8912    102.6310   3.5585850411e+01   3.3238533287e+01    0.4897745    0.3226112 -31.30  0.002369771    1.639    0.390
       204  -9.6936    119.4793     22.0000   1.6243044934e+01   5.1742983364e+01    0.2179098    0.1621092 -72.11  0.000452027    1.283    0.221
       205 -10.5026    208.9984    103.8685   2.5394958951e+01   2.1588490195e+01    0.5075294    0.2152361 -54.07  0.002160756    3.125    0.680
       206 -11.6750    155.9572    105.0377   3.3960426151e+01   3.0648090600e+01    0.2920756    0.1819602 -41.78  0.001449925    1.469    0.319
       207 -10.3525     15.4860    106.4978   8.1412863149e+01   5.3793018112e+01    0.1462575    0.1416616 -65.24 0.0001268209    1.015    0.015
       208 -11.2637    109.6032    104.4120   4.4597983924e+01   3.9939705551e+01    0.2885865    0.1825917 -44.79  0.000742834    1.570    0.363
       209 -11.2994    140.8576     96.1039   3.4780745546e+01   3.5275346471e+01    0.4536153    0.3309104 -70.59  0.001621978    1.664    0.399
       210  -9.4520    143.0245     79.4910   2.9936185633e+01   3.7828976734e+01    0.1901026    0.1366878  53.86 -8.822355e-05    1.465    0.317
       211 -13.0284    122.2816     99.5759   3.9966361837e+01   3.8394241415e+01    0.6197093     0.491894 -11.56  0.002692942    1.632    0.387
       212 -13.6279    131.2191     94.9652   3.6603287381e+01   3.7471457772e+01    0.9713266    0.7803176  23.39  0.005028627    1.541    0.351
       213 -11.1344    131.1436     86.9228   3.4447292030e+01   3.9023613459e+01    0.5453749    0.2811879  55.04  0.002311024    2.061    0.515
       214 -10.4818    125.4022     24.4739   1.6210818615e+01   5.0014795373e+01     0.446654    0.1926967  82.57  0.001764346    2.706    0.631
       215 -11.0359    123.9954     92.7578   3.7711904258e+01   3.9410520396e+01    0.2858908     0.272204 -37.25 0.0003287513    1.083    0.076
       216  -8.9872    244.5288     18.8317   5.2989643081e+00   2.6554434113e+01    0.2881328    0.1252347 -53.19 0.0008554992    1.673    0.402
       217 -11.1600    246.9497     22.7786   5.9398638675e+00   2.5777251535e+01    0.1980904    0.1482365 -77.26  0.001015827    1.364    0.267
       218 -11.9904    242.3581     22.6204   6.1160049505e+00   2.6509019778e+01    0.2723728     0.165966 -86.55 0.0007763366    1.753    0.430
       219  -7.7714     97.8945     21.8154   1.9992843090e+01   5.7121393163e+01    0.3317297    0.2580944 -17.19  0.001836053    1.567    0.362
       220 -10.0585    102.7370     23.1275   1.9546330406e+01   5.5760688695e+01    0.2109329    0.1665272  81.41  0.000554032    1.159    0.137
       221 -10.4037    164.7503     21.4208   1.0786886941e+01   4.1231963767e+01    0.3012449    0.1487823 -72.41  0.001457742    2.143    0.533
       222 -10.4877    134.6906     26.3146   1.5515711620e+01   4.7566697426e+01    0.2457331    0.2196188 -10.05 0.0008916423    1.416    0.294
       223  -9.3919    151.1497     20.6797   1.1872180239e+01   4.4355863583e+01    0.2014616    0.1322228 -73.31 0.0007727186    1.414    0.293
       224 -11.1725    130.5049     19.2289   1.3767851279e+01   4.9364955732e+01    0.2615278    0.1869041  87.30 0.0002778046    1.278    0.218
       225  -9.4785    136.0187     19.4828   1.3172645197e+01   4.8017226741e+01    0.1822672    0.1164766  74.87  0.000391326    1.453    0.312
       226 -11.7650    126.9909     89.6037   3.6134103942e+01   3.9395294198e+01    0.5287998    0.2546655  52.81  0.001224471    2.183    0.542
       227 -12.2577    121.5772     87.1757   3.6752562001e+01   4.1020355007e+01     0.482483    0.4065062 -56.32  0.001538023    1.166    0.142
       228 -12.5682    125.4759     83.5737   3.4804111247e+01   4.0871514129e+01    0.5681003     0.452508 -20.62  0.002228833    1.530    0.346
       229 -10.6996    132.2899     82.9833   3.3104273768e+01   3.9509659339e+01    0.2512857    0.2348945  76.32 0.0003414417    1.083    0.077
       230 -12.1059    136.5723     81.0862   3.1667532370e+01   3.8931502354e+01     0.714183    0.5080743 -78.58  0.001893287    1.781    0.439
       231 -11.9298    148.0039     84.7487   3.0387856757e+01   3.5863354996e+01    0.5143936    0.4029432  84.39  0.001293151    1.472    0.321
       232 -10.9366    147.3531     79.0775   2.9003605296e+01   3.6979483901e+01    0.2959619     0.268866 -65.49  0.000839595    1.033    0.032
       233 -11.0810     95.8571    102.0399   4.8032337907e+01   4.3195786173e+01    0.3666366    0.2077829 -41.88  0.001501852    1.861    0.463
       234 -10.5211    182.7169    101.9950   2.8657842783e+01   2.6256936696e+01    0.1879563    0.1493287 -40.88 0.0005512941    1.085    0.078
       235 -11.7948    224.9349     99.0952   2.2547563970e+01   1.9850836432e+01    0.3865166    0.2903929   8.95  0.002528806    1.958    0.489
       236 -10.0882    165.9128    101.5293   3.1302488873e+01   2.9391044846e+01    0.1885633    0.1341697  52.74 0.0008606237    1.569    0.363
       237 -11.7973    159.6532     99.1715   3.1856997115e+01   3.0992123367e+01    0.6114634    0.2655858 -55.75  0.002213093    3.208    0.688
       238 -11.7934    154.0374     96.9316   3.2352386433e+01   3.2483711799e+01     0.562763     0.316103 -30.92  0.002004639    1.995    0.499
       239 -10.4949    150.7109     95.7085   3.2684937438e+01   3.3362910703e+01    0.4257618    0.2318883 -51.83     0.001369    1.868    0.465
       240 -12.2085     95.8116     90.2485   4.4763873730e+01   4.5841946152e+01    0.7000399    0.5390373  74.75  0.001078365    1.577    0.366
       241 -12.1123    102.3970     96.4646   4.4529261286e+01   4.3130701325e+01    0.4692746    0.3305608 -48.98 0.0002251038    1.414    0.293
       242  -9.1302    212.3052     11.6127   5.2874867782e+00   3.2720837271e+01    0.1258428   0.05348908 -54.42 0.0004079638    1.802    0.445
       243 -12.6017    106.9126     95.9451   4.3078764209e+01   4.2316570445e+01    0.6429738    0.3562796 -34.80 0.0004228517    2.163    0.538
       244 -12.5973     73.3004     96.7023   5.4305441515e+01   4.8747655952e+01    0.5060657    0.4304275  80.25  0.002515779    1.337    0.252
       245 -11.8352     88.0980     98.1108   4.9468395106e+01   4.5618629419e+01    0.5511445     0.350074  37.61  0.001349039    1.592    0.372
       246  -9.8815    244.5074     98.5334   2.0428480329e+01   1.7167068879e+01    0.2081527   0.08584003 -28.42   0.00103174    2.544    0.607
       247  -9.1727    238.2522     99.6266   2.1247765022e+01   1.7874809703e+01    0.1139501   0.06489529 -51.08 0.0002825258    1.641    0.391
       248 -10.6023    170.4939     98.1552   2.9727569143e+01   2.9112306161e+01    0.3346897    0.2112098 -48.67  0.001751443    1.459    0.315
       249 -11.8802     11.8887     97.3028   8.1885991934e+01   5.6631206517e+01    0.3734601    0.3352715  27.19  0.001356161    1.140    0.123
       250 -12.8428    176.3413     86.0511   2.5943828585e+01   2.9996933694e+01      1.14441    0.6172994  31.53  0.004638694    3.640    0.725
       251 -10.9482    162.4881     57.3694   2.0734565462e+01   3.7168550072e+01    0.4296661    0.3516567 -83.23  0.001978872    1.203    0.169
       252 -11.0352    167.8622     51.8331   1.8566586136e+01   3.6808361508e+01    0.3668184    0.2924549  -7.21  0.001247334    1.736    0.424
       253 -11.0920     36.8537    248.8759   8.6029398083e+01   1.6647721371e+01    0.1825293    0.1537419   3.57  0.001259373    1.255    0.203
       254 -13.7595    182.4097     74.0705   2.2241867546e+01   3.0683878784e+01     1.669535     1.020892  84.92  0.008549594    2.227    0.551
       255 -11.3321    113.6192    246.3127   6.8005042105e+01   9.7986203458e+00    0.2937934    0.1893413 -28.54  0.001228757    1.657    0.396
       256 -13.7039    194.9322     86.0464   2.3373763295e+01   2.6594567274e+01      1.18014    0.6563671 -50.85  0.006335883    1.658    0.397
