#   1 NUMBER                 Running object number                                     
#   2 MAG_AUTO               Kron-like elliptical aperture magnitude                    [mag]
#   3 X_IMAGE                Object position along x                                    [pixel]
#   4 Y_IMAGE                Object position along y                                    [pixel]
#   5 X_WORLD                Barycenter position along world x axis                     [deg]
#   6 Y_WORLD                Barycenter position along world y axis                     [deg]
#   7 A_WORLD                Profile RMS along major axis (world units)                 [deg]
#   8 B_WORLD                Profile RMS along minor axis (world units)                 [deg]
#   9 THETA_WORLD            Position angle (CCW/world-x)                               [deg]
#  10 FWHM_WORLD             FWHM assuming a gaussian core                              [deg]
#  11 ELONGATION             A_IMAGE/B_IMAGE                                           
#  12 ELLIPTICITY            1 - B_IMAGE/A_IMAGE                                       
         1 -13.4981    220.9679     47.6785   3.5458951439e+02   2.6468320890e+01    0.7349953    0.7028145   2.88      0.00225    1.510    0.338
         2 -12.4782    248.0418     26.1946   3.4843015113e+02   2.4361841055e+01    0.7678351    0.3352864 -36.44  0.004541146    1.792    0.442
         3  -8.8999    234.5394     11.9596   3.4628692414e+02   2.8246203878e+01    0.1658983   0.08153307 -39.44 0.0007908679    1.562    0.360
         4  -9.6241    227.1132      9.6292   3.4615444172e+02   2.9829885823e+01    0.1955005    0.1345378 -41.47 0.0007215376    1.279    0.218
         5  -8.9837      2.3272      2.3043   4.0377326386e+01   7.9486038324e+01    0.1244764   0.08090525 -12.37 0.0007034428    1.647    0.393
         6  -9.5130    108.3063    239.4781   5.1460456222e+01   1.0271655947e+01    0.1848909    0.1140561 -58.11 0.0006735243    1.942    0.485
         7  -9.1334     74.7037    249.7859   5.9953815091e+01   1.2194672790e+01    0.2069083   0.09205307 -54.83 0.0007848747    2.637    0.621
         8  -9.0813     37.0335    250.8396   6.8496860741e+01   1.5881877300e+01    0.1497623   0.07000032  27.69            0    1.715    0.417
         9 -12.0624     54.0789    234.1052   6.3524586821e+01   1.7439578577e+01     3.907979          nan -64.55  0.006262619   10.311    0.903
        10 -13.3581     67.3488    190.5422   5.6120699921e+01   2.5539677375e+01     2.436416     1.113519  55.71 0.0007499181    2.657    0.624
        11 -15.4495      7.0663    145.5893   7.0483245609e+01   4.3515112291e+01     7.807447      2.06938 -84.89     0.023844    3.918    0.745
        12  -9.2602    163.6884    237.0755   3.9605169979e+01   4.3275315955e+00     0.156206    0.1267234 -10.50 0.0004123922    1.107    0.096
        13 -13.2571    129.0217    229.7736   4.5777248452e+01   9.5368660637e+00     1.056453    0.5104362  26.23  0.005323838    1.820    0.451
        14 -11.9222     98.9547    226.2314   5.2138491011e+01   1.3847224020e+01    0.6233636    0.4467482  33.93  0.003690814    1.210    0.173
        15 -11.5205     85.3540    222.1749   5.4934570347e+01   1.6304651249e+01     1.119654    0.2774012  32.93  0.004077299    3.008    0.668
        16  -9.8072     43.5186    229.8845   6.5768617190e+01   1.9416564953e+01      0.21155    0.1837119  47.56 0.0007378187    1.062    0.058
        17 -10.0813     47.0712    229.0518   6.4852189194e+01   1.9221491272e+01    0.2207463    0.1838054  48.66   0.00105642    1.055    0.052
        18 -12.6671    116.7605    228.9311   4.8375760083e+01   1.1171013011e+01    0.9165217    0.3539175  43.37  0.003848225    2.812    0.644
        19  -9.4027     72.1473    224.3373   5.8357270256e+01   1.7427567148e+01    0.1808525    0.1712621 -29.33 0.0002999964    1.224    0.183
        20 -12.1649    107.4537    228.5609   5.0437439668e+01   1.2369699703e+01    0.5785127     0.352867  38.44  0.003196348    1.486    0.327
        21  -9.9715    174.5382    222.5734   3.5513743854e+01   5.3514413719e+00    0.1828312    0.1124611 -54.90  0.001024728    2.236    0.553
        22 -14.6724      9.9906    206.2615   7.2883425539e+01   2.7824540722e+01    0.8912811    0.6250352   5.40   0.00279915    1.721    0.419
        23  -8.5666     72.3760    232.7216   5.9059705149e+01   1.5702160993e+01     0.137717   0.07711734  48.60 0.0007007773    1.702    0.413
        24  -9.9251     95.5157    209.3824   5.1003953333e+01   1.7680578309e+01    0.2604805    0.1357512 -62.83  0.001215037    2.193    0.544
        25 -10.5060     73.1395    208.3888   5.6533751038e+01   2.0718691263e+01    0.3090472    0.2738182 -86.69 0.0009868705    1.238    0.192
        26 -10.7736    102.0960    200.0321   4.8174793539e+01   1.8793008196e+01    0.2707076    0.1733327   2.75  0.001259876    2.045    0.511
        27  -9.5788    210.7165    198.6416   2.5421312185e+01   4.8799508275e+00    0.1953329    0.1647904 -16.42 0.0004202951    1.131    0.116
        28 -10.0264    192.9710    194.8526   2.7833066681e+01   7.5638909099e+00    0.5566299    0.3080879 -64.71  0.001791492    7.292    0.863
        29 -13.0619     54.4003    217.5046   6.2167814837e+01   2.0900044123e+01     1.809297     1.325616 -88.49  0.003980703    1.512    0.339
        30  -8.9069     52.0330    189.2257   6.0250295929e+01   2.7718123048e+01    0.1869487    0.1656701  48.23 0.0002865893    1.015    0.014
        31  -8.8676    237.0861    188.3195   1.9711714712e+01   3.4715992861e+00    0.1452531    0.1150048 -14.75 0.0004141333    1.089    0.082
        32 -10.5355    107.7343    186.9869   4.4902661687e+01   2.0840184689e+01     0.191451    0.1864422 -17.59 0.0004571959    1.066    0.062
        33  -9.6188     94.4347    183.3863   4.7827217443e+01   2.3566533665e+01     0.303635    0.2143174  39.59 0.0003923815    1.329    0.248
        34  -8.3595     78.3170    184.2696   5.2324245917e+01   2.5603577185e+01    0.1384129    0.1088584 -15.87 0.0003127656    1.557    0.358
        35  -8.8748     70.5939    183.4817   5.4376443172e+01   2.6821291862e+01    0.1418643    0.1300203  53.80 8.451295e-05    1.030    0.029
        36  -9.3255     83.3286    180.7220   5.0461921265e+01   2.5762443251e+01    0.2401636    0.1704729 -81.29 0.0005682922    1.642    0.391
        37  -9.4155     59.8461    178.8573   5.6892236472e+01   2.9339523208e+01    0.2862959    0.1764461 -61.53  0.001031956    1.673    0.402
        38 -10.2346    127.0172    177.8202   3.8664734583e+01   1.9962161609e+01    0.2391885    0.1606089  -1.87  0.001097482    2.035    0.509
        39  -8.7088    108.5178    176.5124   4.3070919275e+01   2.3066123425e+01    0.1410428    0.1350024  20.33 0.0001986319    1.011    0.011
        40 -11.1020    172.5800    172.0305   2.7700168536e+01   1.4231294015e+01    0.5379825    0.3269062 -43.26  0.002844161    1.540    0.351
        41  -9.3590     79.8944    173.4199   5.0395762214e+01   2.8013091263e+01    0.2269971    0.1913706  89.57  0.000450047    1.272    0.214
        42 -10.5843     90.1825    169.4024   4.6880914260e+01   2.7497517239e+01    0.5333771    0.3720243 -38.00  0.001966743    1.640    0.390
        43 -11.1005     85.1926    163.0743   4.7300337715e+01   2.9797129174e+01     0.672676    0.2777403  52.59  0.002176445    3.326    0.699
        44 -10.1983    180.6132    168.2171   2.5470084997e+01   1.3748018869e+01    0.2924956    0.1172566 -49.24  0.001125663    2.609    0.617
        45 -10.6751    177.4468    164.1850   2.5321062405e+01   1.4943817926e+01    0.4013194    0.2377144  30.55  0.002066283    1.856    0.461
        46  -9.9710     97.7294    168.8587   4.4701817299e+01   2.6487155218e+01    0.3479207     0.198476  21.93  0.001465244    1.993    0.498
        47  -9.5929    110.1917    166.7177   4.0995699396e+01   2.5046572202e+01    0.2317654    0.1952643 -71.68 0.0003757515    1.305    0.234
        48 -13.3412     56.5056    127.4908   5.0497090377e+01   4.3342856657e+01     1.600871     1.095476  79.72 0.0009903666    1.723    0.420
        49 -11.8521     65.1625    156.8341   5.2380737717e+01   3.4286192639e+01    0.5972581    0.4388348 -15.31  0.000711444    1.809    0.447
        50 -13.5892     61.9481    144.7865   5.1560728071e+01   3.7917823539e+01     1.010509    0.7192325 -16.92  0.001214952    1.923    0.480
        51  -8.9084    141.5580    163.1328   3.2623368056e+01   2.0777316558e+01    0.2049697    0.1333767 -49.34 0.0008174164    1.521    0.343
        52 -12.1987     60.3326    160.3540   5.4394160206e+01   3.4017384987e+01    0.6457269    0.4128385 -53.17  0.002983028    1.631    0.387
        53 -10.9401     42.5350    154.8671   5.9390721812e+01   3.7678614194e+01    0.2795972    0.2374948  68.06 0.0004256693    1.119    0.106
        54 -10.0658    134.1898    148.0307   3.1407964180e+01   2.5246767017e+01    0.5012165    0.1822366 -53.25  0.001727312    2.910    0.656
        55 -10.4328    132.6733    140.6368   3.0245673417e+01   2.7137649033e+01    0.7890494    0.2822818 -51.54  0.002718493    2.814    0.645
        56 -11.3122     82.5965    144.7061   4.4932038026e+01   3.4841779610e+01    0.5992301     0.435371  -5.08  0.002656996    1.919    0.479
        57  -9.9033     47.1801    146.8499   5.6813981566e+01   3.9296790908e+01     0.238699    0.1937691  61.35 0.0006377999    1.200    0.167
        58 -10.8937     39.6628    144.9365   5.9129758160e+01   4.0702604361e+01    0.3272101    0.2763222  65.57 0.0003748154    1.134    0.118
        59 -10.3480     36.7139    142.3575   5.9828444716e+01   4.1738398115e+01    0.2955481     0.239247 -78.28 0.0008478221    1.193    0.161
        60 -10.4635    108.8079    145.2640   3.7378880408e+01   3.0317254525e+01    0.2827593    0.2737968 -77.37 0.0006585694    1.038    0.036
        61 -13.8485     30.5540    181.3627   6.5721667691e+01   3.2009830648e+01     2.191006     1.040904  22.23  0.009321725    2.099    0.524
        62  -8.7955    100.5283    143.4859   3.9351089752e+01   3.2175344397e+01    0.1538737    0.1421639  72.75 0.0008074898    1.111    0.100
        63 -11.2955     46.8764    139.4440   5.5870477776e+01   4.1352558961e+01    0.4226788     0.323802  59.90   0.00172399    1.305    0.233
        64 -11.8370     44.0332    131.6945   5.5724727462e+01   4.3829146917e+01    0.6001619    0.4090425  88.94  0.002256074    1.577    0.366
        65 -11.7475     19.3808    135.7976   6.5289375041e+01   4.5249460268e+01    0.5026166    0.2603425  67.08  0.001407577    2.106    0.525
        66 -12.7209     69.6006    144.8630   4.9070827248e+01   3.6797494240e+01    0.9925153    0.6541415  77.53  0.002090418    1.906    0.475
        67  -8.4501    153.2442    135.6608   2.4488371414e+01   2.4471196881e+01    0.1380118    0.1081043 -72.64 0.0004279692    1.559    0.358
        68 -10.6462     99.6337    132.2941   3.7310353518e+01   3.5076694801e+01    0.7601001    0.4572366 -21.04  0.002636998    3.188    0.686
        69  -9.9780    105.4689    130.4690   3.5223368909e+01   3.4463004942e+01    0.3610114      0.31432  61.12  0.001165851    1.188    0.158
        70 -14.5379     42.7015    174.0972   6.1454507958e+01   3.2585692129e+01     3.800802     3.469654 -35.15   0.02193586    1.269    0.212
        71  -8.8942    125.4244    134.3080   3.0686902808e+01   2.9875713809e+01    0.2140268    0.1410406 -61.96 0.0009509283    1.675    0.403
        72 -11.7280     85.2431    131.7222   4.1585080407e+01   3.7733564055e+01    0.2936064    0.2882772 -60.54 0.0004363461    1.055    0.052
        73  -9.1885    246.3278    131.3021   8.6541829527e+00   1.0560038933e+01     0.109803   0.07652059 -14.64 0.0003944308    1.644    0.392
        74 -10.1020     30.3978    131.8625   6.0774978836e+01   4.5309057391e+01    0.2901173    0.1773486  45.28 0.0008485092    1.598    0.374
        75  -8.9683    135.4750    127.9578   2.6802952972e+01   2.9393672219e+01    0.2120707    0.1278227 -70.65 0.0008097081    2.547    0.607
        76  -8.7421    121.3794    127.8782   3.0299039657e+01   3.2095049744e+01     0.211659    0.1297246 -74.07 0.0006524157    2.499    0.600
        77 -13.9389     18.8006    235.6499   7.1955477962e+01   2.0606532277e+01    0.9977044    0.6051351 -62.00  0.003358524    1.983    0.496
        78  -9.4191    109.0049    126.1558   3.3259710616e+01   3.4838342139e+01    0.2368316    0.2056094  -5.01 0.0009775902    1.386    0.278
        79 -10.5508     32.2229    123.5519   5.8952527621e+01   4.7430053765e+01    0.2835097    0.2103032  56.43 0.0005776493    1.357    0.263
        80 -15.0170      5.5686    228.8001   7.4803864865e+01   2.3185142912e+01     1.339429    0.6795296  81.04  0.006273499    1.963    0.491
        81 -10.4260     95.6797    120.9190   3.5973811892e+01   3.8595508607e+01    0.3106887    0.2630595  27.61 0.0006715466    1.279    0.218
        82  -8.8088     87.6156    121.8110   3.8701556468e+01   3.9838963475e+01    0.2099274    0.1469653 -70.75  0.000331265    1.570    0.363
        83  -9.1159    115.4675    121.4747   3.0394830450e+01   3.4701421253e+01    0.1506023    0.1466827 -64.11 0.0002693138    1.023    0.023
        84  -8.4639     76.4857    120.5277   4.2090145972e+01   4.2099609086e+01    0.1563989    0.1474399  77.13 0.0008095551    1.039    0.037
        85  -8.9910    105.8559    116.0363   3.1789508383e+01   3.7841972250e+01    0.2204589    0.1955378  87.37 0.0002816864    1.188    0.158
        86 -10.3072     32.9844    114.9695   5.7344995025e+01   4.9730973884e+01    0.2548135    0.1632495  60.05   0.00112989    1.700    0.412
        87 -10.4902    243.3069    114.0269   5.8055465002e+00   1.3476117762e+01    0.1711689    0.1163239 -40.18 0.0004548561    1.111    0.100
        88 -12.4588     74.9575    149.6929   4.8183695167e+01   3.4736820442e+01     1.072976    0.5896556 -65.94 0.0009229275    1.891    0.471
        89  -9.0568     28.6423    112.2995   5.8701945506e+01   5.0926132843e+01     0.161575    0.1017975  57.50 0.0007036198    1.708    0.415
        90 -10.9081     33.4479    107.7209   5.5935595227e+01   5.1680892960e+01     0.441102    0.3329886 -36.59  0.002169919    1.456    0.313
        91 -11.3663     23.8810    105.0566   5.9588244296e+01   5.3393767358e+01    0.4926188    0.3489262 -69.68  0.001508139    1.326    0.246
        92 -16.4016      5.7635    215.8740   7.4325344152e+01   2.5983943297e+01     4.221549     3.075569  23.63   0.01908331    1.366    0.268
        93  -8.9524    212.4879    106.9700   8.1481622929e+00   1.9264559083e+01    0.2007459     0.100744 -43.36  0.001020447    1.621    0.383
        94  -9.8510     52.2511    104.3975   4.7505161441e+01   5.0176173921e+01    0.2226723    0.1347513  41.88 0.0009503148    1.649    0.393
        95 -11.6115     16.1402     98.4757   6.2030038367e+01   5.5875184021e+01    0.6130779    0.2620918  30.01  0.002186848    2.270    0.560
        96  -8.4875    103.7393     93.2664   2.6469167508e+01   4.3526495494e+01    0.1469944    0.1171857  89.39  0.000682759    1.454    0.312
        97  -9.7801    102.6899    238.8825   5.2649776098e+01   1.1031634403e+01    0.2047527    0.1493158  15.97 0.0005221772    1.247    0.198
        98  -9.8165     43.9586     89.9626   4.7666123238e+01   5.5155437802e+01    0.2254691    0.2122675  72.69 0.0003071363    1.077    0.071
        99 -10.4191    240.5136     83.4968   2.1460185067e-01   1.8266123031e+01    0.1957645     0.115708  64.53  0.001212055    2.171    0.539
       100  -8.4916     30.6982     81.2539   5.1782181495e+01   5.9096355009e+01    0.1433071     0.106356  58.01            0    1.504    0.335
       101  -8.8073     41.5036     77.5754   4.5580691920e+01   5.8665339327e+01    0.1447264    0.1403978  68.51 4.588825e-05    1.053    0.051
       102  -9.5518     35.5842     74.8330   4.7717058206e+01   6.0146308655e+01     0.283769    0.1673262  45.05 0.0005801806    1.811    0.448
       103  -9.3487     16.4910     73.5577   5.7393691341e+01   6.2512069613e+01    0.1382541    0.1317098 -52.57 2.078242e-05    1.008    0.008
       104  -9.4508     30.9613     72.0494   4.9316531385e+01   6.1418458860e+01    0.2204739     0.209083 -27.01 0.0007114235    1.052    0.049
       105 -12.2453    197.9673     62.9116   2.2761752833e-01   2.8737732100e+01    0.6042564    0.4070081 -27.87 0.0008071256    1.672    0.402
       106 -13.1179    209.8755     55.3456   3.5725608902e+02   2.7508606736e+01    0.8542914     0.717271 -49.49  0.003354075    1.130    0.115
       107  -9.0674    114.3401    248.8349   5.1142329759e+01   7.9658185300e+00    0.1556465    0.1012094 -39.81 0.0007125573    1.759    0.431
       108 -12.6357      9.2640     61.4167   5.8860518089e+01   6.6169054687e+01    0.9504719    0.7003246   5.75  0.005202033    1.423    0.297
       109 -10.0185     64.5505     57.9847   2.8676910480e+01   5.9276258465e+01    0.2895876    0.1963481  58.40 0.0009323928    1.644    0.392
       110  -8.7797     80.5161     58.4734   2.2772405807e+01   5.5865438983e+01     0.148772    0.1387051  80.22 0.0008089943    1.066    0.062
       111 -10.2847     21.5523     47.0179   4.6975785016e+01   6.8495991263e+01    0.3013325    0.1392589  42.06  0.001261081    2.406    0.584
       112 -10.0455    125.5858    247.6004   4.8621088501e+01   6.9103558561e+00    0.2222022   0.08031438 -39.82 0.0009558048    3.465    0.711
       113  -9.7123      2.5053     22.9382   5.1892658616e+01   7.5543350165e+01    0.1844789    0.1175274 -59.34 0.0007673615    1.574    0.365
       114  -9.4065     60.7235     21.1317   1.3902313788e+01   6.6454860181e+01    0.2276603    0.1745663  67.07 0.0005819398    1.336    0.251
       115  -8.9069    189.0150     15.0021   3.4955211913e+02   3.6771223097e+01    0.1518401    0.1166775 -59.67 0.0008030369    1.041    0.040
       116 -11.7638     43.7028    241.5451   6.6457660535e+01   1.7026087884e+01    0.4073108    0.2382537  72.28   0.00174646    1.908    0.476
       117  -9.6348     35.9727    242.4752   6.8298173463e+01   1.7609843161e+01    0.3131338    0.2018808  57.40  0.001704761    1.410    0.291
