#   1 NUMBER                 Running object number                                     
#   2 MAG_AUTO               Kron-like elliptical aperture magnitude                    [mag]
#   3 X_IMAGE                Object position along x                                    [pixel]
#   4 Y_IMAGE                Object position along y                                    [pixel]
#   5 X_WORLD                Barycenter position along world x axis                     [deg]
#   6 Y_WORLD                Barycenter position along world y axis                     [deg]
#   7 A_WORLD                Profile RMS along major axis (world units)                 [deg]
#   8 B_WORLD                Profile RMS along minor axis (world units)                 [deg]
#   9 THETA_WORLD            Position angle (CCW/world-x)                               [deg]
#  10 FWHM_WORLD             FWHM assuming a gaussian core                              [deg]
#  11 ELONGATION             A_IMAGE/B_IMAGE                                           
#  12 ELLIPTICITY            1 - B_IMAGE/A_IMAGE                                       
         1 -14.0069    161.1627     52.8553   7.9650971498e+01   3.8448614193e+01     1.859845     1.304945  13.03  0.006519132    2.135    0.532
         2 -13.5869    173.1556     36.9451   7.2972939520e+01   3.7701003290e+01    0.8730888    0.7817525 -68.83  0.002871387    1.134    0.118
         3 -11.8379    189.7547     14.4528   6.4634364924e+01   3.6278998074e+01    0.2814267    0.2693385 -87.21  0.001326422    1.178    0.151
         4 -13.5386    190.8990      4.9659   6.2143045935e+01   3.6981972085e+01    0.9395448    0.5953273  70.14  0.004111458    1.334    0.250
         5 -10.8284    168.9084    234.6767   1.1956583110e+02   8.6869621073e-01    0.2094223    0.1909401 -67.80 0.0002474542    1.295    0.228
         6 -18.5598     64.4588    244.9618   1.4079862977e+02   1.6147777963e+01     6.106499     5.418958  67.09   0.04001871    1.330    0.248
         7 -12.6321    193.3309    192.3979   1.0723657640e+02   3.8950420725e+00    0.8501753    0.5029917 -52.78  0.002817747    1.974    0.493
         8 -11.5608    155.1385    196.9500   1.1615434314e+02   1.0525414071e+01    0.3577758    0.2624966  85.02   0.00171015    1.808    0.447
         9  -9.5484    180.1824    192.3920   1.0996062112e+02   6.4896296226e+00    0.2042801    0.1296809  53.20 0.0004663283    1.647    0.393
        10 -11.2709    167.5398    190.1817   1.1222773441e+02   9.4521261293e+00     0.410881    0.3140856 -13.69  0.001633867    1.775    0.437
        11 -11.0732    208.4112    196.9006   1.0508713676e+02   1.8053848911e-01    0.2362434    0.1863244  48.93 0.0005458668    1.330    0.248
        12 -10.0094    176.5291    187.9238   1.0986917471e+02   8.1022118521e+00    0.2173101    0.1453127 -46.34  0.001024951    1.572    0.364
        13 -11.6230    153.2216    184.5342   1.1428914067e+02   1.3503452259e+01    0.3770051    0.2444055 -74.63  0.001590553    2.185    0.542
        14 -10.0615    198.9238    222.3578   1.1163667955e+02  -2.4331137006e+00    0.1914222    0.1546889  32.76 0.0005265207    1.102    0.092
        15 -11.4569    205.5100    180.4849   1.0238665591e+02   3.7361765806e+00    0.4805668    0.3373448  44.20  0.001765996    1.414    0.293
        16 -11.3103    208.6964    178.6599   1.0137735433e+02   3.4479038866e+00    0.3980319     0.338781 -10.53   0.00217455    1.238    0.192
        17 -18.9736     48.0806     98.0907   1.2402113725e+02   5.1317785385e+01     18.19275     1.143693 -57.78   0.02967226   15.240    0.934
        18 -10.1733      9.0859    211.7100   1.4808670233e+02   2.9500158939e+01    0.2564667   0.09786263  77.63  0.001185547    2.821    0.646
        19 -12.0263    196.0110    171.4762   1.0243686564e+02   7.3943225596e+00    0.7744589     0.420515 -52.31  0.002273975    2.096    0.523
        20 -10.2309    194.2979    165.6428   1.0154646685e+02   8.9120655145e+00    0.2647974     0.222685 -88.71 0.0008348759    1.476    0.322
        21 -10.0997      3.9402    176.0663   1.4644634529e+02   3.7596856616e+01    0.1172478   0.08861126  87.02 0.0008212383    1.053    0.051
        22 -10.7128    122.2375    165.5239   1.1781132121e+02   2.3897023049e+01    0.2696379    0.2124683  77.62 0.0004438141    1.372    0.271
        23 -10.2595    223.7867    163.7362   9.5317141406e+01   3.2376803296e+00    0.2617551    0.1803557 -62.98 0.0007828861    1.974    0.493
        24 -10.1230    237.6748    159.3159   9.1839703530e+01   1.3384766187e+00    0.1375289    0.1108396 -73.57 0.0004814532    1.669    0.401
        25 -12.2080     24.7887    156.9956   1.4006836978e+02   4.0054922815e+01    0.4369787    0.3110447  52.50  0.001880056    1.496    0.331
        26 -10.6729    162.9160    210.3068   1.1683459772e+02   6.3757436852e+00    0.2336274     0.194926 -69.64 0.0009142376    1.379    0.275
        27  -9.6295    120.3291    157.2969   1.1665146526e+02   2.6190056085e+01    0.1469679    0.1230206 -10.04 0.0005911658    1.636    0.389
        28 -10.7675     11.1611    206.2774   1.4734297738e+02   3.0428228996e+01    0.3118876    0.2351458  29.20  0.002187229    1.911    0.477
        29 -10.5740    139.6607    156.1380   1.1171672859e+02   2.2589238217e+01    0.2550798    0.2018274  59.29 0.0005138494    1.283    0.221
        30 -12.1631    134.4037    148.2239   1.1128058844e+02   2.5499243152e+01    0.7027465    0.2815165 -55.85  0.002323539    2.794    0.642
        31 -12.5026    134.0000    143.9837   1.1044004654e+02   2.6564099125e+01      0.98669    0.3215735 -57.05  0.002635246    4.324    0.769
        32 -11.5309     28.0495    151.2016   1.3860409998e+02   4.1087829324e+01    0.3442723    0.1817433  59.13  0.001594636    2.161    0.537
        33 -12.3642      4.7322    112.2799   1.3946723517e+02   5.1815336200e+01    0.4146556    0.3431239  -9.28  0.002407627    1.575    0.365
        34 -13.4863      3.1138    127.3940   1.4184337424e+02   4.8546899753e+01     1.652604    0.9098489 -83.82   0.00954646    1.621    0.383
        35 -11.7752     13.0105    142.2673   1.4114922531e+02   4.4466498768e+01     0.273307    0.2220941  79.13  0.001131724    1.209    0.173
        36 -12.0742    145.0963    146.3647   1.0827272732e+02   2.3678910264e+01    0.4930089    0.3424361  79.24  0.002042316    2.004    0.501
        37 -10.4036    174.8130    148.9606   1.0201351135e+02   1.6598810704e+01    0.2914428    0.2209075 -67.28 0.0007528908    1.533    0.348
        38 -12.9851    112.5919    139.3999   1.1484469425e+02   3.1900137085e+01    0.8649282    0.6038652   6.11  0.003524626    2.514    0.602
        39 -12.1599    103.4252    138.5430   1.1705250760e+02   3.3798847874e+01    0.3063494    0.2894892  41.80 0.0004170267    1.150    0.130
        40 -12.4786     93.7921    137.5529   1.1939246491e+02   3.5718069438e+01     0.459763     0.311197 -47.29  0.002003266    1.466    0.318
        41 -11.9053    105.9969    130.8292   1.1467194994e+02   3.5157080645e+01    0.4103229    0.3518268 -76.25  0.001217766    1.186    0.157
        42 -11.1265    107.4696    125.5327   1.1305599236e+02   3.6124579887e+01    0.3082401    0.2487814 -32.01 0.0005729371    1.389    0.280
        43 -12.0092    119.0035    129.4634   1.1091677643e+02   3.2986044711e+01    0.4157539    0.3711308 -66.64  0.001134588    1.096    0.088
        44 -12.2042    135.4754    122.2273   1.0491788372e+02   3.1225221415e+01    0.6239302    0.2638981 -52.92  0.002115625    2.563    0.610
        45 -10.7349    160.7766    127.6600   1.0014189180e+02   2.4382303389e+01    0.3451647    0.2187093 -54.86  0.001434639    1.672    0.402
        46 -12.0874    124.0768    126.3888   1.0886186369e+02   3.2674367740e+01     0.600647    0.3855169  87.70  0.002186548    2.810    0.644
        47 -10.8732    161.0702    198.3125   1.1512223281e+02   9.0885011709e+00    0.3576269    0.2554793 -88.85  0.001608078    2.023    0.506
        48 -10.9910    113.2004    118.6807   1.0985856175e+02   3.6611785647e+01    0.2756099    0.2587475  78.76 0.0003722599    1.096    0.088
        49 -12.8828      6.2971    143.6238   1.4290304538e+02   4.4669927639e+01    0.6139603    0.5391312  58.27  0.003182583    1.337    0.252
        50 -10.6274    168.5019    113.2343   9.4752566707e+01   2.5660725093e+01      0.40361    0.2811732 -87.55  0.001117345    2.098    0.523
        51 -11.3926    142.9794    127.8091   1.0442781440e+02   2.8340609279e+01    0.3947856    0.2870813  81.62  0.001011155    1.841    0.457
        52 -10.2641    205.6209    110.1494   8.6411014563e+01   1.7488462183e+01    0.2859567     0.221772  48.43 0.0006761744    1.356    0.262
        53 -10.1028    163.1158    110.1930   9.5176438998e+01   2.7564078263e+01    0.2257701      0.21611  11.05 0.0003623422    1.152    0.132
        54 -11.8803     90.6977    109.1141   1.1377368913e+02   4.2886644500e+01    0.3318601    0.2600528 -57.42  0.000721659    1.231    0.188
        55 -11.5982     85.2030    110.1996   1.1563340566e+02   4.3546861904e+01    0.2941919     0.174589 -54.36  0.001349309    1.580    0.367
        56 -10.7206    158.7808    204.9956   1.1679089533e+02   8.1997637834e+00    0.3576739    0.1752868  56.69  0.001384938    2.495    0.599
        57 -10.7676      3.7159    225.7450   1.4987124656e+02   2.7188106463e+01   0.09036414    0.0725766 -75.64 0.0001332903    1.475    0.322
        58 -11.2189     88.9662     78.2447   1.0584762202e+02   4.9727472515e+01    0.3078649    0.2335939  48.14  0.001174708    1.467    0.318
        59  99.0000     14.4072    247.7965   1.4939126602e+02   2.1829333177e+01    0.3180456   0.06635036  51.72  0.001451952    3.281    0.695
        60 -10.6258    163.4933    204.1621   1.1564865114e+02   7.4561692983e+00    0.2725533    0.2640682  35.45 0.0006785407    1.073    0.068
        61 -12.7857    177.4385     29.3524   7.0216105177e+01   3.7596043095e+01    0.5049784    0.4386435  22.27  0.001418071    1.427    0.299
        62  -9.7864     13.6230     59.8764   1.2661329773e+02   6.2247904314e+01    0.1608454    0.1142179 -50.15 0.0004506357    1.146    0.128
        63  -9.3448    155.6580     38.3050   7.6446056072e+01   4.1832391051e+01    0.1444015     0.104888 -77.06 0.0007041146    1.683    0.406
        64  -9.5885    125.7424     26.5924   7.8876239122e+01   5.0307238489e+01    0.1874445    0.1220165  68.39 0.0008849842    1.662    0.398
        65 -12.1284    159.1174    235.9476   1.2168854460e+02   2.3928353591e+00    0.3378607    0.3050416  31.09  0.001330128    1.142    0.124
