#   1 NUMBER                 Running object number                                     
#   2 MAG_AUTO               Kron-like elliptical aperture magnitude                    [mag]
#   3 X_IMAGE                Object position along x                                    [pixel]
#   4 Y_IMAGE                Object position along y                                    [pixel]
#   5 X_WORLD                Barycenter position along world x axis                     [deg]
#   6 Y_WORLD                Barycenter position along world y axis                     [deg]
#   7 A_WORLD                Profile RMS along major axis (world units)                 [deg]
#   8 B_WORLD                Profile RMS along minor axis (world units)                 [deg]
#   9 THETA_WORLD            Position angle (CCW/world-x)                               [deg]
#  10 FWHM_WORLD             FWHM assuming a gaussian core                              [deg]
#  11 ELONGATION             A_IMAGE/B_IMAGE                                           
#  12 ELLIPTICITY            1 - B_IMAGE/A_IMAGE                                       
         1 -13.7799    235.6325     31.2363   1.6220305829e+01   2.4756313932e+01     2.995353     1.972999 -83.09   0.01961199    1.547    0.354
         2 -14.8548    241.1994     84.3860   2.7010193839e+01   1.6959270056e+01     2.931395     1.919209  38.49    0.0174179    2.185    0.542
         3 -13.8254    234.1428     64.6838   2.3517209324e+01   2.0867421141e+01     1.858592    0.9582578 -35.70  0.006204498    1.586    0.369
         4 -14.2998    247.9666    107.3666   3.0985134351e+01   1.2652769221e+01     5.307182     1.694266 -27.63    0.0060806    4.803    0.792
         5 -13.5366    247.7748     69.7386   2.3353103998e+01   1.7842900254e+01     1.932846    0.4706613 -32.90  0.007299847    3.566    0.720
         6 -10.2386    125.0773     22.7622   2.5283544824e+01   5.0618605303e+01    0.5030994    0.1957455 -28.41  0.001650683    2.669    0.625
         7 -11.5813    247.0862      5.1761   1.0274691880e+01   2.5461307487e+01      1.10295    0.3530371 -46.68   0.00594982    2.044    0.511
         8  -8.8148    155.1391     14.3889   1.8543968377e+01   4.4028290417e+01    0.2039539     0.177273 -21.01 0.0005725534    1.351    0.260
         9 -13.9984    181.1729     86.4693   3.5202613287e+01   2.8028486518e+01     4.808425     1.180641 -36.22  0.005748867    3.827    0.739
        10  -9.7848    227.1838      6.7646   1.1468081530e+01   2.8983005762e+01    0.2091642    0.1821294  14.75   0.00151533    1.760    0.432
        11  -8.9706    188.2329      5.2267   1.3265680531e+01   3.7212763459e+01    0.1867772     0.113989 -61.11  0.001078191    1.391    0.281
        12  -8.4642     70.2792      2.3717   2.7866219978e+01   6.6163476240e+01    0.1384861   0.08633388  32.71 0.0007010488    1.694    0.410
        13 -10.7914    192.6663    194.3812   5.6241140964e+01   7.3272000989e+00    0.8243134     0.423431 -58.87  0.002865514    5.582    0.821
        14  -9.8997     92.2953    250.3188   8.4917981970e+01   1.1021488710e+01    0.2051639    0.1325773  30.44 0.0009846233    1.236    0.191
        15 -10.3682    219.8121    187.5021   5.0298430784e+01   4.7991046439e+00    0.4266348    0.3457256  53.61  0.002261912    2.008    0.502
        16 -12.0304    215.9601    181.0673   4.9786050884e+01   6.2573352781e+00     1.134867    0.6397147   2.49  0.005060568    2.525    0.604
        17 -10.9638    228.7717    170.6003   4.5832568500e+01   6.1248927295e+00     0.352969    0.3053972 -37.00  0.001521096    1.353    0.261
        18 -10.7002    230.5127    167.5028   4.4996371561e+01   6.3511558784e+00    0.4218254    0.2337991 -50.23  0.001822975    2.411    0.585
        19  -9.3799    130.9584    189.0352   6.8307311146e+01   1.7362021794e+01    0.1973774    0.1814487   7.66 0.0002978168    1.021    0.020
        20 -10.2787    246.8187    186.0375   4.5895180769e+01   1.7461460944e+00    0.1960422    0.1647587 -13.54 0.0004002394    1.224    0.183
        21 -10.9079    209.0286    173.2617   4.9518530243e+01   8.4108587619e+00    0.3232882    0.2896973 -87.80  0.000910778    1.837    0.456
        22  -7.7611    146.2961    171.6792   6.1675319965e+01   1.8416676052e+01     0.133168    0.1130021  78.22 0.0004932309    1.616    0.381
        23  -9.8295    177.6086    169.7843   5.4635405545e+01   1.3701106450e+01    0.1873743    0.1208206 -49.57 0.0008830449    1.715    0.417
        24  -9.7553    184.9766    168.5118   5.2955924485e+01   1.2770371506e+01      0.22063    0.1611397 -33.63  0.001251202    1.256    0.204
        25  -9.4718    167.6649    168.0391   5.6316395739e+01   1.5615117210e+01    0.3041922    0.2238746 -69.79  0.001338108    2.124    0.529
        26 -11.5089    197.6689    162.2203   4.9386934821e+01   1.1883035671e+01    0.6679704    0.5114757 -19.68  0.001711599    1.190    0.160
        27 -12.4073    161.4538     96.1398   4.1199373023e+01   3.0557821936e+01     1.406143    0.5852858 -42.62 0.0007357661    2.228    0.551
        28  -9.7106    249.4995    249.5085   5.5450303061e+01  -6.1896088112e+00    0.1884024    0.0801125  24.97    0.0012076    2.154    0.536
        29 -13.6332    221.3722     88.1508   3.0016591179e+01   1.9863111191e+01    0.9801418    0.8457029  29.64   0.00334383    1.476    0.323
        30  -9.8538    224.1573    243.6822   5.8557925055e+01  -3.1704341396e+00    0.1710469    0.1258654 -26.12 0.0009426995    1.425    0.298
        31  -9.8648    210.7127    158.3738   4.6393104630e+01   1.0539620120e+01    0.4387909    0.2694446 -61.95  0.001949588    3.240    0.691
        32  -9.9766    191.8811    144.1061   4.6746569048e+01   1.5928827736e+01    0.2861917    0.2148931 -52.58 0.0004531015    1.485    0.326
        33 -12.5605    189.3418    154.7573   4.9410073600e+01   1.4483155186e+01    0.8759951    0.6929074 -53.39  0.002633512    1.473    0.321
        34 -12.9731    188.4365     96.9524   3.6639107952e+01   2.4773335851e+01     1.368798    0.6409597 -38.83 0.0004603633    1.889    0.471
        35 -10.5940    157.9590    150.9783   5.4936608681e+01   2.0558183706e+01    0.4243699    0.2789737 -59.90  0.001017935    1.935    0.483
        36 -12.1324     14.2386    147.0044   9.5899322882e+01   4.2897840407e+01     1.268556    0.5488121  59.06  0.005121232    2.466    0.594
        37 -11.6457    188.0408    146.5361   4.7954738155e+01   1.6149761154e+01    0.7796667    0.4857618  64.51  0.003428743    2.883    0.653
        38  -9.1829    132.7911    139.9781   5.8431227719e+01   2.7482652720e+01    0.5264948    0.1750014 -53.74  0.001573526    3.697    0.730
        39  -9.3739    134.4857    148.9761   5.9956620869e+01   2.5209037452e+01    0.3517913    0.2665441 -78.79  0.001654886    1.834    0.455
        40  -8.6638    134.0000    145.0077   5.9230489011e+01   2.6159488601e+01    0.3519878    0.1934984 -53.51  0.001118159    1.937    0.484
        41 -10.0026    144.4947    145.1339   5.6732099556e+01   2.4193430954e+01    0.4192196    0.2878621 -47.74  0.001241154    1.447    0.309
        42  99.0000     62.6946    137.9026   7.8579095531e+01   4.0012031902e+01     3.309929     1.352383  49.28   0.01129811    2.881    0.653
        43 -11.6961     43.8182    136.0099   8.4664024972e+01   4.2957074978e+01    0.5785543    0.4885139  73.19  0.001724524    1.177    0.150
        44 -12.4993     28.9521    138.0194   9.0061012013e+01   4.4006386702e+01    0.7586897    0.5812819 -80.20  0.001952684    1.223    0.182
        45 -12.5107     36.2022    136.0424   8.7303087256e+01   4.3800715303e+01     1.007984    0.7530693  78.24  0.003666832    1.367    0.269
        46  -8.7569    117.0715    240.1572   7.8527459876e+01   9.7423715602e+00    0.1693584      0.13911  11.60 0.0002629331    1.137    0.121
        47 -10.1304    247.7786    144.3928   3.8231194835e+01   7.3993635391e+00    0.2941387    0.2548174  64.47  0.001780791    1.743    0.426
        48 -10.4541    250.0448    140.9901   3.7295835320e+01   7.5783038632e+00    0.3114529    0.1799651 -35.76  0.000455068    1.347    0.258
        49 -12.2958     10.9519    134.5040   9.5903627559e+01   4.6467952329e+01    0.7782778    0.4237654 -73.51  0.003683873    1.640    0.390
        50 -10.1365    211.8536    134.7069   4.1425375264e+01   1.4198913900e+01    0.3191827     0.161288 -30.23  0.000991467    1.889    0.471
        51 -10.5664    206.9519    132.4984   4.1735137824e+01   1.5370819146e+01    0.3720434    0.2536394 -65.55  0.001420937    2.234    0.552
        52  -9.9430    226.5919    131.7635   3.8627797109e+01   1.2324835148e+01    0.2659003    0.1337712 -34.97 0.0008586385    1.645    0.392
        53  -9.3384    223.4219    128.3059   3.8369357057e+01   1.3357581338e+01    0.2213225    0.2045817 -84.68  0.001311366    1.410    0.291
        54 -10.1811    136.0000    128.6598   5.5043681662e+01   2.9325013008e+01     0.705308    0.1752445 -46.42   0.00198168    3.930    0.746
        55 -10.8996    135.1071    119.9404   5.3153686848e+01   3.1379502346e+01     0.923432    0.3543498 -38.06  0.001768043    2.993    0.666
        56 -10.6617    134.8904    111.1360   5.0975828421e+01   3.3296541400e+01    0.7359402    0.2134326 -43.56  0.002207263    3.366    0.703
        57 -11.1913    135.5148    102.5786   4.8559396569e+01   3.4944968450e+01    0.9895974    0.4965137 -40.61   0.00279911    1.972    0.493
        58 -10.2964    160.9653    128.4839   4.9308146353e+01   2.4458684286e+01    0.3925544    0.3084705 -59.24  0.001511779    1.413    0.292
        59  -9.8752    222.1042    134.4714   3.9826089076e+01   1.2601443024e+01    0.3092856    0.1901327 -24.16  0.001152309    1.591    0.371
        60  -9.2299    223.1098    164.8076   4.5632562968e+01   7.7547770505e+00    0.1738632    0.1500446 -29.45 0.0004356618    1.202    0.168
        61 -10.4946     51.2951    120.4765   7.9374392089e+01   4.6191622412e+01    0.4492185    0.2600518 -43.74  0.001903288    1.864    0.464
        62  -9.1999     42.9957    237.5084   9.4771489405e+01   1.8948014725e+01    0.1689344    0.1452946  65.63 0.0003360159    1.151    0.131
        63 -11.8809    226.0947    115.4891   3.5328531780e+01   1.4908821056e+01    0.6798599    0.4704891 -53.98  0.003579254    1.542    0.352
        64  -9.6318    178.2854    113.9862   4.2476745143e+01   2.3811906054e+01     0.211927    0.2065974  70.30 0.0004393396    1.135    0.119
        65 -10.5028    123.6034    111.8540   5.4035192066e+01   3.5506282879e+01    0.4825224    0.2568783  28.67   0.00171543    2.728    0.633
        66 -11.4748    126.4700    105.1507   5.1509980570e+01   3.6354053821e+01    0.7504935    0.4457602 -57.36  0.002809675    1.922    0.480
        67 -11.1031    150.8024    106.9572   4.6215240566e+01   3.0779551190e+01    0.3909414    0.3651748  51.07 0.0006924444    1.124    0.111
        68 -10.4256    144.4390    109.1075   4.8190286300e+01   3.1698775781e+01    0.3252611    0.2044239  53.42    0.0012792    1.716    0.417
        69 -10.2008    218.1263    105.6849   3.4295526869e+01   1.7773302866e+01    0.3175586    0.1509148 -41.82 0.0008358394    1.757    0.431
        70 -10.2515    145.2491     97.9601   4.5057411578e+01   3.3746520346e+01    0.3518927     0.304231  85.86 0.0009658057    1.294    0.227
        71  -7.7636    123.7261     84.9753   4.6469273949e+01   4.1132354672e+01     0.177664    0.1324776 -41.98 0.0002599721    1.327    0.246
        72 -11.4015    198.9217     66.2453   2.7634000391e+01   2.7458853879e+01     1.071205    0.2366256 -36.64  0.003576415    3.556    0.719
        73  -9.6874    151.0537     71.5484   3.6412271833e+01   3.7263666671e+01    0.2711771    0.2014417 -41.50 0.0004296215    1.289    0.224
        74  -9.6526    169.3947     69.4586   3.2614610937e+01   3.3384895309e+01    0.3837364    0.2087966 -41.79  0.001262191    1.673    0.402
        75  -8.0897     94.8315     71.3790   5.0328351234e+01   5.0356216853e+01    0.1938127    0.1409396  36.94 0.0001976734    1.453    0.312
        76  -8.5765    158.6176     69.6936   3.4492186621e+01   3.5813990085e+01    0.2023518    0.1241127 -45.90 0.0006479822    1.535    0.349
        77  -8.9681    192.9218     68.6359   2.8987254748e+01   2.8361069388e+01    0.1829543    0.1625634 -72.04  0.000505249    1.103    0.093
        78  -8.2933    211.7906     67.3865   2.6400081280e+01   2.4695724353e+01    0.1568228    0.1186038  54.64 0.0008573392    1.574    0.365
        79 -11.7698    160.4270     51.6678   2.8997215254e+01   3.8170272668e+01     1.200226    0.5724164 -78.84  0.003580013    4.941    0.798
        80 -10.3959    172.6074     64.3490   3.0721290862e+01   3.3455867438e+01    0.4638022    0.2836082 -54.08  0.001453336    1.614    0.380
        81 -10.6982    169.6742     57.9412   2.9395924801e+01   3.5091410298e+01     0.530753    0.3897492 -62.60  0.001739243    1.342    0.255
        82  -8.3374    205.4905     64.4706   2.6424035027e+01   2.6367768932e+01     0.132573    0.1089701 -53.57 0.0001724793    1.040    0.039
        83  -9.6740    186.0814     62.9151   2.8433986106e+01   3.0677025216e+01    0.3121532    0.1714519 -37.50 0.0007174821    1.633    0.388
        84  -8.4956    110.5826     63.0825   4.2863210065e+01   4.8337748415e+01    0.2219242    0.1457962 -38.24 0.0004416215    1.551    0.355
        85  -9.9963    126.6605     71.9193   4.1723847500e+01   4.2941986527e+01    0.3235582    0.2507305 -45.23 0.0007650024    1.271    0.213
        86  -9.5140    198.7542     52.2270   2.4196054463e+01   2.9463853860e+01    0.2797379    0.2095675 -26.83  0.000908035    1.430    0.301
        87 -12.7934    202.1991     93.5009   3.3742770597e+01   2.2626563479e+01     1.171284    0.6454846  50.43  0.004642955    2.085    0.520
        88 -10.2237    143.6160     50.0334   3.1265621258e+01   4.2455810422e+01    0.3382843    0.1929143  59.26 0.0008804363    1.719    0.418
        89  -9.6143    205.6168     46.0085   2.1968796634e+01   2.8848927718e+01    0.4625559     0.178322 -40.77  0.002101606    2.069    0.517
        90 -10.6856    140.0598     43.6469   2.9852596446e+01   4.4243673874e+01    0.4058056    0.1976711 -36.61  0.001738735    1.990    0.498
        91 -10.0990    187.1417     40.5521   2.2487841503e+01   3.3522759991e+01    0.2279074    0.2248195  63.53 0.0004538806    1.250    0.200
        92  -9.4438    182.0831     40.0181   2.2901248953e+01   3.4725778817e+01    0.2295083    0.1687447 -37.37 0.0003996537    1.297    0.229
        93 -10.9748    133.2925     38.7601   2.9433768659e+01   4.6589670054e+01    0.4712314    0.3795932 -40.89  0.001616783    1.252    0.201
        94  -9.3217    158.5317     39.9584   2.5825512514e+01   4.0237485038e+01    0.2038676     0.131434 -32.45 0.0005670582    1.567    0.362
        95  -9.3769    190.3562     35.4614   2.0838273315e+01   3.3447736741e+01    0.2315091     0.206112  88.53 0.0005333706    1.165    0.142
        96 -10.2539    144.5574     31.7069   2.5281010683e+01   4.4697782676e+01    0.2621324     0.140308 -22.58  0.001153762    2.218    0.549
        97  -8.6008    240.6707    227.6941   5.3577035244e+01  -2.8954473934e+00    0.1116805     0.062501  -5.85 0.0002980192    1.656    0.396
        98 -11.9437    244.7201     63.3403   2.2295162973e+01   1.9193211196e+01    0.3249797    0.2222954 -40.22 0.0003353763    1.147    0.128
        99  -9.1280    246.9910    216.9770   5.0963617879e+01  -2.2289063813e+00    0.1380913    0.1208092 -21.71 0.0006752239    1.589    0.371
       100  -8.9822    221.4116    212.3263   5.4223736672e+01   1.1055969370e+00    0.1828458    0.1439619   7.52  0.000238254    1.176    0.150
       101  -8.3442    235.0059     14.7468   1.2772837936e+01   2.6683849861e+01     0.149627    0.1112774 -60.82 0.0002050826    1.067    0.063
       102  -8.5926    189.8745     14.8606   1.5601374604e+01   3.5890094906e+01    0.1834408    0.1176395 -58.22 0.0005809423    1.329    0.248
       103  -8.7193    152.1857    213.0670   6.7371104180e+01   9.7847262412e+00     0.183088    0.1484482  -0.42  0.000282372    1.143    0.125
       104  -7.6387     44.3174    213.3785   9.2798342024e+01   2.3783343112e+01    0.1260473   0.09388272 -31.84 0.0007026336    1.813    0.448
       105  -8.9888    240.8690    206.3226   5.0174794582e+01  -2.5743541463e-01    0.1483426    0.1303549  15.15   0.00116024    1.510    0.338
       106  -9.9888    202.5240    200.7647   5.5544681961e+01   5.0380838112e+00    0.2416824    0.1942425  20.72 0.0008405205    1.263    0.208
