#   1 NUMBER                 Running object number                                     
#   2 MAG_AUTO               Kron-like elliptical aperture magnitude                    [mag]
#   3 X_IMAGE                Object position along x                                    [pixel]
#   4 Y_IMAGE                Object position along y                                    [pixel]
#   5 X_WORLD                Barycenter position along world x axis                     [deg]
#   6 Y_WORLD                Barycenter position along world y axis                     [deg]
#   7 A_WORLD                Profile RMS along major axis (world units)                 [deg]
#   8 B_WORLD                Profile RMS along minor axis (world units)                 [deg]
#   9 THETA_WORLD            Position angle (CCW/world-x)                               [deg]
#  10 FWHM_WORLD             FWHM assuming a gaussian core                              [deg]
#  11 ELONGATION             A_IMAGE/B_IMAGE                                           
#  12 ELLIPTICITY            1 - B_IMAGE/A_IMAGE                                       
         1 -11.9798     76.2254     21.4361   8.6013048749e+01   6.0201755179e+01    0.5248704    0.2886682  37.95  0.002205237    1.772    0.436
         2 -10.9819     13.8285     15.9623   1.0729602518e+02   6.8297508365e+01    0.3204866    0.1793594  18.21    0.0018169    1.976    0.494
         3 -10.2763    175.3412     20.8006   6.2566042793e+01   3.8754995397e+01    0.2014244    0.1675805  72.02 0.0005736169    1.138    0.121
         4 -11.5388     88.8636     13.9366   7.9182784238e+01   5.8942872659e+01    0.5635896    0.3214482 -41.30  0.002908502    2.180    0.541
         5 -11.4231     92.0908      9.1700   7.6374651873e+01   5.8865091604e+01    0.3775316      0.34063 -10.79  0.002557592    1.220    0.180
         6 -11.3526     39.6678     19.3834   9.8163468164e+01   6.5434443447e+01    0.5513482    0.3503701  -2.38  0.003421423    1.616    0.381
         7 -11.6275     35.0209     13.0582   9.7471135128e+01   6.6831275513e+01    0.3733613    0.2422353 -39.62  0.001808441    1.538    0.350
         8 -11.8833     40.0769      8.3991   9.3533917087e+01   6.6896336010e+01    0.4781838      0.28879 -25.08  0.001552735    1.375    0.273
         9 -10.9769     22.3238      9.0870   1.0106446293e+02   6.8621404197e+01    0.3456393    0.1939176   2.72  0.002174687    1.959    0.489
        10 -12.0362     30.2058      7.4170   9.7084896931e+01   6.8098559473e+01     0.421382    0.2652849 -31.89  0.001458688    1.341    0.254
        11 -10.8567     30.8354     20.3199   1.0197447925e+02   6.6199133698e+01    0.2711382    0.1726103 -49.19  0.001361113    1.791    0.442
        12 -10.9497    100.0988     18.9767   7.7958535876e+01   5.6251222240e+01    0.3442495     0.259734 -53.94   0.00141502    1.912    0.477
        13 -11.5119    155.9330     13.6723   6.3673247069e+01   4.4361219419e+01    0.4825503    0.2713624  29.43  0.002154578    2.166    0.538
        14 -10.4731    119.1662     12.0729   7.0583909512e+01   5.3074662412e+01    0.2196372    0.1680093  44.14 0.0002964766    1.160    0.138
        15 -12.2612     56.2575      5.6800   8.6293471145e+01   6.5150496159e+01    0.5597457     0.350288  -7.96  0.003468573    1.489    0.329
        16  -9.8524     50.7257      2.0269   8.6698832038e+01   6.6330518744e+01    0.2612545    0.1206607  29.55  0.001415917    2.147    0.534
        17 -11.7179     11.0317      6.8002   1.0501368410e+02   6.9867147178e+01    0.4758657    0.4032067 -58.85  0.003732045    1.929    0.482
        18 -10.2958      2.9049      2.7999   1.0706452388e+02   7.1005088339e+01    0.1994641    0.1274083  -2.00  0.001474101    1.500    0.334
        19 -11.4869      4.4099      9.8651   1.0909856796e+02   6.9868153537e+01    0.2548653    0.1815481   3.76   0.00069981    1.457    0.314
        20 -10.9246      2.2764      6.3948   1.0874564259e+02   7.0520466409e+01    0.2000164    0.1378511 -10.64 0.0005875533    1.301    0.231
        21 -11.7744    150.9212      7.5033   6.2594589448e+01   4.6188010699e+01    0.3796012    0.2900209  29.95  0.001603458    1.334    0.250
        22 -10.6236    209.9510      7.3627   5.4145229212e+01   3.1442317621e+01    0.2271401    0.1748692 -52.79  0.001148569    1.323    0.244
        23 -11.9914     80.1611      1.7824   7.6802794687e+01   6.1773374301e+01     1.666148    0.2487153  40.76  0.001580174    6.668    0.850
        24  -9.9746     70.6678      7.3173   8.2082137390e+01   6.2794224753e+01    0.3758426    0.2678096  62.79  0.001885687    2.347    0.574
        25 -10.5408     73.5098      5.4758   8.0395995394e+01   6.2531073707e+01    0.2867107    0.1964444  50.26  0.001747915    1.715    0.417
        26 -11.1933    195.0962      5.5462   5.5449027056e+01   3.5356629735e+01    0.3271225    0.1767483 -62.43  0.001443304    2.305    0.566
        27 -10.8014    119.8816      4.4913   6.7674870296e+01   5.3648445047e+01    0.4400204    0.1563332  46.08  0.001084475    2.359    0.576
        28  -9.8424    235.5700      4.3008   5.0746564693e+01   2.5493967885e+01    0.1585087    0.1286609 -14.28 0.0009440311    1.580    0.367
        29  -9.3201    230.6562      3.3139   5.0986248972e+01   2.6776249017e+01    0.1414053   0.08490133 -67.77 0.0007047284    1.709    0.415
        30  -9.9651    217.5400      3.5799   5.2369647770e+01   2.9947349997e+01    0.1339956    0.1129507 -87.10  6.74799e-05    1.053    0.050
        31 -10.8976    172.3001      2.8667   5.7761032197e+01   4.1344592679e+01    0.2893171    0.2023825  83.26 0.0003849604    1.458    0.314
        32  -9.6936    176.5148      2.4815   5.7051689598e+01   4.0325097485e+01    0.2263208     0.202664  46.12  0.001032007    1.133    0.117
        33 -11.0606    159.9273      2.2391   5.9439224959e+01   4.4469540055e+01    0.3028992    0.2377355 -90.00  0.001721987    1.386    0.279
        34 -11.0783    130.2814      3.2552   6.5052018139e+01   5.1433631068e+01    0.2654886     0.170693  67.72  0.001390324    1.613    0.380
        35  -9.7177    113.0161      2.9988   6.8669185386e+01   5.5264051918e+01    0.1893003    0.1573928 -70.73  0.001131203    1.702    0.412
        36 -10.9395     19.2653      2.6364   9.9682585292e+01   6.9776942286e+01    0.2958792    0.1625097  11.44  0.001719509    1.904    0.475
        37  -9.9675    100.0944      1.7545   7.1313489490e+01   5.8037276765e+01    0.1744989    0.1681242  29.47 0.0004504539    1.252    0.201
        38  -9.2745     67.4642      1.4868   8.0638357942e+01   6.3925795332e+01    0.1204882   0.09325617   9.22  0.000118301    1.037    0.035
        39 -11.6528     23.5437    121.4734   1.2791811848e+02   4.7250598558e+01    0.4161741    0.2135395 -89.02 0.0009133588    2.289    0.563
        40 -12.5667     17.2937    249.4306   1.3971481612e+02   2.3033393324e+01    0.5805752    0.3880427  23.24  0.003768337    3.678    0.728
        41 -12.8560      5.8292    247.2240   1.4119245993e+02   2.4562555370e+01    0.5062922    0.3848026  26.00  0.004029679    2.645    0.622
        42 -12.3330      5.0115    240.5143   1.4099376967e+02   2.5748333386e+01    0.4105548    0.1622074  52.52  0.002800404    1.924    0.480
        43 -13.6054      9.8474    229.7469   1.3976299790e+02   2.7100976200e+01    0.9629762    0.3865215  75.60  0.005778573    2.231    0.552
        44 -10.5210      3.4738    118.6461   1.3231600433e+02   4.9314010544e+01    0.1634137      0.14129  18.96  0.001158706    1.598    0.374
        45  -9.4568      2.3046    114.2990   1.3208952443e+02   5.0288552535e+01    0.1076002   0.06401706 -51.11 0.0002298006    1.588    0.370
        46 -10.0497      5.4869    113.4586   1.3123053963e+02   5.0261952693e+01    0.1408717    0.1114512  22.90 0.0005815817    1.704    0.413
        47 -10.3343    249.2834    111.9598   7.4521456372e+01   7.0944641702e+00    0.2057869    0.1816582 -31.05  0.001162404    1.071    0.066
        48  -9.2006     20.2597    112.6029   1.2749936473e+02   4.9397569779e+01    0.1168199   0.07425296  85.72 0.0006966612    1.710    0.415
        49  -9.9110     65.9902    110.7076   1.1529371883e+02   4.5184120131e+01    0.1778644    0.1618648 -74.04 0.0009289286    1.070    0.066
        50 -11.2109      3.9920    109.0710   1.3105237485e+02   5.1266853555e+01    0.2642812    0.1707112  19.32   0.00171507    2.124    0.529
        51 -10.3832     58.0349    107.9721   1.1688134275e+02   4.6750195826e+01    0.2010333    0.1407246 -32.06 0.0008259734    1.699    0.411
        52  -9.2177     34.2979    107.6411   1.2313854952e+02   4.9280059580e+01    0.1201507   0.08225178  83.87 0.0007034616    1.708    0.414
        53 -10.1517     89.4892    105.4767   1.0785454241e+02   4.2986352609e+01    0.1365246    0.1259685 -58.19 0.0001717166    1.017    0.017
        54  -9.7910    113.5118    102.4906   1.0074168435e+02   3.9483662645e+01    0.1430149    0.1376269 -41.87 3.214173e-05    1.017    0.017
        55 -11.2341     57.6287    101.6398   1.1572436190e+02   4.8163416681e+01    0.3226098    0.2315369  42.14  0.001267681    1.598    0.374
        56 -11.7245     18.3932     94.7691   1.2527087669e+02   5.3285505702e+01    0.3619497    0.2091998  83.12  0.001457751    2.426    0.588
        57  -9.3538    129.5050     97.5095   9.5328366304e+01   3.7353890354e+01    0.1462933    0.1442667 -44.54 0.0008105735    1.011    0.011
        58 -10.4313     78.9451     94.9561   1.0827502356e+02   4.6813407761e+01    0.1978053    0.1775124 -44.98 0.0003299385    1.025    0.025
        59 -11.4034     27.3645     91.2502   1.2216804994e+02   5.3337197734e+01    0.4082172    0.2690684  50.78  0.002332157    1.929    0.482
        60 -11.0011      1.8623     89.9799   1.2901953944e+02   5.5316358590e+01    0.2252105    0.1144879 -67.35  0.001397232    1.467    0.318
        61 -10.0864     10.6619     90.6978   1.2673126808e+02   5.4649383384e+01    0.2299782    0.1491295 -47.78  0.000798433    1.370    0.270
        62 -11.3537     11.2913     86.4127   1.2585882788e+02   5.5488286555e+01    0.3529894    0.1765559 -75.86  0.001966654    1.979    0.495
        63 -11.0835     76.5056     89.2301   1.0756959323e+02   4.8359754293e+01    0.2422179    0.2093735 -43.89 0.0005168979    1.039    0.037
        64 -11.1925     98.7633     89.3803   1.0131061183e+02   4.4843797088e+01    0.2477124    0.1855696  27.43  0.001297669    1.498    0.332
        65 -10.3263     42.2898     88.5188   1.1734965274e+02   5.2582350716e+01    0.4241059    0.2065585  56.15  0.001814924    3.769    0.735
        66 -10.3644     17.6611     88.6046   1.2443577810e+02   5.4614798834e+01    0.2921013    0.1882535 -18.30  0.001182197    2.085    0.520
        67 -10.9887     58.6305     91.2903   1.1321548275e+02   5.0245250645e+01    0.2622916    0.1992545 -33.04 0.0002486535    1.357    0.263
        68  -9.5243    124.1409     86.8444   9.3787159617e+01   4.0578867436e+01    0.2039287    0.1747769  -2.28 0.0007361235    1.308    0.235
        69 -11.0832     54.5267     84.6372   1.1289176858e+02   5.2104420751e+01    0.2884106    0.1960424 -63.53  0.001155579    1.447    0.309
        70 -10.5007     25.3581     84.8830   1.2155208786e+02   5.4814993143e+01    0.2202243    0.1563838 -66.80  0.000654572    1.227    0.185
        71  -9.8141     72.0688     84.4175   1.0765092989e+02   4.9968423127e+01    0.3129195    0.1384572 -37.50  0.001288346    2.548    0.608
        72  -9.2456    129.2181     83.6627   9.1578801459e+01   4.0143030398e+01    0.1912117    0.1339815  37.00 0.0002201737    1.488    0.328
        73  -9.9023     77.7362     83.2264   1.0568181273e+02   4.9417502787e+01    0.2134958    0.1691174  46.12 0.0006671347    1.444    0.307
        74 -10.5698      3.8851     82.9248   1.2737829126e+02   5.6635808496e+01    0.1931018    0.1571458  30.45   0.00102527    1.606    0.377
        75 -11.4781     64.0075     80.0545   1.0894031977e+02   5.1913216243e+01    0.4047277    0.3031003 -52.48  0.002013412    1.204    0.169
        76  -9.7951    250.2490     81.0096   6.7094772913e+01   1.1780914669e+01     0.187996    0.1143891 -34.65 0.0005907626    1.561    0.360
        77 -10.3641     89.2776     80.1743   1.0149976611e+02   4.8273321953e+01    0.2460871    0.1824128 -63.21 0.0009496282    1.575    0.365
        78  -9.3659    124.3661     79.1214   9.1520961038e+01   4.2018386108e+01    0.2017507     0.131954 -51.34 0.0003850697    1.665    0.399
        79 -10.3816    176.7984     77.2551   7.8745310597e+01   3.0261718797e+01    0.4026186    0.2564244  37.39   0.00172135    1.741    0.426
        80 -11.7660     56.2140     75.3820   1.1012503413e+02   5.3795440501e+01    0.3972399    0.2756181  11.60  0.002299745    1.798    0.444
        81 -10.3472     15.3159     75.8165   1.2278668996e+02   5.7378738467e+01    0.1617984    0.1501983  51.48 0.0008630853    1.381    0.276
        82  -9.6813    160.1544     74.8979   8.1631630921e+01   3.4737498867e+01    0.2278721    0.2071187 -88.54 0.0006328553    1.221    0.181
        83  -9.5419     70.2819     75.3555   1.0581177949e+02   5.2038029376e+01    0.1351263   0.09075191 -25.31 0.0004501085    1.662    0.398
        84  -9.9323     37.6770     74.6631   1.1568967331e+02   5.5858497532e+01    0.2045137    0.1180513 -45.60  0.001184172    1.434    0.303
        85 -10.0010     32.2148     73.1422   1.1704069770e+02   5.6645906268e+01    0.1827249    0.1581176  72.34 0.0006530422    1.495    0.331
        86 -10.4672     35.9841     71.9902   1.1559662207e+02   5.6547193313e+01    0.3026291    0.1591515 -38.24 0.0009097345    1.806    0.446
        87  -9.8954      6.6895     74.3135   1.2509645771e+02   5.8207617773e+01    0.1757127    0.1335431 -79.05 0.0009034536    1.339    0.253
        88 -10.0409      3.1947     73.7730   1.2604308247e+02   5.8507248330e+01    0.2088899    0.1432701  -4.77  0.001188982    1.902    0.474
        89  -9.0606    224.2669     74.3023   6.9346224145e+01   1.8940463758e+01    0.1413492    0.1148097  17.02 0.0002166537    1.525    0.344
        90  -9.6421    136.4940     74.1350   8.6967040311e+01   4.0346697123e+01    0.2189602    0.1452274 -37.42  0.000707995    1.512    0.338
        91 -11.1216    106.1940     71.7894   9.4257898402e+01   4.6961065185e+01    0.3078621    0.2466069  42.89 0.0009106182    1.306    0.234
        92  -9.2332     92.4560     72.4706   9.8383319680e+01   4.9254263826e+01    0.1354827    0.1252318 -29.93 0.0001128606    1.035    0.034
        93 -10.0224     80.8175     72.0266   1.0170032817e+02   5.1186006962e+01    0.2076847    0.1504326 -70.65 0.0005929068    1.942    0.485
        94  -9.6542     46.0519     69.0054   1.1168020461e+02   5.6170793245e+01    0.1958067    0.1193535  53.83  0.001021914    2.548    0.608
        95  -9.1965    122.4357     68.5564   8.8871175126e+01   4.4359142227e+01    0.1426467     0.136175  -2.89 9.696968e-05    1.005    0.005
        96 -10.3399    114.3058     66.7455   9.0486410291e+01   4.6327775699e+01    0.2325783    0.2097614  82.42 0.0002870199    1.373    0.272
        97 -11.1267     34.3606     64.8234   1.1438774378e+02   5.8103884449e+01    0.2724067    0.1731774 -40.07  0.000609171    1.334    0.251
        98 -11.3654     39.8585     61.3228   1.1168724946e+02   5.8275263342e+01    0.6514281    0.2281336 -37.46  0.002346666    3.157    0.683
        99 -10.2173     15.6036     64.3960   1.2036299773e+02   5.9622599204e+01    0.2840191    0.2449315  70.83  0.002155033    1.543    0.352
       100 -12.6354     20.8102     58.0112   1.1718986952e+02   6.0498402263e+01    0.4371156    0.3210604 -57.23  0.001425098    1.204    0.169
       101 -12.0413      5.0341     51.7272   1.2105321624e+02   6.2675504989e+01    0.5471691    0.1857643 -35.66  0.002652641    3.045    0.672
       102 -10.5435     20.4037     51.2212   1.1562947633e+02   6.1806875882e+01    0.2831826    0.1546981 -36.52 0.0009783654    1.581    0.368
       103 -10.0903     11.5184     47.9909   1.1791394001e+02   6.2997272681e+01    0.1592326    0.1431449  13.68 0.0005393916    1.413    0.292
       104 -11.6148     17.1677     45.2445   1.1519302401e+02   6.3132520489e+01    0.4784708    0.3416899 -36.97  0.002909348    1.112    0.101
       105 -10.6017    131.6963     64.4483   8.5225873988e+01   4.3105948109e+01    0.3649281    0.2939176  47.47  0.001909664    1.238    0.192
       106 -10.0501     72.6734     63.3281   1.0165409947e+02   5.4024704053e+01    0.2328164    0.1429741 -52.59 0.0006990655    1.688    0.408
       107 -11.2861      3.8771     61.4771   1.2352103060e+02   6.0881082161e+01    0.4076895    0.2389563  66.44  0.001713866    3.174    0.685
       108 -11.0190      9.7402     60.3542   1.2138884043e+02   6.0770734950e+01    0.2977204    0.1288831 -48.40 0.0001513899    1.698    0.411
       109 -10.2043     60.3629     57.9747   1.0398722504e+02   5.6651606356e+01     0.180786    0.1760667  -3.28 0.0006575151    1.224    0.183
       110 -10.6134     62.7801     62.2026   1.0445624167e+02   5.5561123229e+01    0.2954326    0.2069765 -33.92  0.001065877    1.276    0.216
       111  -9.7304     66.9393     60.7008   1.0268103038e+02   5.5299685549e+01    0.1687902    0.1526219  -2.11 0.0004565114    1.128    0.114
       112  -9.8629    101.1649     61.9702   9.2665077474e+01   4.9670597967e+01    0.2162494    0.1576879 -64.81 0.0008787211    1.954    0.488
       113 -11.0219     54.0515     57.8885   1.0603380313e+02   5.7425830651e+01    0.4742136    0.4213939  81.80  0.003154339    1.605    0.377
       114  -9.6909    118.6475     58.8533   8.6838211354e+01   4.6822743277e+01    0.1986072    0.1265366 -45.12 0.0003853356    1.673    0.402
       115  -9.6365     83.5129     56.9697   9.6321372679e+01   5.3557488637e+01    0.1960054    0.1517211 -46.47 0.0003493032    1.337    0.252
       116 -11.8104     88.1077     53.6606   9.3847797837e+01   5.3387154140e+01    0.4413969    0.3416029   7.11  0.002520704    1.376    0.273
       117  -9.1207     71.6713     57.2872   1.0012872000e+02   5.5274359266e+01    0.1164841     0.102971 -87.19 0.0003056786    1.614    0.381
       118 -10.4263    225.1408     54.7301   6.4244571594e+01   2.1698577383e+01    0.4351504    0.2996255  -3.00  0.001969966    2.137    0.532
       119 -10.0660     99.7892     56.2208   9.1221948092e+01   5.0919644809e+01    0.1856462    0.1465855 -10.11 0.0004186591    1.306    0.234
       120 -11.6184    114.3096     53.9117   8.6403531010e+01   4.8523218980e+01     0.325297    0.2702455  27.04 0.0005851611    1.182    0.154
       121  -8.7835    165.4891     54.4319   7.4444447025e+01   3.6785106186e+01      0.14858    0.1407111  49.35  0.000118259    1.009    0.009
       122 -10.1469     34.3372     53.6932   1.1147891112e+02   6.0224614177e+01    0.2615938    0.1246881 -35.69  0.001150504    1.964    0.491
       123  -9.9718    106.0445     53.0074   8.8385543402e+01   5.0292669163e+01    0.2072044    0.1983561  15.66 0.0007283929    1.105    0.095
       124 -11.9454     66.5837     52.5185   1.0026759811e+02   5.6827928532e+01     0.530145    0.2182095  32.49  0.002177761    2.746    0.636
       125 -10.0148     75.4553     50.0317   9.6593921857e+01   5.5999502874e+01    0.3145202    0.2046771   0.73  0.001223668    1.998    0.500
       126 -10.4449     77.7757     46.1264   9.4546171291e+01   5.6303679623e+01    0.3049394    0.2104018  31.49  0.000885636    1.499    0.333
       127 -10.8023    102.4361     47.7785   8.7659884224e+01   5.1820802917e+01    0.3749759     0.193344  29.17  0.001030446    2.408    0.585
       128 -10.2809     30.9199     45.7023   1.1039856524e+02   6.1983765879e+01    0.2484197    0.2052234 -58.02  0.001217348    1.378    0.274
       129 -10.8892     25.8463     43.7268   1.1164299482e+02   6.2760120347e+01    0.2312142    0.2282137 -23.18  0.001316664    1.368    0.269
       130  -9.6667     65.0211     46.2531   9.8743322390e+01   5.8122986416e+01    0.1640884    0.1435961  -1.31            0    1.111    0.100
       131  -9.5011     91.1907     44.7738   8.9927785151e+01   5.4328109992e+01    0.1804655    0.1403709  -3.17 0.0004294555    1.294    0.227
       132 -10.4563     70.2381     42.1465   9.5622591519e+01   5.8077027257e+01    0.2619177    0.2479499  14.81   0.00179268    1.253    0.202
       133  -9.7655     95.0263     42.2899   8.7923673809e+01   5.4038607564e+01    0.1797588    0.1602556  10.90 0.0005466695    1.054    0.051
       134  -9.4837      2.3192     42.3049   1.1977772799e+02   6.4555655774e+01     0.156513   0.09361313  11.01  0.001082734    2.051    0.513
       135  -9.7579      5.7305     39.3728   1.1778771558e+02   6.4901034336e+01    0.1863514   0.09401759 -47.26            0    1.415    0.293
       136  -9.8284    181.6599     40.4920   6.7263267005e+01   3.4711693902e+01    0.3047217    0.1941248  54.20  0.001300701    1.457    0.313
       137 -10.8717    139.0865     40.4249   7.5763252966e+01   4.5176880033e+01    0.3112297    0.2397713  70.48  0.001599811    1.503    0.335
       138  -9.5195    169.5800     52.5559   7.3060410851e+01   3.6049798094e+01    0.1463826    0.1408906  54.84 2.251911e-05    1.013    0.013
       139  -9.1621     58.0336     41.1973   9.9406785642e+01   5.9883852288e+01    0.1413427   0.09237212  28.40            0    1.639    0.390
       140 -10.1182     36.2041     41.1691   1.0712054405e+02   6.2303543672e+01    0.1809903    0.1278069 -27.28 0.0006635847    1.206    0.171
       141 -10.3114     12.7524     38.6854   1.1500196987e+02   6.4601955771e+01    0.2895932    0.1257757 -60.13  0.001545934    2.312    0.568
       142 -11.5122    133.7477     34.7388   7.5107086122e+01   4.7173703430e+01    0.5769332    0.3573355   5.45 0.0004933446    2.270    0.559
       143 -12.3071    121.7020     37.0949   7.8815974210e+01   4.9520583902e+01    0.5615867    0.4718523  50.65  0.001764721    1.217    0.178
       144 -10.3315    126.7728     30.8511   7.5426046065e+01   4.9245601356e+01    0.3065301    0.2431106  31.58  0.001378939    1.186    0.157
       145  -9.2746    101.5066     39.4909   8.5065030392e+01   5.3264627493e+01    0.1367719    0.1186635   6.00 -6.49596e-05    1.053    0.051
       146 -10.4975     22.7051     38.5769   1.1127211162e+02   6.3916491055e+01    0.1821106    0.1705174 -79.67 0.0006801552    1.530    0.346
       147 -11.1180     26.5232     35.3029   1.0883354935e+02   6.4173916782e+01    0.4507641    0.2068752 -39.77  0.001979876    1.715    0.417
       148 -10.3205      1.5178     35.5178   1.1833806322e+02   6.5810597382e+01    0.2180069    0.1687156 -13.47  0.001754932    1.364    0.267
       149 -10.6541      3.3219     32.6466   1.1687302378e+02   6.6218238498e+01    0.2516226    0.1798558 -83.30  0.001696388    2.261    0.558
       150  -9.3939     37.8948     34.9366   1.0447184825e+02   6.3195922191e+01    0.2416268    0.1770606  67.63  0.001332499    3.149    0.682
       151  -9.4481      8.9663     35.5467   1.1553793707e+02   6.5390211343e+01    0.1321252   0.09864455   3.03 0.0003727264    1.515    0.340
       152  -9.1774    100.2962     34.3203   8.3571479604e+01   5.4237567496e+01    0.1373991   0.09495237  10.01 0.0002419439    1.615    0.381
       153  -9.3246     54.9710     34.4851   9.8138199180e+01   6.1356561783e+01    0.2981012    0.1108861  27.46  0.001217974    3.465    0.711
       154 -10.0089     50.3338     33.7855   9.9539462833e+01   6.2030414348e+01    0.1688292    0.1509424  12.06 0.0005291458    1.276    0.216
       155 -11.2893    145.0710     32.9937   7.2013296717e+01   4.4766117730e+01    0.2162805    0.1886456  46.77  0.001219174    1.063    0.059
       156  -9.5359     71.6849     33.7081   9.2144361829e+01   5.9184985388e+01    0.1274425   0.08660688  -0.78 0.0001874393    1.596    0.373
       157 -11.1028     18.7734     31.9497   1.1072058800e+02   6.5352185461e+01    0.4487576    0.2324512   9.71  0.002688149    2.365    0.577
       158 -10.0336    205.1449     30.6801   6.0838767031e+01   2.9990283964e+01    0.2359999    0.1726746 -88.22 0.0008031456    1.451    0.311
       159  -9.5852    166.4694     31.1146   6.7188220084e+01   3.9769723565e+01    0.2010671    0.1432362 -26.88 0.0005114595    1.517    0.341
       160 -10.2749     38.8866     30.6668   1.0263456701e+02   6.3791858791e+01    0.2421805     0.151374 -10.58  0.000501687    1.710    0.415
       161 -11.1889     43.4991     30.5277   1.0086981986e+02   6.3325031738e+01    0.3339669    0.2120129   2.66 0.0006652224    1.760    0.432
       162 -11.1942     43.3073     27.2952   9.9771098235e+01   6.3850845037e+01    0.3466566    0.2032337  12.83  0.001380064    1.944    0.485
       163 -10.0898    149.9858     29.5331   6.9869816615e+01   4.4023845606e+01    0.3329695    0.1410349  65.07  0.001224674    2.678    0.627
       164  -9.4161     96.5700     28.9343   8.2675835351e+01   5.5674857031e+01    0.1934542    0.1057932  -5.67 0.0008061132    2.702    0.630
       165 -10.5441     69.9672     28.2031   9.0668262517e+01   6.0249675754e+01    0.3188567    0.1911352 -32.73  0.001629542    1.534    0.348
       166 -10.6688      7.0865     28.0369   1.1406778261e+02   6.6793919091e+01    0.2376189    0.1936698  40.64  0.001861096    1.836    0.455
       167 -10.0210    140.1495     27.0598   7.1112468750e+01   4.6665507660e+01    0.2606467    0.1843021  51.98 0.0008971719    1.296    0.228
       168 -11.8297     76.7206     25.6979   8.7502471737e+01   5.9554009387e+01    0.2699821      0.22406  12.70  0.000312816    1.091    0.084
       169  -9.4550    229.5244    248.0042   1.0488588010e+02  -8.6814236094e+00     0.148512    0.1117189 -22.98  0.001020617    1.557    0.358
       170 -10.2875    100.7093     25.5148   8.0239509846e+01   5.5335376276e+01    0.2264581    0.1929685 -34.42 0.0007595529    1.325    0.245
       171  -9.4255     18.3490     26.3083   1.0905879230e+02   6.6321702282e+01    0.1161443   0.06333561 -24.97 0.0003667757    1.708    0.415
       172  -9.7915    153.7521     25.5827   6.7857908928e+01   4.3585233334e+01    0.1973503    0.1314511  72.06 0.0007484783    1.639    0.390
       173 -10.2162    114.1918     24.9451   7.6445347599e+01   5.2694222924e+01    0.2684911     0.180897  41.21   0.00119314    1.360    0.265
       174 -10.2798     59.0514     24.3668   9.2945524272e+01   6.2351118537e+01    0.2392923    0.1557041 -10.97  0.001190461    1.519    0.342
       175 -10.5637    219.0039     23.6903   5.7200390361e+01   2.7353911287e+01     0.268686    0.1717799  14.50  0.001174923    2.646    0.622
       176  -9.5652     89.3046     22.9328   8.2547811401e+01   5.7783124140e+01    0.1823514    0.1481259  -6.45   0.00071306    1.116    0.104
       177 -10.5439      2.0806     21.7103   1.1412760483e+02   6.8135216240e+01    0.2359661    0.1207746 -46.40  0.001023671    1.414    0.293
       178  -9.0937     22.0097     22.7776   1.0638835905e+02   6.6601694902e+01    0.1177947   0.08241227  12.62 0.0003380463    1.530    0.347
       179 -10.2729     20.1020     16.7635   1.0498217593e+02   6.7688760861e+01    0.1710862    0.1249055  -4.69 0.0003723347    1.275    0.215
       180 -11.1670     13.2427     20.4581   1.0913229803e+02   6.7636759551e+01     0.247026    0.1866653 -40.48 0.0008847279    1.215    0.177
       181 -10.0662     34.0020    247.2118   1.3720691415e+02   2.1566634082e+01    0.1249127   0.06411464  48.83 0.0004237594    1.667    0.400
       182  -8.8670    170.6909    246.6824   1.1482377612e+02   1.3688592671e+00    0.1156453   0.08404857  23.24 0.0005157407    1.637    0.389
       183 -10.6987     85.3750     20.9121   8.2950715617e+01   5.8732122064e+01    0.2910703    0.1484673  31.88 0.0008088408    2.005    0.501
       184  -9.3455    136.3241    245.6704   1.2064226822e+02   7.3182371038e+00    0.1223767   0.07695627  68.40 0.0005126193    1.699    0.411
       185  -9.7162    217.4059    245.0000   1.0649292745e+02  -6.3548886875e+00    0.2699957   0.05455656  43.91 0.0009340883    3.929    0.746
       186 -11.1399     37.8458    242.1320   1.3632673159e+02   2.1973186975e+01    0.2949258    0.1041335  62.90  0.001570535    2.583    0.613
       187  -9.4545    202.4462    240.3103   1.0838155798e+02  -3.2475836952e+00    0.1827212    0.1193415 -30.30 0.0007827689    1.915    0.478
       188  -9.4240     60.6993    241.1561   1.3274329474e+02   1.9333440051e+01    0.1995202   0.05927831  44.51 0.0009769137    2.763    0.638
       189 -11.9548      3.9541    232.3328   1.4074952686e+02   2.7229341500e+01    0.3776329    0.1572198  78.06 0.0004036763    2.010    0.503
       190 -12.3976     26.3185    235.8032   1.3766380045e+02   2.4347985938e+01    0.3292084    0.2155656 -83.38  0.001725088    1.339    0.253
       191  -9.7658    249.1808    234.1171   9.9346008811e+01  -1.0277692838e+01    0.1775813    0.1272411  19.19 0.0004575891    1.161    0.139
       192 -10.2517     26.2534     16.4466   1.0234240716e+02   6.7205344625e+01    0.2101687    0.1927192  -4.96 0.0007984333    1.415    0.294
       193  -9.4875    140.6566    227.3291   1.1762935835e+02   9.4839383023e+00    0.1304994   0.08437314  69.93 0.0007050952    1.747    0.428
       194  -9.4268     58.4133     19.2024   9.1146940505e+01   6.3155481154e+01    0.1642131    0.1001029 -40.92 0.0009457647    1.789    0.441
       195 -10.0748    199.9683     17.1161   5.7920755352e+01   3.2909498570e+01     0.211221    0.1880711  81.78 0.0004941606    1.023    0.022
       196 -10.2641     49.2150     16.0876   9.3234731161e+01   6.4780562894e+01    0.1776889    0.1557316  -2.05 0.0005487681    1.240    0.193
       197 -10.2717     33.1423    225.0998   1.3593670972e+02   2.5468216694e+01    0.2494621   0.09060563  51.47  0.001422737    2.207    0.547
       198 -10.3415    190.6224     13.9139   5.8314430951e+01   3.5630259347e+01    0.2427133    0.1709698  58.41 0.0006951375    1.283    0.221
       199  -9.8119    132.1370     20.3081   7.0567547942e+01   4.9304285191e+01    0.2313486    0.1798243   6.19  0.001284053    1.367    0.268
       200  -9.9937     68.9243     13.6312   8.5276318775e+01   6.2337337663e+01     0.166747    0.1315118  24.65 0.0006501945    1.200    0.167
       201 -10.6407     62.5718     14.0564   8.7606016473e+01   6.3238831919e+01    0.1858546       0.1567  28.56 0.0005522906    1.327    0.246
       202  -9.4458    162.3145     13.2904   6.2452279082e+01   4.2826444316e+01    0.1439047   0.09352788  37.27 0.0004144463    1.591    0.372
       203 -12.2866      7.6812    217.6269   1.3942741620e+02   2.9442123846e+01    0.4000854    0.2103345  78.29  0.002834545    1.461    0.316
       204 -10.9124     16.1185    212.1366   1.3778666222e+02   2.9614953756e+01    0.1789476    0.1429991  87.36  0.001117024    1.251    0.201
       205  -9.3574    209.5139    211.5030   1.0247961409e+02  -5.8958635596e-01     0.131095    0.1105857  32.44 0.0001528198    1.009    0.009
       206 -10.2176     20.4117    209.5837   1.3693123500e+02   2.9653726352e+01    0.1872538    0.1044275  67.76 0.0005786226    1.448    0.309
       207  -9.6495    246.6433    207.2055   9.5071371413e+01  -6.6374890624e+00    0.1719149    0.1087932 -17.12 0.0009497863    1.701    0.412
       208 -10.2641    123.9925    206.0060   1.1790061794e+02   1.6087413041e+01    0.1812754    0.1537906  62.61            0    1.022    0.021
       209 -11.7765      9.2598    202.9556   1.3831040828e+02   3.1971458088e+01     0.273891    0.1518429 -85.07  0.001229927    1.384    0.277
       210  -9.6963    180.7696    199.3317   1.0579932650e+02   6.7456423108e+00    0.2996913    0.1092458  50.97  0.001106045    2.773    0.639
       211  -9.5929     22.8180    197.3953   1.3567265002e+02   3.1708037268e+01    0.1222405    0.1002342  38.27 0.0003750114    1.678    0.404
       212 -10.3452      6.7482    191.8344   1.3800999087e+02   3.4296757351e+01     0.242358    0.1096575  71.75  0.001443333    2.022    0.505
       213  -9.2532     15.3446    185.1331   1.3605592775e+02   3.4810357219e+01    0.1592592   0.07558502 -87.74 0.0009384856    1.797    0.444
       214  -9.4069      1.2005    183.0188   1.3836970274e+02   3.6464216056e+01     0.136464   0.06149797 -78.43 0.0004691177    1.690    0.408
       215  -9.9874    100.9942    175.9948   1.1824730102e+02   2.5864495164e+01    0.1835735    0.1604641  78.19  0.001141547    1.008    0.008
       216  -9.3052     99.5250     11.4834   7.5248275031e+01   5.7197296717e+01    0.1302277    0.1079028  20.15 -4.451318e-05    1.033    0.032
       217  -9.7236    249.3282    168.6784   8.7065874494e+01  -1.7904324122e+00    0.1252166    0.1091586 -75.53 0.0007048466    1.690    0.408
       218 -11.3236      4.7414    167.3290   1.3661601527e+02   3.9253520938e+01    0.2721148    0.1728202  74.07  0.001246624    1.349    0.258
       219  -9.3402     41.4458    158.1935   1.2847594750e+02   3.7707597874e+01    0.1680124   0.09434019 -83.84 0.0009356969    1.669    0.401
       220 -10.2736      2.2757    153.5621   1.3597918195e+02   4.2213942767e+01    0.1730225   0.09030891  41.07  0.001133533    2.116    0.527
       221  -9.8768     21.9038    143.1280   1.3093348873e+02   4.2793381616e+01    0.1780024     0.126529  86.13 0.0007616355    1.238    0.192
       222 -10.3117     11.2117    140.8237   1.3297994397e+02   4.4152697852e+01    0.2073835    0.1225401  40.71 0.0006974211    1.937    0.484
       223 -11.6278      3.3852    139.0830   1.3446202649e+02   4.5091887815e+01    0.3402566    0.1870798  71.78   0.00213117    1.885    0.469
       224 -10.6162      8.9847    135.3418   1.3289434069e+02   4.5461781222e+01    0.1494126     0.118094 -81.20 0.0005111551    1.061    0.057
       225  -9.0528    212.3022    133.6727   8.6118717880e+01   1.1610961439e+01    0.1481216    0.1190429 -76.21 0.0006224719    1.643    0.391
       226 -11.0332     12.0634    129.9073   1.3162684743e+02   4.6368366828e+01     0.400648    0.1876913  71.63  0.002001638    2.898    0.655
       227  -9.3519     35.4574    130.5141   1.2631344971e+02   4.4248935772e+01    0.1192746   0.09545145 -68.27 0.0001091803    1.080    0.074
