#   1 NUMBER                 Running object number                                     
#   2 MAG_AUTO               Kron-like elliptical aperture magnitude                    [mag]
#   3 X_IMAGE                Object position along x                                    [pixel]
#   4 Y_IMAGE                Object position along y                                    [pixel]
#   5 X_WORLD                Barycenter position along world x axis                     [deg]
#   6 Y_WORLD                Barycenter position along world y axis                     [deg]
#   7 A_WORLD                Profile RMS along major axis (world units)                 [deg]
#   8 B_WORLD                Profile RMS along minor axis (world units)                 [deg]
#   9 THETA_WORLD            Position angle (CCW/world-x)                               [deg]
#  10 FWHM_WORLD             FWHM assuming a gaussian core                              [deg]
#  11 ELONGATION             A_IMAGE/B_IMAGE                                           
#  12 ELLIPTICITY            1 - B_IMAGE/A_IMAGE                                       
         1 -11.7945     42.7541     21.0174   7.9201880223e+01   6.7205119854e+01    0.5527627    0.3397779  36.02  0.001668449    1.744    0.427
         2 -12.4645    216.4643     13.9134   3.7294609344e+01   2.9768307171e+01    0.5065227    0.4533649  59.92  0.001229256    1.279    0.218
         3 -12.4712    190.7524      9.7498   3.8829997362e+01   3.6265885966e+01     0.363837    0.2624745  77.29  0.002103112    1.243    0.196
         4 -11.9923     57.5111      6.5104   6.5902901942e+01   6.6784552494e+01    0.4710385    0.4428838  57.52   0.00241327    1.577    0.366
         5 -10.3521    109.7628      8.6079   5.1197951057e+01   5.6007924479e+01    0.1839995    0.1194053  70.12 0.0009477466    1.665    0.399
         6 -10.6389     65.9718     11.2191   6.5000783967e+01   6.4796643524e+01    0.2707464    0.1590008  49.67  0.001295713    1.789    0.441
         7 -11.7599     43.8660      8.5999   7.2673846846e+01   6.8710116635e+01    0.2558107    0.1993191  24.83 0.0005189864    1.248    0.199
         8 -11.3332    166.2805      1.5977   3.9396053397e+01   4.2986062515e+01    0.3656309    0.1408083  68.13 0.0008775363    2.191    0.544
         9 -10.6172     14.5324    231.4660   1.2586816880e+02   2.4015798602e+01     0.223855    0.1102362  63.07  0.001057025    1.639    0.390
        10 -10.6005     12.6832    227.5265   1.2599408862e+02   2.4955863310e+01    0.2885602    0.1270766 -87.83 0.0009756671    2.029    0.507
        11  -9.7898    158.3334    231.6596   9.7501384411e+01   4.3301833270e+00    0.1278979   0.09477386  63.10 0.0007051378    1.751    0.429
        12 -10.8934     72.4828    228.4788   1.1467995990e+02   1.7900631063e+01    0.2442537    0.1670199  68.18  0.000674554    1.351    0.260
        13 -10.8597    104.4855    225.5778   1.0782120605e+02   1.3912353738e+01    0.2499824     0.195774  76.90  0.001531605    1.345    0.257
        14 -11.3370     96.2674    224.4521   1.0940155182e+02   1.5352531833e+01    0.3823133    0.2951038 -76.29  0.002375175    1.396    0.284
        15  -9.5251     36.3828    223.1857   1.2133851684e+02   2.3363870808e+01    0.1643996   0.09006682  86.48 0.0009445595    1.726    0.421
        16 -10.8996    226.9648    221.9735   8.2529415862e+01  -4.9335278915e+00    0.1713464    0.1592116  58.25  0.001139386    1.733    0.423
        17 -11.6777    235.5407    218.9825   8.0445310992e+01  -5.7680040149e+00    0.3878898    0.1482736  33.41   0.00176796    2.450    0.592
        18 -10.4450    211.4752    218.4716   8.4817822517e+01  -2.0876438270e+00    0.2062976    0.1192902 -48.01  0.001030042    2.334    0.572
        19 -10.9077    149.4409    223.2525   9.8093578498e+01   7.2104548151e+00     0.257286    0.1983908 -81.16  0.001440578    1.849    0.459
        20 -10.6630    239.6342    215.2498   7.9046364471e+01  -5.8446514911e+00    0.3341754    0.1017588 -42.16  0.001252759    4.093    0.756
        21  -9.9375    236.7877    210.1788   7.8634844844e+01  -4.7245340154e+00    0.1802172    0.1251063  -1.40 0.0009344833    1.332    0.249
        22 -10.5950    116.1748    209.4096   1.0322888948e+02   1.5270403986e+01    0.3592876    0.1092112 -61.41   0.00115417    4.578    0.782
        23 -10.3035    232.5205    223.5107   8.1786018614e+01  -5.9505571739e+00    0.1245727   0.09827746   5.60 0.0001424897    1.008    0.008
        24  -9.5724    185.6446    204.3250   8.7433295705e+01   4.4081568746e+00    0.1314152      0.10807  69.21  0.000104018    1.769    0.435
        25 -10.5891     49.0632    201.2992   1.1699461936e+02   2.6485996921e+01    0.4005711    0.1845112 -87.03   0.00182545    2.494    0.599
        26 -10.5901      2.7528    199.8367   1.2637154994e+02   3.1456211515e+01    0.2239363   0.09334844  56.14  0.001222043    2.068    0.516
        27 -10.8082    149.5205    198.5428   9.4145510527e+01   1.1790724914e+01     0.309236    0.2108002  74.24  0.001382285    2.394    0.582
        28 -10.3991    112.3887    197.6007   1.0237716530e+02   1.8322612930e+01     0.257338    0.1283575 -74.21 0.0009534052    3.306    0.698
        29  -9.7359    133.4610    195.9706   9.7317100529e+01   1.5113581326e+01    0.1917798    0.1243432 -84.28 0.0007502037    2.575    0.612
        30 -12.4246    160.0152    192.0612   9.0682658341e+01   1.1180427642e+01    0.7439388    0.5363156  78.12  0.002936461    2.286    0.563
        31 -10.2968     34.1668    186.7753   1.1891715403e+02   3.1360344851e+01    0.2531631    0.1236379  89.11  0.001221474    2.118    0.528
        32 -10.7583    183.3322    183.5325   8.4007589909e+01   8.5420870246e+00     0.411024    0.2234672 -45.94  0.001824277    1.977    0.494
        33  -9.6616     66.3146    194.6472   1.1251183253e+02   2.5798315504e+01    0.1408623   0.08588203  68.97 0.0004017595    1.734    0.423
        34 -10.4201    191.6845    178.3495   8.1217171778e+01   7.9599112213e+00    0.2131794    0.1803076  83.53  0.001110927    1.756    0.431
        35  -9.9833     76.9808    175.9808   1.0764207771e+02   2.8604141814e+01    0.2959006    0.1387457  68.34 0.0009584696    4.129    0.758
        36  -9.9171    159.3329    175.6577   8.7729521034e+01   1.4576556655e+01    0.1484978    0.1177154  79.19 0.0007050926    1.755    0.430
        37  -9.9946    105.7964    175.1967   1.0042011208e+02   2.4347091217e+01    0.2505474    0.1459094  72.47 0.0009511876    2.826    0.646
        38 -10.8767     38.2425    174.5976   1.1682193419e+02   3.3718710311e+01     0.232555    0.1267095  19.17  0.001125407    2.586    0.613
        39 -10.4134     46.0166    173.0000   1.1480223303e+02   3.3243096086e+01    0.3278544    0.1022689  44.72  0.001287798    3.039    0.671
        40 -10.8646     44.3291    168.3452   1.1468447267e+02   3.4527819722e+01    0.3406522   0.09017301 -64.15  0.001259728    3.071    0.674
        41 -10.1848    176.4183    172.2097   8.3219206453e+01   1.2003239320e+01    0.2038549    0.1400036 -53.24  0.000952532    1.687    0.407
        42 -11.4032     55.4050    167.9088   1.1189874152e+02   3.3349323119e+01    0.5213935    0.2771858  86.00  0.002261702    2.407    0.585
        43 -10.6382    121.5567    169.4567   9.5519399880e+01   2.2936157759e+01    0.3884959    0.1992963 -70.51    0.0013432    3.237    0.691
        44 -10.0889    168.3175    169.6498   8.4485687727e+01   1.4073656210e+01    0.1474874    0.1201147  85.83  0.000443078    1.735    0.424
        45 -10.1218    138.8474    164.6854   9.0359428157e+01   2.0808987499e+01    0.3264669    0.1860397 -73.46  0.001094824    3.475    0.712
        46 -10.4372     79.6280    163.6208   1.0514215464e+02   3.1150291504e+01    0.4499446    0.2212857  82.65  0.001195063    6.136    0.837
        47 -10.4194     52.1892    160.3121   1.1173127462e+02   3.5552383176e+01    0.2573335    0.1519909  79.60  0.001064928    1.994    0.499
        48 -11.6914    118.5345    157.7187   9.4036812535e+01   2.6168246923e+01    0.4275048    0.3516268 -49.40  0.001204739    1.226    0.184
        49 -11.5023    106.6511    158.6763   9.7283206328e+01   2.8041992333e+01    0.5604074    0.3142693  59.03  0.002231302    2.327    0.570
        50 -11.3601     22.2289    159.2272   1.1912090607e+02   3.8872025376e+01    0.3631356     0.238495 -86.62  0.001956372    1.308    0.236
        51  -9.6463     23.4159    153.7679   1.1827748602e+02   4.0061313284e+01    0.1804921   0.09585303 -64.10  0.000469902    1.600    0.375
        52  -9.9835    139.3321    159.3124   8.9145634113e+01   2.1903690051e+01     0.154626    0.1197002  -4.65 0.0005144926    1.677    0.404
        53 -11.2977    167.5489    156.5103   8.1864864565e+01   1.6912853166e+01    0.4660088    0.3464241 -71.02  0.002115364    1.884    0.469
        54 -10.5304    218.4991    155.9992   7.1160077699e+01   6.9945216314e+00    0.3298405     0.125695 -43.41  0.001216156    2.650    0.623
        55  -9.8625     68.3391    154.6725   1.0669958869e+02   3.4891426359e+01    0.1484962   0.09933107  70.93 0.0007051663    1.732    0.423
        56  -9.5197     40.5303    153.0377   1.1381089912e+02   3.8601524316e+01    0.1939366    0.1137399 -71.14 0.0004436217    1.488    0.328
        57 -10.2593    190.2068    150.8153   7.5631549823e+01   1.3471461895e+01    0.2423507    0.1708852 -85.72  0.000948465    2.832    0.647
        58 -10.1849     92.8115    160.5908   1.0122555440e+02   2.9872593697e+01    0.2129986    0.1253286  48.49 0.0009511286    1.742    0.426
        59 -11.1257    107.7373    145.5914   9.4425474183e+01   3.0956507499e+01    0.6783772    0.3773055  71.80  0.002071784    4.226    0.763
        60 -10.5730     56.1322    146.1508   1.0868158370e+02   3.8531995202e+01    0.3596503    0.1921559  79.86  0.001405864    2.907    0.656
        61 -10.8428    148.6560    145.0206   8.3752270705e+01   2.3210801565e+01    0.4314943    0.2877138 -83.45  0.001594312    2.825    0.646
        62 -10.3679    181.9743    141.9782   7.5358574401e+01   1.6910910796e+01    0.2423456    0.1950929 -81.07  0.001138729    1.737    0.424
        63 -10.0791     23.1551    138.4812   1.1664944722e+02   4.3750555782e+01    0.3109583    0.1200839  61.21  0.001093836    4.237    0.764
        64 -12.0447    100.3755    129.7114   9.3055032057e+01   3.6054258331e+01     1.107712    0.6362035  72.13  0.003547912    3.885    0.743
        65 -10.7937     94.2603    121.9890   9.3068891740e+01   3.8960490571e+01    0.4595826    0.2513783  52.49  0.001690484    2.252    0.556
        66 -10.4791    132.1146    131.5790   8.4796413617e+01   2.9597600508e+01    0.4284282    0.2622088 -75.30  0.001472529    3.063    0.674
        67 -10.5492     82.9943    131.0244   9.8348210128e+01   3.8587202642e+01    0.3864739    0.2034395 -70.90  0.001481988    2.432    0.589
        68 -11.2379     15.1016    120.9724   1.1676151729e+02   4.8585432497e+01    0.3734991    0.2631373 -31.03  0.000743776    1.691    0.409
        69 -10.3167    118.6690    126.3953   8.7156490085e+01   3.3462957154e+01    0.4357116    0.2145432  62.19  0.001203403    4.620    0.784
        70 -11.2665     43.5083    122.4346   1.0850615081e+02   4.5786759462e+01    0.7981114    0.3861602  89.99  0.002796347    3.752    0.734
        71 -10.5674     58.8652    124.1863   1.0416686415e+02   4.3614894663e+01    0.3668307    0.1821213 -80.03  0.001335514    3.058    0.673
        72 -11.3031     27.5149    121.2781   1.1313795271e+02   4.7563216829e+01    0.7026212     0.319741  84.10  0.002505437    3.926    0.745
        73 -11.5334    193.3717    118.6500   6.7334731647e+01   1.9045058106e+01    0.5826203     0.445041 -77.57   0.00186957    1.830    0.454
        74 -10.3193     71.1939    120.1196   9.9598041135e+01   4.2990114128e+01    0.3385851    0.2183472  84.27   0.00142663    2.383    0.580
        75 -10.2087    130.3249    118.6519   8.2067173585e+01   3.2890912702e+01    0.1619482    0.1265562 -89.45 0.0007049473    1.749    0.428
        76 -10.3862      2.4918    116.7549   1.1991933134e+02   5.0373465759e+01    0.3727811    0.1349659 -87.40  0.001446631    3.310    0.698
        77 -10.6535    108.4813    112.8797   8.6672698972e+01   3.8556908040e+01    0.5444602    0.2782479 -66.19  0.001741222    3.402    0.706
        78 -11.1652     78.8107    112.5746   9.5564452616e+01   4.3708696975e+01    0.5761706    0.3164212 -82.84  0.001746743    4.532    0.779
        79 -12.8340    160.0769    110.9841   7.2575596858e+01   2.8047462783e+01    0.8526162      0.50625 -60.09  0.003225234    2.309    0.567
        80 -10.2982     91.8814    110.9647   9.1136250065e+01   4.1989629088e+01    0.4163612    0.1970362 -62.91  0.001448774    2.793    0.642
        81 -11.6481     15.0016    109.8076   1.1528873924e+02   5.1269019217e+01    0.6367993     0.409071  80.52  0.003530005    1.755    0.430
        82 -12.0648    141.4458    115.3735   7.8306365537e+01   3.1254986767e+01     0.804769    0.3276657 -42.39  0.002748062    2.438    0.590
        83 -11.1600    174.1869    110.7331   6.9319874057e+01   2.4890483042e+01    0.4067548    0.2973106 -47.51  0.001010172    1.380    0.275
        84 -12.8150    141.3755    105.4304   7.5654939970e+01   3.3405081391e+01    0.6806857    0.5736758  20.50  0.003325975    1.300    0.231
        85 -12.1994    127.6219    100.8147   7.8005807800e+01   3.7385628094e+01    0.5423547    0.3362259 -51.97  0.002272446    1.720    0.419
        86 -10.5002     20.9990    100.6741   1.1195085066e+02   5.3033482188e+01     0.471456    0.2076374  68.74   0.00134228    7.083    0.859
        87 -12.6150    151.8814    110.0583   7.4287238129e+01   3.0087052411e+01     0.561006    0.3503337  55.03  0.002330589    1.771    0.435
        88 -13.0538    110.4320     99.9446   8.2634612456e+01   4.1110556747e+01     1.265196    0.6691187  58.91  0.004409851    2.970    0.663
        89 -12.6276    169.9656     91.0076   6.4908822856e+01   2.9685937237e+01    0.4534665    0.3625746 -35.09 0.0005628886    1.239    0.193
        90 -11.0492     63.0901     95.9642   9.6680178144e+01   4.9889025020e+01    0.4083916     0.237021 -80.66   0.00153228    3.178    0.685
        91 -10.8644     34.1077     88.7021   1.0512360988e+02   5.4802772735e+01    0.3160353    0.1824152 -70.48  0.001470243    1.784    0.439
        92 -11.1046     86.7554     86.4941   8.6141878775e+01   4.8442323808e+01    0.5545234    0.3570705 -75.10  0.002165992    2.815    0.645
        93 -10.8329     48.6804     85.3517   9.9076306602e+01   5.4108393455e+01    0.3019249    0.2252506  79.51  0.001560051    1.954    0.488
        94 -10.5928     45.4592     82.0772   9.9423018717e+01   5.5208309670e+01    0.2818995    0.2403047  81.17  0.001015721    1.511    0.338
        95 -10.9180    104.7143     83.2514   7.9458800682e+01   4.5820743514e+01    0.4035986    0.3102347 -80.46   0.00184441    1.938    0.484
        96 -10.6102     23.9409     79.6551   1.0687421500e+02   5.7722307495e+01    0.3835449    0.1747295 -69.82  0.001714086    2.297    0.565
        97 -10.2173      9.3095     80.6742   1.1250644259e+02   5.8435572459e+01    0.1170035   0.08756392  76.49 0.0005882547    1.656    0.396
        98  -9.7768      1.3916     78.7486   1.1505729921e+02   5.9264012660e+01    0.1843346   0.07969809 -58.75  0.000951728    1.659    0.397
        99 -11.1404     82.3925     73.2798   8.3554056969e+01   5.1983343655e+01    0.4060006    0.2639027 -71.78   0.00162477    2.862    0.651
       100 -11.0593     62.3920     70.5529   8.9847762913e+01   5.5644940155e+01    0.5335831    0.1456518 -49.14  0.001778323    3.290    0.696
       101 -11.9570     44.6992    100.9894   1.0407487699e+02   5.0874246616e+01    0.6924503    0.4320695  87.03    0.0031334    2.405    0.584
       102 -10.2439     94.9108     70.9531   7.8629459095e+01   5.0197472156e+01    0.4781065    0.1883164 -54.24  0.001399146    4.350    0.770
       103 -10.8935     51.7691     70.6954   9.3909058154e+01   5.6997860796e+01    0.3943997    0.2318814 -67.37  0.001445433    2.368    0.578
       104 -11.1595      8.7812     56.4489   1.0757322548e+02   6.3803814792e+01    0.4630769    0.3578131  72.88  0.002944018    1.875    0.467
       105 -11.7809     42.5132     62.9482   9.5225713761e+01   5.9698048284e+01    0.5121452     0.432024 -22.61  0.002338114    1.075    0.070
       106 -11.7666     20.8107     51.7361   1.0104391688e+02   6.4005793385e+01    0.5947266    0.3677229 -57.01  0.003443479    1.486    0.327
       107 -13.2120     29.7304     59.8541   9.9574620453e+01   6.1598716240e+01     1.157263    0.8509175  25.63   0.00305789    1.566    0.361
       108 -11.6338     19.2580     59.6029   1.0391633590e+02   6.2479773755e+01    0.3682711     0.239728 -28.73  0.001397945    1.431    0.301
       109 -10.5613    197.5040     67.3461   5.3248841937e+01   2.7170798218e+01    0.2947674    0.2174875  59.44 0.0005793691    1.377    0.274
       110 -11.6875    240.5904     65.4248   4.6753046198e+01   1.7727026712e+01    0.4252728    0.2383527  61.03  0.002117543    1.933    0.483
       111  -9.0702    145.2998     64.2685   6.2491433863e+01   4.0375947490e+01    0.1495175    0.1145283  22.16 0.0002000237    1.523    0.343
       112 -10.6934    230.9089     58.8682   4.6397382464e+01   2.0768896723e+01    0.2456524    0.1964873 -43.17 0.0006061411    1.145    0.127
       113  -9.8572     72.6050     58.4088   8.2030086350e+01   5.6535060599e+01    0.2720652    0.1225953 -55.00 0.0009587053    3.412    0.707
       114 -10.3684    120.1762     57.1868   6.6446875031e+01   4.7422279651e+01    0.3419191    0.1958021  76.20   0.00107516    4.211    0.763
       115 -10.5038     54.2877     54.4688   8.7686265375e+01   5.9984447043e+01    0.3160158    0.1575416 -57.04  0.001319752    2.700    0.630
       116 -10.1903    161.7759     53.2541   5.5581889555e+01   3.8087293895e+01    0.2585119    0.1781055  61.72  0.000639757    1.430    0.301
       117 -10.0385     39.4538     52.9809   9.3322141990e+01   6.2054968287e+01    0.1970383      0.11074 -47.75  0.000381544    1.562    0.360
       118 -11.2884    148.8354     51.9927   5.7823651856e+01   4.1464979330e+01    0.2680754    0.2093425  56.37 0.0007999752    1.236    0.191
       119 -10.3806     92.1808     49.9871   7.2181729831e+01   5.4524796107e+01    0.3737212   0.08755536 -43.38  0.001014403    5.111    0.804
       120 -10.2210    154.2011     47.5510   5.5315311740e+01   4.0795151875e+01    0.2504781    0.2028736 -27.96 0.0006293897    1.301    0.231
       121 -11.5404     74.5123     43.3361   7.5730018777e+01   5.8878122751e+01    0.3718628    0.3044856  48.98  0.001759839    1.485    0.327
       122 -11.0776     69.7825     42.1939   7.7033253214e+01   5.9866961568e+01    0.2995472     0.258072 -69.61  0.001714394    1.778    0.437
       123 -11.5452      7.7963     43.2792   1.0449907553e+02   6.6570085871e+01    0.5024195    0.2476053  32.43  0.002731977    2.593    0.614
       124 -12.1523     41.1953     37.9788   8.7137066259e+01   6.4667053641e+01    0.6453246    0.3619133  18.11  0.002536361    1.930    0.482
       125 -10.7567    120.4576     34.6324   5.8429839401e+01   5.0691689028e+01    0.2884392    0.2493508  41.66 0.0007819356    1.064    0.060
       126 -10.2887    109.5566     31.8512   6.0185253771e+01   5.3532708312e+01     0.261804    0.1830897  71.89 0.0007530433    1.854    0.461
       127 -10.2193     73.0065     32.1363   7.1746655393e+01   6.0872130614e+01    0.2966908    0.1861944  65.09   0.00125798    3.251    0.692
       128 -10.3972    103.2411     30.2397   6.1287486970e+01   5.5129814757e+01    0.3958217    0.1723717  57.49  0.001580799    2.483    0.597
       129 -12.3093    205.2330     22.6734   4.0560141588e+01   3.1411360807e+01    0.5255555     0.270421 -80.71  0.002263546    2.483    0.597
       130 -10.6767    224.7941    249.1943   8.7431903572e+01  -8.1863302826e+00    0.1638508    0.1322711  68.55 0.0009578359    2.863    0.651
       131 -11.1102    239.7089     20.5616   3.6756861846e+01   2.3852243519e+01    0.2506331    0.1953465  85.58 0.0006711973    1.220    0.180
       132  -9.8762     69.8789    245.6688   1.1669211011e+02   1.5001861916e+01    0.1693846     0.118306  52.55 0.0007515411    1.142    0.124
       133 -10.5905    222.9246     16.2294   3.7244685731e+01   2.8043501458e+01    0.3240231    0.2164387  58.75  0.001467599    1.592    0.372
       134 -10.2076     90.0081     18.5196   6.0359100295e+01   5.9337441776e+01    0.2970456     0.185469  69.05  0.001406891    2.320    0.569
       135 -10.0007     46.6842     16.6690   7.5391976085e+01   6.7267453050e+01    0.2181264    0.1429488 -14.94 0.0009370055    1.391    0.281
       136 -10.2262     32.9588    242.4640   1.2321355575e+02   2.0022012898e+01    0.1636811   0.08774429  43.09  0.001027077    1.592    0.372
       137 -12.4013     21.8493    238.8744   1.2496916421e+02   2.1874595242e+01    0.5846727    0.2165042  63.60  0.003001356    2.484    0.597
       138 -10.5708      7.9984    240.7314   1.2743809242e+02   2.2904379534e+01    0.1499971    0.1085963  64.68 0.0007004752    1.076    0.070
       139 -10.2797      2.6719    240.2088   1.2830622183e+02   2.3501336365e+01    0.1484102   0.09754687  61.51  0.001027492    1.137    0.120
       140 -10.1193    109.0786    232.5615   1.0769525854e+02   1.1908610781e+01    0.1792871    0.1621043  70.83 0.0007756858    1.125    0.111
