#   1 NUMBER                 Running object number                                     
#   2 MAG_AUTO               Kron-like elliptical aperture magnitude                    [mag]
#   3 X_IMAGE                Object position along x                                    [pixel]
#   4 Y_IMAGE                Object position along y                                    [pixel]
#   5 X_WORLD                Barycenter position along world x axis                     [deg]
#   6 Y_WORLD                Barycenter position along world y axis                     [deg]
#   7 A_WORLD                Profile RMS along major axis (world units)                 [deg]
#   8 B_WORLD                Profile RMS along minor axis (world units)                 [deg]
#   9 THETA_WORLD            Position angle (CCW/world-x)                               [deg]
#  10 FWHM_WORLD             FWHM assuming a gaussian core                              [deg]
#  11 ELONGATION             A_IMAGE/B_IMAGE                                           
#  12 ELLIPTICITY            1 - B_IMAGE/A_IMAGE                                       
         1 -14.9643    163.7340     42.9390   7.7751335846e+01   3.9315453194e+01     1.438738     1.121286 -14.79  0.003957528    1.470    0.320
         2 -14.7752    177.9076     10.1851   6.5333745879e+01   3.9521034715e+01      1.15705     1.046158  71.70  0.004047335    1.058    0.055
         3  -9.9713    138.5556    243.7406   1.2775790844e+02   7.0163566040e+00    0.1339517    0.1103126  85.18 0.0005002184    1.429    0.300
         4 -19.9315     73.9198    170.4566   1.3197527987e+02   3.1277129181e+01     17.59044     7.098614 -67.71   0.07442103    2.470    0.595
         5 -10.4951    139.8682    200.3411   1.2171325586e+02   1.4141845261e+01    0.3178281    0.1852751  36.68 0.0008893153    1.658    0.397
         6 -10.7678    113.3503    195.6247   1.2661453584e+02   1.9685811565e+01    0.4284535    0.2883821 -11.05  0.001706536    3.964    0.748
         7 -10.6249    131.3071    236.9486   1.2830670038e+02   9.2450802658e+00    0.1380584    0.1116564 -63.16 0.0003099725    1.505    0.336
         8 -10.4237      7.5998    237.3470   1.5023112791e+02   2.5615261317e+01    0.1059728    0.0620556  65.86 0.0007099946    1.175    0.149
         9  -8.5870     35.5521    187.2445   1.4219428717e+02   3.2437107092e+01     0.358596    0.1983977 -43.92   0.00178161    3.167    0.684
        10 -12.1434    152.0793    182.8403   1.1625959427e+02   1.5188819100e+01    0.2893219    0.2136126 -58.67  0.001194071    1.534    0.348
        11 -10.9565    199.8246    161.6902   1.0220892102e+02   9.5643075250e+00    0.5303378      0.41787 -83.81  0.002625669    1.926    0.481
        12 -13.7177    203.5175    174.5166   1.0412777585e+02   6.6390356877e+00     1.022842     0.598143 -63.41  0.003845493    3.651    0.726
        13 -12.2958    202.3825    170.2181   1.0347888701e+02   7.5832097663e+00     0.486053    0.2431327 -45.84  0.001560289    2.253    0.556
        14 -12.0037    205.4834    169.0077   1.0263133767e+02   7.1772126713e+00     0.771642    0.4161528 -57.42  0.002948665    3.238    0.691
        15 -11.4266     30.6323    182.9345   1.4286213720e+02   3.3885356228e+01     0.220646    0.1600817  39.42 0.0004905077    1.547    0.354
        16 -11.5071    118.3726    181.6740   1.2345275288e+02   2.1664971154e+01    0.3256981    0.1721815  58.42  0.001407316    2.097    0.523
        17 -11.9085    114.5027    178.3869   1.2380365379e+02   2.3036062691e+01    0.5572901    0.2568157  60.68   0.00152253    3.064    0.674
        18  -9.4055     13.5291    233.5435   1.4910925427e+02   2.5698463679e+01    0.1016016   0.07539013  73.83 0.0008048998    1.136    0.120
        19 -12.2938    199.1741    178.8846   1.0583610589e+02   6.7505328087e+00    0.5013995    0.3340904 -70.85  0.002125601    2.984    0.665
        20 -13.2505    195.2576    168.7353   1.0457637269e+02   9.2529604693e+00    0.4709574    0.4115052 -28.07 0.0006220379    1.183    0.155
        21 -12.4257    192.9807    164.2731   1.0411068873e+02   1.0499378604e+01    0.4711056    0.3094182  38.97  0.001958093    1.460    0.315
        22 -12.4466      5.5219    177.6738   1.4763150652e+02   3.7385170071e+01     0.321465    0.1935819  58.81  0.001270932    1.427    0.299
        23 -13.7048    138.2293    170.9529   1.1717578388e+02   2.0220974172e+01    0.8356519    0.6680429  69.75  0.004447917    1.324    0.245
        24 -14.1781    143.8080    168.4213   1.1545243911e+02   1.9657498131e+01     1.089211    0.5966899  68.36  0.003837754    3.309    0.698
        25 -12.8793    177.4176    170.0975   1.0848571235e+02   1.2598198598e+01    0.4860947    0.2482586 -48.65  0.001811924    2.196    0.545
        26 -10.1405     11.6631    174.0358   1.4614147512e+02   3.7626810327e+01    0.1451916   0.08058311 -70.21 0.0001680616    1.592    0.372
        27 -11.8568    125.7604    171.8221   1.2015972592e+02   2.2395024908e+01    0.3130373    0.2452194 -69.29  0.001203571    1.356    0.262
        28 -11.0339    165.5029    172.1206   1.1139958862e+02   1.4613777766e+01    0.2081783    0.1438496 -46.47   0.00102286    1.562    0.360
        29 -10.2828    149.7138    230.0720   1.2397458585e+02   7.3151694051e+00    0.1569028    0.1477894  68.74  0.001099103    1.195    0.163
        30 -10.7999     34.5319    169.7409   1.4087803043e+02   3.6344171672e+01    0.1917285    0.1576402  47.71  0.000759145    1.344    0.256
        31 -10.9731    138.8651    250.4420   1.2846736021e+02   5.9617334080e+00    0.1705431    0.1140822  40.51  0.001088469    1.220    0.180
        32 -11.1508     25.3027    165.0772   1.4250918294e+02   3.8316847753e+01    0.1780232    0.1608439  70.82 0.0005396075    1.256    0.204
        33 -10.0216    150.7072    243.1844   1.2546327175e+02   5.1437642717e+00    0.1316233    0.1087843 -37.95 0.0004103429    1.578    0.366
        34  99.0000     12.8925    242.7415   1.4961387138e+02   2.4140839323e+01    0.2445235    0.1007444 -60.23  0.001376055    3.418    0.707
        35 -11.8559    129.4615    161.2523   1.1739615339e+02   2.3953139952e+01    0.3189424    0.1961322  39.74 0.0009715999    1.615    0.381
        36 -10.8691    190.5737    158.0647   1.0328678652e+02   1.2113534733e+01    0.3637434    0.1895428  34.21  0.001469372    2.141    0.533
        37 -12.4029    134.6262    109.4623   1.0449319542e+02   3.4261026458e+01     1.264003    0.1745581 -45.55  0.002553946    7.220    0.861
        38 -14.5118    133.7978    145.7435   1.1327536335e+02   2.6471696907e+01     1.691072    0.5551469 -57.23  0.004741949    4.410    0.773
        39 -11.3892     23.2176    155.1944   1.4209093982e+02   4.0724052674e+01    0.3941257    0.1812318 -66.31  0.002087561    1.838    0.456
        40 -13.0181    161.7282    153.4365   1.0843171891e+02   1.9063818133e+01    0.4367717     0.364966  72.42  0.001968853    1.346    0.257
        41 -14.8954    135.5174    128.4914   1.0900947018e+02   2.9910341022e+01     2.369197    0.6477621 -49.05  0.006793305    3.772    0.735
        42 -12.9709    128.1350    142.9860   1.1407334248e+02   2.8214706294e+01    0.5363203    0.2888143  52.56   0.00184877    1.939    0.484
        43 -14.2883    144.4458    145.5849   1.1070230910e+02   2.4321728070e+01     1.137724    0.5589892 -63.11  0.003854319    3.172    0.685
        44 -11.6759    174.2862    148.6932   1.0465379807e+02   1.7334353385e+01    0.3466667    0.2766254 -75.40  0.001098891    1.599    0.375
        45 -11.0684     22.4468    221.2051   1.4698176808e+02   2.7044997725e+01    0.1561013   0.08480839 -75.16 0.0006662183    1.727    0.421
        46 -10.6218     23.4443    215.5387   1.4648470027e+02   2.8018686321e+01    0.1332136   0.08589955 -73.93 0.0002515993    1.548    0.354
        47  -9.5644    149.3293    215.2945   1.2200837471e+02   9.8067773513e+00    0.1254848   0.09660508  16.26 0.0002456287    1.631    0.387
        48 -12.0057     28.0383    135.7469   1.3887119476e+02   4.4732649598e+01    0.4974515    0.2966683 -14.39  0.002334874    3.478    0.713
        49 -11.6426      7.8064    138.4673   1.4423908132e+02   4.5781806160e+01    0.3118921     0.239995  23.52  0.001875738    1.723    0.420
        50 -10.7130      1.7394    139.9644   1.4582821299e+02   4.5877233398e+01    0.1647644    0.1209198 -74.09 0.0005064502    1.176    0.149
        51 -11.2456    112.0360    214.2956   1.2932597671e+02   1.6300095086e+01    0.1865451    0.1524881  77.61 0.0006725366    1.187    0.158
        52 -12.6483    160.5887    127.8619   1.0286871054e+02   2.4557513890e+01    0.4478776    0.3550041 -63.52  0.001674733    1.412    0.292
        53 -13.1530    108.3633    208.5298   1.2935773144e+02   1.7984036728e+01    0.4967233    0.3568682  73.33  0.002905886    1.399    0.285
        54 -10.3370    130.7162    213.5672   1.2548113434e+02   1.3323491126e+01    0.1861772    0.1355344  87.40 0.0006687304    1.685    0.406
        55 -10.1239    116.4293    212.0344   1.2815958629e+02   1.6002030288e+01    0.3417163    0.1648634 -66.43  0.001085996    2.592    0.614
        56 -10.9802    167.4941    112.6726   9.7482254085e+01   2.6064175288e+01    0.3223594    0.2431364  85.56  0.001367025    1.762    0.432
        57 -11.6491    108.9424    240.4421   1.3283769073e+02   1.2186875214e+01    0.1854978    0.1716359  -4.18 0.0008436071    1.619    0.382
        58 -10.8036    205.3064    110.2355   8.9170110820e+01   1.7611652703e+01    0.3135416    0.2097199  45.80 0.0009632636    1.541    0.351
        59 -13.1366     11.5943    205.9201   1.4808430117e+02   3.1082786409e+01    0.3770954    0.2808014  28.89  0.002754413    1.881    0.468
        60  -9.9937     28.8247    240.5464   1.4693431264e+02   2.2827625673e+01    0.1293151   0.07904547  52.73 4.886953e-05    1.292    0.226
        61 -10.9180     21.6598    239.4261   1.4805429120e+02   2.3805009369e+01    0.1122076    0.0775793 -88.29  0.000542686    1.333    0.250
        62 -10.4749    144.5181     80.9237   9.3897811447e+01   3.7831815833e+01      0.23385    0.1533973 -38.86 0.0004798472    1.527    0.345
        63 -14.4180    152.2031     57.5721   8.4782796915e+01   4.0068195264e+01     1.221294     1.056347   5.00 0.0008930298    1.316    0.240
        64 -11.8018    125.0770    243.4004   1.3018978748e+02   9.2065636410e+00    0.2818802    0.1482241 -57.11   0.00144086    2.353    0.575
        65 -13.0943    167.7173     34.8561   7.4471907988e+01   3.9368049570e+01    0.4334843    0.3944584 -19.15 0.0009263408    1.199    0.166
        66 -11.1021     13.4029     59.8879   1.3109216283e+02   6.3116696027e+01    0.1636884    0.1583917 -75.90 0.0004340849    1.249    0.199
        67 -10.4727    142.1716     32.9441   7.8617715355e+01   4.6212084017e+01    0.2124683    0.1897132 -76.89 0.0003134771    1.228    0.185
