#   1 NUMBER                 Running object number                                     
#   2 MAG_AUTO               Kron-like elliptical aperture magnitude                    [mag]
#   3 X_IMAGE                Object position along x                                    [pixel]
#   4 Y_IMAGE                Object position along y                                    [pixel]
#   5 X_WORLD                Barycenter position along world x axis                     [deg]
#   6 Y_WORLD                Barycenter position along world y axis                     [deg]
#   7 A_WORLD                Profile RMS along major axis (world units)                 [deg]
#   8 B_WORLD                Profile RMS along minor axis (world units)                 [deg]
#   9 THETA_WORLD            Position angle (CCW/world-x)                               [deg]
#  10 FWHM_WORLD             FWHM assuming a gaussian core                              [deg]
#  11 ELONGATION             A_IMAGE/B_IMAGE                                           
#  12 ELLIPTICITY            1 - B_IMAGE/A_IMAGE                                       
         1 -10.2369     39.3310     16.6723   6.0727276126e+01   7.1763243490e+01    0.5510303    0.3032721  46.08  0.002556787    1.974    0.494
         2 -11.1007     19.6389     26.7434   8.0008747321e+01   7.2317889567e+01     1.210214      0.60548   6.48  0.005258258    2.462    0.594
         3 -10.0690     33.0570     25.8526   6.9931086302e+01   7.0946687379e+01     1.032974    0.7310519  13.04  0.005456208    1.498    0.332
         4 -10.1098     39.6052      9.2447   5.5839484373e+01   7.2974557780e+01    0.3186963    0.2336604  24.82 0.0002268266    1.334    0.250
         5  -9.9412     27.8643     19.0703   7.0106067219e+01   7.3029340512e+01    0.4554745      0.32188 -17.95  0.002440071    1.510    0.338
         6 -11.4689     31.1695     11.8725   6.3394054043e+01   7.3936541416e+01    0.6239524    0.3584577 -32.32 0.0005221674    1.805    0.446
         7 -11.5816      6.8757     22.5420   8.8646431822e+01   7.4240888755e+01     1.108104    0.3438711 -48.38  0.004504297    2.549    0.608
         8 -10.7951      9.1546     15.0061   8.3683523885e+01   7.5800714261e+01    0.3994533     0.338161 -73.96  0.001258689    1.354    0.261
         9 -11.4447     34.9703      2.4709   5.4108887884e+01   7.4853837397e+01    0.5966239     0.356055  44.14  0.003065809    1.639    0.390
        10 -10.2521     41.0245      2.6835   5.0334809294e+01   7.3688682601e+01    0.2553066    0.2061542   9.67 0.0003042534    1.213    0.176
        11 -12.2646     45.5506      9.5216   5.2399592972e+01   7.1816328132e+01    0.5935711    0.3720178  -2.46  0.001089941    2.280    0.561
        12 -10.3006     48.0604      2.4802   4.6190028520e+01   7.2292520037e+01    0.2888899     0.240238  56.77 0.0006660845    1.294    0.227
        13 -11.5498      2.7325      3.5729   8.4650928894e+01   7.8691694343e+01    0.3963533     0.341247  82.35  0.002547866    1.522    0.343
        14 -10.6957      6.8500      2.8257   7.9655423390e+01   7.8559711979e+01    0.2148762    0.1698508 -51.04 0.0002966702    1.253    0.202
        15 -11.2018    180.3971     22.3637   2.4571237379e+01   3.6878044442e+01    0.9377263    0.4172762 -66.43  0.003583239    3.055    0.673
        16 -10.5595    245.7513     13.9140   1.7575927496e+01   2.3871372309e+01     0.498098    0.1989982  81.29  0.002536693    2.931    0.659
        17 -12.0910    239.6243     19.7165   1.9204106151e+01   2.4451389268e+01    0.8581467    0.4790495 -46.09  0.001422895    1.440    0.306
        18 -10.4187    231.9738     15.4933   1.8699518198e+01   2.6336576194e+01    0.2683694    0.2140166 -34.52  0.001118988    1.142    0.125
        19 -11.8313    132.2074     29.7101   3.3830557969e+01   4.8168608928e+01    0.4199655    0.3147956 -46.83  0.002131714    1.359    0.264
        20 -10.7562    227.1311     18.1408   1.9618331020e+01   2.7034897032e+01    0.4988465    0.3475707   7.26  0.002908919    2.055    0.513
        21 -10.0639     75.8379     20.8435   4.4979448976e+01   6.3613201526e+01     0.460361    0.3657696 -79.82 0.0009647342    1.669    0.401
        22 -10.7212     81.2455     20.2527   4.2743785879e+01   6.2413427466e+01    0.5798957    0.2328004 -41.20  0.001230643    2.712    0.631
        23 -10.1081     76.1670     13.0484   4.0726188009e+01   6.4591181839e+01     0.438733    0.2268996 -14.55   0.00175897    2.588    0.614
        24  -9.9219     77.5900      7.0581   3.6956477756e+01   6.4952885831e+01    0.4730005    0.3398839   2.95   0.00166149    1.635    0.388
        25 -10.2857    163.7773     22.3108   2.6436452357e+01   4.0951605389e+01    0.4446594    0.3418269 -61.74  0.002354892    1.266    0.210
        26 -12.5300    111.0447     19.1134   3.3971975568e+01   5.5011965324e+01    0.5573615    0.4065911   5.21  0.002029208    1.721    0.419
        27 -10.9578    112.0244     15.0287   3.2015007858e+01   5.5223861650e+01    0.2137701    0.1867987  33.25 -0.003769674    1.214    0.176
        28 -12.0830     55.5244     19.4243   5.3058951671e+01   6.8281439165e+01    0.4601836    0.3168205  18.49 0.0006896362    1.719    0.418
        29 -11.2125     58.1740     12.8678   4.7924882785e+01   6.8734463141e+01    0.7994438    0.3929822  58.29  0.003305967    2.323    0.570
        30  -9.9380     63.0032      9.9781   4.4024185180e+01   6.8064042196e+01    0.2051571    0.1870515  25.93 0.0003507719    1.027    0.026
        31 -11.6019    193.0648     17.9854   2.2128922861e+01   3.4370835946e+01    0.3764638     0.295875  58.80  0.002160628    1.400    0.286
        32 -10.4230    152.1109      4.5997   2.1981963879e+01   4.5696234535e+01    0.7270668     0.291495  60.80  0.003015221    2.285    0.562
        33 -11.7155    151.7185     18.5639   2.6756179255e+01   4.4420883954e+01    0.5888042    0.4143982  47.21  0.003025768    1.532    0.347
        34  -9.8694    149.6984     11.9751   2.4772911115e+01   4.5624034862e+01    0.2693515    0.2026846  67.67 0.0005505384    1.268    0.212
        35 -10.1114    157.3039     10.6781   2.3444497175e+01   4.3797210874e+01    0.3301992    0.2113751 -48.92 0.0009143424    1.503    0.335
        36 -10.4040    153.0972      9.6899   2.3591184612e+01   4.4970203466e+01    0.2960178    0.2277551 -81.40 0.0003681683    1.249    0.199
        37 -10.1813    136.4353     16.3579   2.8169902256e+01   4.8634636431e+01    0.5630972    0.3298947  40.85  0.001600523    1.969    0.492
        38 -10.4426    131.2816     13.5112   2.7907081492e+01   5.0292874571e+01    0.4457017    0.2741316 -63.71 0.0006776371    1.841    0.457
        39 -12.1374    128.9802      4.5175   2.4781159440e+01   5.1771467857e+01    0.9516739    0.3847758  61.82  0.003865464    2.149    0.535
        40 -10.4189    126.1019     14.6686   2.9208386154e+01   5.1541414641e+01    0.3240376    0.2390959 -33.04 0.0007585124    1.405    0.288
        41 -11.3814    122.9927     11.2179   2.8366423864e+01   5.2724029257e+01    0.5323988     0.266804  55.53   0.00136716    1.838    0.456
        42 -11.1475    100.2070     16.5639   3.5391643102e+01   5.8134590410e+01    0.6421085    0.4108577  58.11  0.002942025    1.428    0.300
        43  -9.9510    102.6876     13.3148   3.3305118715e+01   5.7863358299e+01    0.2746788    0.2233982 -88.25 0.0005824969    1.311    0.237
        44  -9.6596     86.8006     15.9811   3.8802670860e+01   6.1614274894e+01    0.4001537     0.257686  81.68 0.0009691406    1.999    0.500
        45 -11.1107    221.5306     15.3087   1.9304814071e+01   2.8448783220e+01    0.3072322    0.2590137  53.75  0.002086209    1.443    0.307
        46 -10.1108    176.4095     12.3868   2.2030465547e+01   3.8869536674e+01    0.2788322    0.2364728 -70.57 0.0001644433    1.075    0.070
        47 -12.5717    187.1509     13.6771   2.1441798120e+01   3.6177894496e+01    0.4740528     0.344065 -11.80 0.0003745716    1.601    0.375
        48 -11.8912    182.3758     11.4009   2.1204950521e+01   3.7530509026e+01     0.522302    0.3309658  -7.70  0.001390188    1.989    0.497
        49 -10.0290     23.8533      7.4680   6.6257695847e+01   7.5797092968e+01    0.4279319    0.2274014  14.62 0.0008209246    2.470    0.595
        50 -11.0748     24.9157     12.9840   6.8906383189e+01   7.4617342029e+01    0.4624609    0.3051208 -18.01 0.0006590364    1.690    0.408
        51 -11.5819     16.4520     13.6529   7.6428976719e+01   7.5464290915e+01     0.362313    0.2325724  34.11 0.0005547304    1.675    0.403
        52 -11.6244     17.8230      8.2894   7.2077243865e+01   7.6400410489e+01    0.7485758    0.4489089 -72.52 0.0007333193    3.035    0.671
        53  -9.8290    143.9169     12.1809   2.5586075115e+01   4.7106346754e+01    0.4124833    0.2697477 -50.27  0.001835852    1.528    0.345
        54 -10.7905      8.1676      8.6698   8.1567846688e+01   7.7242226383e+01    0.6302232    0.2443589 -56.53  0.002830746    2.272    0.560
        55 -10.8978    198.2469      3.3322   1.7780385201e+01   3.4598953535e+01    0.5627854    0.2771433 -73.78  0.002721651    2.132    0.531
        56 -10.3832    204.4673      3.5118   1.7437402913e+01   3.3195359782e+01    0.3328319    0.2542916  77.67  0.001297714    1.355    0.262
        57 -11.5901    208.6926      9.9725   1.8823672799e+01   3.1673293407e+01    0.6493549     0.415168  10.21  0.002000337    2.408    0.585
        58 -10.7713    216.1459      7.3750   1.7707476872e+01   3.0325749887e+01    0.4109781     0.269546 -26.49  0.001714133    1.455    0.313
        59 -10.8720    218.2109      2.8110   1.6477444373e+01   3.0309848522e+01    0.3519202    0.2309612  83.41 0.0005701571    1.567    0.362
        60 -10.0803     90.7280     10.3351   3.4856267240e+01   6.1285771993e+01    0.4732434    0.2923118  67.89  0.002019305    1.578    0.366
        61 -11.2069     89.6098      3.4498   3.1647603380e+01   6.2281438023e+01    0.5598179      0.37792  82.80  0.002748618    1.608    0.378
        62 -10.1495    249.2860      7.1545   1.5941536767e+01   2.3854460214e+01    0.3601534   0.08772158 -40.19  0.001673285    2.539    0.606
        63 -10.4392    103.8855      7.7952   3.0509142521e+01   5.8130176694e+01    0.3751925      0.22222  56.16  0.001147424    1.521    0.342
        64 -11.0724    168.0798      5.6630   2.0758723802e+01   4.1554107028e+01    0.4830038    0.3660425   0.06   0.00176577    1.640    0.390
        65  -8.7308    137.8964      8.3480   2.5005981204e+01   4.9058936281e+01    0.2258511    0.1573646 -74.33 0.0009699084    1.482    0.325
        66  -9.1727     71.6812      7.2969   3.9073703847e+01   6.6366086257e+01    0.2733496    0.2038116 -67.57  0.001249005    1.776    0.437
        67  -9.5975    237.3391      6.2350   1.6300604673e+01   2.6168942903e+01    0.2935881    0.1349049 -48.14  0.001633729    1.723    0.420
        68  -9.3994    225.4465      7.0066   1.7090676466e+01   2.8441310234e+01    0.2236301    0.1367753 -67.31 0.0007375081    1.544    0.353
        69  -8.8397     98.1067      7.3125   3.1550868268e+01   5.9694854982e+01    0.2041584     0.173566  67.81  0.001011691    1.092    0.084
        70 -10.5728    176.9368      4.0426   1.9512257803e+01   3.9525989227e+01     0.492173    0.2072485 -54.26  0.001029866    2.335    0.572
        71 -10.2988    105.3819      2.3622   2.7713537345e+01   5.8244852771e+01    0.6093583     0.284685  82.98   0.00236393    2.488    0.598
        72  -9.4881    120.0903      2.1369   2.5124664968e+01   5.4347622958e+01    0.2731524    0.2201559 -88.61  0.001283009    1.194    0.162
        73  -9.1158    229.9938      2.0213   1.5696596132e+01   2.7982779530e+01    0.1783095    0.1350252 -50.78 0.0003405193    1.056    0.053
        74  -9.2053     63.5758      1.7310   3.8680065514e+01   6.8916004586e+01    0.3371735    0.2039292  74.93  0.001533525    2.090    0.522
        75  -9.0655     24.0310      2.0373   6.2206750161e+01   7.6724569415e+01     0.193916    0.1691315  -3.87 0.0004149898    1.018    0.017
        76 -10.3587    116.4741      8.5048   2.8382389845e+01   5.4725985131e+01    0.2833345    0.2123893 -71.02 0.0006954473    1.431    0.301
        77 -10.2298    238.6122      1.3723   1.5155733531e+01   2.6362858441e+01    0.2526295   0.09105988  71.87  0.001253361    2.949    0.661
        78  -8.9242    114.7778      1.2542   2.5583138417e+01   5.5840250995e+01    0.2005283    0.1047704  64.73 0.0004008485    1.682    0.405
        79  -9.4359     16.6237    104.7902   9.8026902882e+01   5.2783420982e+01    0.2776522    0.1588546 -76.88  0.001341136    1.621    0.383
        80  -8.2329     95.3131    105.3080   6.8562474316e+01   4.2409257688e+01    0.1537702    0.1202708  -9.71 0.0003017758    1.624    0.384
        81 -11.8881     80.9442    103.2210   7.2910867002e+01   4.5458967833e+01     0.319763    0.2968889  32.49 0.0003448723    1.064    0.060
        82  -8.7127      1.4483    104.6928   1.0399827968e+02   5.3648044333e+01    0.1749756    0.1106988 -70.45 0.0007048657    1.448    0.310
        83  -9.3947    114.4985    104.2275   6.2391126936e+01   3.8934660826e+01    0.2679896    0.2045784  40.22 0.0004734275    1.276    0.217
        84 -10.5706    107.4065    103.0988   6.4206402874e+01   4.0596016597e+01    0.4036248    0.2692589  26.82  0.001101181    1.690    0.408
        85  -9.4129     91.6870    104.2089   6.9481774794e+01   4.3331004542e+01    0.3640483    0.2323773  -3.98  0.001316328    2.946    0.661
        86  -8.7043     54.7171    105.0200   8.2985219821e+01   4.8964190034e+01    0.2052537    0.1878682 -65.37 0.0009855512    1.086    0.079
        87  -9.3266    127.2042    101.9437   5.8252097984e+01   3.6805630008e+01    0.2136393    0.2009076 -89.87  0.000305047    1.184    0.155
        88  -8.7039    135.9753     99.7657   5.5399832304e+01   3.5391270210e+01    0.1931943    0.1236559  44.53 0.0008557248    1.545    0.353
        89 -10.7528    117.3971     96.8208   5.9592945118e+01   3.9923655485e+01    0.4633526    0.3332107 -45.40  0.001012271    1.420    0.296
        90 -11.5238    101.5786     97.9282   6.4662585215e+01   4.2899761971e+01    0.3693817    0.2796324  37.37 0.0001380287    1.299    0.230
        91 -10.6670    107.9455     96.1835   6.2212309912e+01   4.2012093537e+01    0.5464376    0.2903031  51.54  0.001001363    2.066    0.516
        92 -10.3644     95.7714     96.3051   6.6108753009e+01   4.4398439478e+01    0.3000427    0.2594998  34.20 0.0007114712    1.142    0.124
        93  -9.3981     63.6059     98.6339   7.8237236608e+01   4.9353634143e+01    0.2765152    0.1746055  34.35  0.000656888    1.554    0.356
        94  -9.9143     16.8669     97.9320   9.7202970360e+01   5.4562306637e+01    0.2484754    0.1844082  62.79 0.0003737094    1.353    0.261
        95  -9.1471     27.0609     96.9005   9.2794429434e+01   5.4064441706e+01    0.2150414    0.1743951  62.63   0.00043178    1.249    0.200
        96 -12.5368     34.9249     89.4843   8.8215552593e+01   5.5286828382e+01    0.5260487    0.3438463  78.46   0.00245737    1.803    0.445
        97 -10.8546     34.3197     93.7018   8.9214630270e+01   5.4242776974e+01    0.4768415    0.2625965  66.65  0.001347387    2.326    0.570
        98  -8.8887     45.5611     93.7489   8.4462413904e+01   5.3012482239e+01    0.2607449    0.1748573  78.66 0.0006592824    1.828    0.453
        99  -9.4310     41.4844     91.2299   8.5695543861e+01   5.4136433863e+01    0.3074645    0.1833111  31.44 0.0006278107    1.667    0.400
       100  -9.2382     17.3148     92.8964   9.6430311968e+01   5.5854539836e+01    0.2691678    0.1186393 -86.77  0.001070032    2.411    0.585
       101 -11.4716     12.3794     88.4960   9.8083517015e+01   5.7316901288e+01    0.4888397    0.2557826 -42.91 4.556624e-05    2.003    0.501
       102  -9.0631    137.4838     92.4528   5.3039585668e+01   3.6488209695e+01    0.2309657    0.1960091 -47.62 2.593766e-05    1.211    0.174
       103  -9.4473    139.1499     88.6450   5.1568304039e+01   3.6845798365e+01    0.2940352    0.2065345 -54.44  0.001228307    1.598    0.374
       104  -9.9673    113.0951     91.6210   5.9401444808e+01   4.1928077650e+01     0.340594    0.2570401  31.09 0.0009184079    1.396    0.284
       105  -9.9917    110.1038     88.3155   5.9350111557e+01   4.3262508463e+01    0.3473602    0.2264278 -44.58 0.0008550119    1.564    0.361
       106  -8.3897     21.0001     92.4689   9.4778452473e+01   5.5708349741e+01    0.1904062    0.1038121 -25.08  0.000543011    2.359    0.576
       107  -9.6910    127.4063     91.1823   5.5265738414e+01   3.8942488640e+01     0.282831    0.2059734  43.10 0.0005954598    1.357    0.263
       108  -9.3412     65.8205     90.9172   7.5560775631e+01   5.0948341929e+01     0.395225    0.2131196  61.76  0.001388816    2.975    0.664
       109  -9.3543     49.0100     90.4031   8.2321345064e+01   5.3453550438e+01    0.3487465    0.2847012  68.55  0.001817676    1.334    0.250
       110  -9.8317     53.9540     88.7078   7.9862452313e+01   5.3238013190e+01    0.3494853    0.2948524  15.20  0.001308951    1.263    0.208
       111 -11.0651    111.9877     82.9462   5.7202464613e+01   4.3986247321e+01    0.4084288    0.3198239  36.65 -0.001877172    1.290    0.225
       112 -12.2442    105.5201     80.6866   5.8489836182e+01   4.5857158046e+01    0.9809934    0.6432348 -25.16  0.001391185    1.975    0.494
       113 -10.4884    127.0576     80.4736   5.2238222787e+01   4.1125383073e+01    0.7713116    0.4168981 -17.73  0.002388365    3.917    0.745
       114 -10.6565    119.5999     87.1572   5.6246656613e+01   4.1459988299e+01    0.6214844    0.3997146  52.08  0.002072422    1.599    0.374
       115 -10.3130    120.9174     82.3460   5.4457960655e+01   4.2139738930e+01    0.3021282    0.2752887  60.21 0.0003313535    1.127    0.113
       116  -9.8684     76.4759     84.7320   6.9787176900e+01   5.0680953060e+01    0.5090986    0.2603985 -62.04  0.001925073    2.325    0.570
       117 -10.2632     79.9812     80.9843   6.7381832035e+01   5.0928557775e+01    0.2460085    0.2298177  15.14            0    1.100    0.091
       118  -9.5964    157.1030     85.7037   4.6704934024e+01   3.3374531992e+01    0.2925968     0.216096  15.04  0.001066307    1.744    0.427
       119  -9.6396    131.2143     86.0828   5.2814050944e+01   3.9105112629e+01    0.2479246    0.2117953  44.83 0.0003388673    1.159    0.137
       120  -9.3159     59.9375     85.2016   7.6513846585e+01   5.3268133993e+01     0.346508    0.2053033  22.20  0.000739963    1.900    0.474
       121 -10.0085     85.5748     88.0670   6.7360902570e+01   4.8238394152e+01    0.4508798    0.2919808 -65.78  0.001920619    1.873    0.466
       122  -9.9031    187.9363     83.0225   4.0306383028e+01   2.7118657299e+01    0.1992467    0.1836371 -32.60  0.001195583    1.019    0.019
       123  -8.4825     71.6928     83.2896   7.1238870977e+01   5.1856997315e+01    0.1514701    0.1172961  69.82 0.0001730151    1.575    0.365
       124  -9.5146      1.8760     83.0585   1.0228392563e+02   5.9236756837e+01    0.1952488    0.1776356 -72.30 0.0006723761    1.038    0.037
       125  -9.6096    142.8513     81.5297   4.8654527239e+01   3.7328953810e+01    0.3323399    0.2388274  23.46 0.0008561042    1.741    0.426
       126  -9.2844    146.9218     81.5159   4.7724585393e+01   3.6403848320e+01    0.2233061    0.2025927  14.09 0.0003793098    1.176    0.149
       127 -11.1831     53.9448     80.8094   7.7950724213e+01   5.5235327248e+01    0.2871806    0.2524043 -74.80 0.0002599233    1.176    0.150
       128  -9.9643     56.6029     72.7208   7.4580608336e+01   5.6852058048e+01    0.4753597    0.2751137 -38.10  0.001293571    1.950    0.487
       129 -11.4720     46.3162     73.1318   7.9419838222e+01   5.8193417987e+01    0.6927521    0.4338979  51.02 0.0006489543    1.829    0.453
       130 -11.4326     51.2653     70.1055   7.6269351105e+01   5.8274130958e+01    0.3447731    0.2740891 -74.18 0.0004526721    1.376    0.273
       131  -9.7340     42.3412     67.5508   7.9843816022e+01   6.0094566146e+01    0.2993063    0.2540832 -52.50 0.0007028882    1.132    0.116
       132 -11.1125     43.6667     60.2742   7.7069588368e+01   6.1717606661e+01     0.449792    0.3378014 -48.02  0.001124406    1.280    0.219
       133 -10.2706     86.7995     80.3036   6.4666701069e+01   4.9788791982e+01    0.4170527    0.2517576  35.75 0.0002151066    1.683    0.406
       134  -9.3509     22.3022     80.5108   9.2430672623e+01   5.8752126681e+01    0.3183594    0.1815185 -63.56  0.001050727    1.585    0.369
       135 -11.8239    159.3199     67.1851   4.0978092296e+01   3.5948701368e+01    0.9588102    0.5811937 -12.96  0.003172066    2.367    0.578
       136 -10.3364    166.6794     62.4788   3.8266045577e+01   3.4952803965e+01    0.4459361    0.2889145 -11.87  0.001283268    2.028    0.507
       137 -11.2204    153.0745     64.7987   4.1477589476e+01   3.7805069248e+01     0.894971    0.2999702  50.82  0.003056588    2.918    0.657
       138  -9.8680    150.7355     79.0113   4.6166395026e+01   3.5973545622e+01    0.2819768    0.2152268 -26.95 0.0004022756    1.364    0.267
       139 -10.7814    151.9808     73.5396   4.4309259891e+01   3.6622849537e+01    0.3851437    0.2513353 -32.09  0.000952777    1.551    0.355
       140 -11.3704    161.2256     56.7014   3.7505965422e+01   3.7107913875e+01    0.4442747    0.3455612 -59.97 0.0008565958    1.365    0.268
       141  -9.8594    162.0004     52.2890   3.6036419626e+01   3.7566215976e+01    0.2352651    0.2186285 -51.16 0.0003012311    1.039    0.038
       142 -10.7354    147.1147     61.8247   4.1768185696e+01   3.9712456520e+01    0.5470759    0.3481499  23.18 0.0004130993    2.371    0.578
       143 -12.4643    150.6750     57.4942   3.9699790904e+01   3.9535125909e+01    0.3917682    0.3135905 -55.82 0.0005407881    1.298    0.230
       144  -9.6722     42.3807     80.5040   8.3046620630e+01   5.6806719885e+01    0.4398646    0.1569011  19.24   0.00141585    3.584    0.721
       145 -10.2233    165.1494     70.1226   4.0742613197e+01   3.4129997127e+01    0.2994014    0.2759195  40.33   0.00102583    1.132    0.117
       146  -8.8688    187.2072     76.1712   3.8650495945e+01   2.8299474469e+01    0.1820982    0.1513459 -58.75 0.0003101942    1.286    0.222
       147 -10.8987    123.3685     76.0533   5.1867393276e+01   4.2818182333e+01    0.4569204    0.2206752  52.04  0.001739559    2.101    0.524
       148 -11.5922      7.8369     73.9664   9.8522847030e+01   6.1355434097e+01    0.3663428    0.2851126  -1.44 0.0008062896    1.423    0.297
       149  -9.9038     73.5831     67.8737   6.5794086226e+01   5.5128451801e+01    0.3760838    0.2647215  22.39 0.0009427021    1.631    0.387
       150 -10.1453     78.6475     66.5460   6.3326838237e+01   5.4460200958e+01     0.383009    0.2448503  35.92 0.0009540169    1.582    0.368
       151  -9.2390     77.6805     75.6941   6.6666555156e+01   5.2580143479e+01    0.2819041      0.16104  40.05 0.0008961812    1.724    0.420
       152 -10.2188     83.2971     73.2836   6.3769520013e+01   5.2054102008e+01    0.4653976    0.2658073  31.10  0.001879449    1.958    0.489
       153  -8.7028     81.3651     69.7618   6.3353401996e+01   5.3217137676e+01    0.2281634    0.2072808  88.69 0.0005300484    1.240    0.194
       154 -10.3203    143.1659     71.1442   4.5492933087e+01   3.9096334117e+01    0.3707423     0.241341  37.78    0.0012451    1.710    0.415
       155 -10.0687    136.6451     73.6744   4.7769350194e+01   4.0181738553e+01     0.342048    0.2564606  17.84  0.001580648    1.711    0.416
       156 -11.4098    137.9627     69.7444   4.6246572353e+01   4.0569395407e+01    0.6047273    0.3451172  43.95  0.001539414    1.814    0.449
       157  -8.9048    183.0304     72.0317   3.8216796820e+01   2.9817692883e+01    0.2065714    0.1599307  17.51            0    1.588    0.370
       158  -9.7168     60.9298     76.0471   7.3633498482e+01   5.5375003696e+01    0.2397784    0.2025261  35.90            0    1.186    0.157
       159 -11.3522     62.9886     70.4029   7.1067833431e+01   5.6401821969e+01    0.3717524    0.3009825  42.69 0.0006584189    1.252    0.201
       160  -9.6722     60.3407     65.7676   7.0779216061e+01   5.7932695417e+01    0.4944019    0.3357219  24.41  0.002297226    1.589    0.371
       161 -10.0460     61.0275     60.7195   6.8787567418e+01   5.8991670927e+01    0.3031624    0.2203875  44.91  0.000298098    1.422    0.297
       162 -10.9799     60.7941     57.3108   6.7698249126e+01   5.9806851264e+01    0.5491161     0.283887  30.83  0.001210171    2.067    0.516
       163  -8.8795     26.4962     65.5372   8.7462742437e+01   6.2292130674e+01    0.3075111    0.2152992 -67.86  0.001583523    1.362    0.266
       164 -10.6419     34.7361     67.6591   8.3688587574e+01   6.0945635665e+01    0.3878647    0.2716222  58.05 0.0008486827    1.678    0.404
       165 -10.1314     34.6324     62.4204   8.2394193243e+01   6.2277170796e+01    0.4839855    0.2846352 -29.46  0.002130033    2.034    0.508
       166 -11.0957     30.6251     71.0554   8.6561168087e+01   6.0494978902e+01    0.2681918    0.2298131  12.80 0.0001798411    1.232    0.188
       167  -9.2070     29.6075     67.7294   8.6333714872e+01   6.1445432307e+01     0.267301    0.1666379 -20.40 0.0006323617    1.959    0.490
       168 -11.0103     17.5850     70.3610   9.3065521723e+01   6.1740157614e+01     0.402821    0.2545097 -44.41  0.001307002    1.543    0.352
       169  -9.2062     11.9397     67.5234   9.5540618262e+01   6.2822412171e+01    0.4351502    0.2059695  31.62  0.001442598    2.171    0.539
       170  -9.3509    103.7211     70.6946   5.5879018815e+01   4.8321885433e+01    0.7477853    0.3858288  23.59  0.002113226    4.525    0.779
       171 -11.8475    111.0314     65.8786   5.2036975125e+01   4.7617830184e+01    0.2869728    0.2703456 -44.95 0.0002865699    1.085    0.078
       172  -9.1985    109.0187     60.9794   5.0943748538e+01   4.9015817367e+01     0.229245    0.2198493 -14.42 0.0003599758    1.083    0.076
       173 -10.2830    106.2807     57.5507   5.0543065306e+01   5.0296704230e+01    0.5159283    0.2698263  51.70  0.001502175    1.877    0.467
       174 -10.8478    180.9375     63.9307   3.6346149015e+01   3.1467362474e+01    0.3970578    0.2453475 -31.21 0.0006220235    1.543    0.352
       175 -10.1063    177.2336     64.0008   3.6946291096e+01   3.2293837752e+01    0.2863381    0.2039779 -48.86 0.0002775815    1.395    0.283
       176  -8.0172    231.3005     66.6878   3.0610882996e+01   2.0779442331e+01    0.1255303   0.08095789 -53.09 0.0002454794    1.607    0.378
       177  -9.6882    194.7839     65.6145   3.4769842540e+01   2.8190423530e+01    0.3188038    0.1660792 -35.34 0.0002503823    1.715    0.417
       178  -9.8474    191.0474     61.5327   3.4214166114e+01   2.9562446955e+01    0.4765176    0.1839039  51.72  0.001912016    2.722    0.633
       179  -9.7460     24.0268     72.5541   9.0187032057e+01   6.0692274862e+01    0.3023645    0.1693476 -59.08            0    1.608    0.378
       180  -9.6178     88.8973     64.7162   5.8846647985e+01   5.2769584734e+01    0.2801251    0.2205306 -32.21 0.0006839826    1.354    0.261
       181 -10.5234      2.5078     62.4954   9.9899837230e+01   6.4543201082e+01    0.6452075    0.2530388 -51.83  0.002297089    2.215    0.549
       182 -10.1136      8.4829     56.9800   9.5753894097e+01   6.5715341778e+01    0.2688105    0.2363103 -25.89 0.0006214519    1.160    0.138
       183  -8.7249    172.4839     63.0440   3.7447262060e+01   3.3520935439e+01    0.2102882    0.1349761 -30.85 0.0004815682    1.519    0.342
       184 -10.3534     81.8285     59.9536   5.9775782556e+01   5.5241737398e+01    0.4718914    0.4052755 -23.14  0.002429995    1.250    0.200
       185 -10.1716    218.7072     59.6672   3.0316532714e+01   2.4048178800e+01    0.2851479    0.1895574 -31.92 0.0009679514    1.306    0.234
       186  -9.4680    131.9048     60.6488   4.4754202556e+01   4.3595330438e+01    0.3032135    0.2166913 -44.84  0.001432925    1.423    0.297
       187  -8.8198    115.2875     61.0155   4.9154112186e+01   4.7531399665e+01    0.2134831    0.1897163 -39.99  0.000453509    1.149    0.129
       188 -10.9856     22.1406     60.8837   8.8778535535e+01   6.3847328269e+01    0.2207343    0.2107704 -52.16 0.0002487511    1.028    0.027
       189  -9.8606    196.7908     58.1830   3.2557205554e+01   2.8767231196e+01     0.237816    0.2002793 -20.44 0.0005352476    1.202    0.168
       190 -11.1001    200.5156     55.2033   3.1310481797e+01   2.8357410311e+01    0.3146443    0.2630852 -62.88  0.001286349    1.212    0.175
       191 -10.7847    185.1553     57.3204   3.3904344643e+01   3.1449207251e+01    0.5570661    0.2144534 -33.59 0.0002909152    2.330    0.571
       192 -10.3216    179.1682     51.9560   3.3262874285e+01   3.3548736042e+01    0.4038194    0.3640644 -39.59  0.002393621    1.054    0.052
       193  -8.3864    121.2653     58.6245   4.6716199796e+01   4.6525983493e+01    0.1566527    0.1161837 -67.50 0.0006987323    1.672    0.402
       194 -10.3309     92.2499     56.9974   5.4882578271e+01   5.3611071874e+01    0.4088247     0.339235 -35.38  0.001232759    1.245    0.197
       195  -9.8601     95.5103     55.9808   5.3392979386e+01   5.3077898129e+01    0.3243954     0.240433 -32.94  0.001133143    1.429    0.300
       196  -8.8918     40.2628     51.7716   7.6134671742e+01   6.4203547080e+01    0.3053787    0.2105177 -67.37  0.001490497    1.595    0.373
       197  -9.8852     26.7231     57.3089   8.5360676129e+01   6.4356581633e+01    0.3254444    0.2076498 -59.37  0.001318443    1.443    0.307
       198 -11.8407     31.5985     52.8492   8.1346026550e+01   6.4973942521e+01    0.5639871    0.4509093 -24.51  0.003091582    1.284    0.221
       199  -9.8348    222.9339     56.0251   2.8993832463e+01   2.3668815202e+01    0.2894637    0.1884352 -28.83  0.001050409    1.360    0.265
       200 -12.5518    137.2379     46.9835   3.8965037836e+01   4.4467284807e+01    0.8276285    0.5810251  74.11  0.001902186    1.548    0.354
       201 -10.7503    128.0916     53.6398   4.3293543714e+01   4.5702397185e+01    0.5752832    0.3990584 -24.22  0.001492188    1.617    0.382
       202 -12.0122    122.5392     49.9732   4.3351227890e+01   4.7678249533e+01    0.4145905    0.3668218 -61.96  0.001250493    1.191    0.160
       203 -10.3494    117.8008     51.3857   4.5065868705e+01   4.8615063428e+01    0.4761483    0.3028128  51.82 0.0002019577    1.519    0.342
       204  -8.4948    114.0000     56.0197   4.7757666617e+01   4.8738950521e+01      0.18103    0.1700911 -37.67            0    1.091    0.084
       205  -9.1957     77.9748     55.4667   5.9617181693e+01   5.6967024838e+01    0.2214577    0.1941011 -39.32 -2.917475e-05    1.159    0.137
       206  -9.9679     26.0937     48.4854   8.3278952236e+01   6.6599108395e+01    0.3984789    0.2526024  -3.69   0.00121982    1.861    0.463
       207  -9.1136     21.7182     47.3565   8.5636873978e+01   6.7270293556e+01    0.2312133    0.1295633  26.16  0.000460542    1.829    0.453
       208 -10.7688     19.9938     55.2130   8.8700438403e+01   6.5452605814e+01    0.4374126    0.2125684 -46.31  0.001084882    1.920    0.479
       209 -10.8424     17.7812     50.5674   8.8906734763e+01   6.6783700110e+01    0.5500116    0.3982584 -11.66  0.001618527    1.483    0.326
       210 -10.3511    173.3450     51.8116   3.4080350924e+01   3.4927830668e+01    0.6433685    0.2824388 -47.73  0.002538107    2.403    0.584
       211  -8.9410     80.7356     39.0094   5.1799776886e+01   5.9553456707e+01    0.2172379    0.1925291  10.78 0.0003119641    1.195    0.163
       212 -10.5733     82.2142     34.5867   4.9271569698e+01   5.9982829455e+01    0.8684997    0.3588544  59.10  0.002932952    3.016    0.668
       213  -9.3616     89.6711     33.3397   4.6105800024e+01   5.8437616521e+01    0.3673479    0.2191055 -49.69 0.0008513457    1.953    0.488
       214 -10.1079     82.2693     52.8266   5.6929125159e+01   5.6608258216e+01    0.4770177    0.2442669 -38.99  0.001900712    2.049    0.512
       215 -10.2637     85.0621     47.3169   5.3691965859e+01   5.7069317278e+01    0.5212258    0.2998006 -37.62  0.002224383    1.811    0.448
       216 -10.6501     90.9594     43.9519   5.0221335722e+01   5.6346528133e+01    0.4219193    0.3219306  36.92 0.0007665579    1.329    0.248
       217 -10.9314     89.2806     38.2657   4.8397768088e+01   5.7722428558e+01    0.3092031    0.2674497  81.01 0.0001867207    1.319    0.242
       218  -9.0563     44.5878     53.2299   7.4296968891e+01   6.3276320706e+01     0.350388    0.1924307 -54.19  0.001263385    1.760    0.432
       219  -9.2473     45.5404     49.4910   7.2459927635e+01   6.4009362121e+01    0.2427933    0.2208334 -35.59 0.0008737502    1.060    0.057
       220  -9.5044    205.9508     52.9847   3.0094174594e+01   2.7487144827e+01    0.1983148     0.177176 -42.11 0.0004675162    1.008    0.008
       221 -12.6776      2.2283     51.0579   9.8525632600e+01   6.7473768661e+01    0.4439269    0.2086968 -48.70 0.0008072254    1.871    0.466
       222  -9.3309      9.9012     51.2527   9.3874757995e+01   6.7100806198e+01    0.3490625    0.1801037  64.21  0.001294506    2.601    0.616
       223 -11.7391    233.2445     48.3128   2.6198543227e+01   2.2603724074e+01    0.2595262    0.2228655 -65.95 0.0002567222    1.206    0.170
       224 -10.6638    211.8184     49.6236   2.8596437610e+01   2.6680320464e+01    0.3203082    0.2289444  81.74  0.001318485    1.609    0.378
       225  -9.9063    201.5477     49.7737   2.9776315031e+01   2.8828378045e+01    0.2419492    0.2230253 -72.69 0.0009269973    1.108    0.097
       226  -8.9593    147.1023     49.8298   3.7944123089e+01   4.1576608514e+01    0.2305114    0.1909456 -73.60 0.0008375079    1.305    0.234
       227  -9.3100    194.4933     48.5567   3.0294219832e+01   3.0522495498e+01    0.3129838    0.2111769  51.24  0.001141791    1.631    0.387
       228  -9.3442    192.1773     44.7567   2.9549064696e+01   3.1518490419e+01    0.3917119    0.1693165 -50.56  0.001112951    2.479    0.597
       229  -9.7182    110.8972     49.0421   4.6068241057e+01   5.0702893197e+01     0.240456    0.2087145  57.72            0    1.125    0.111
       230  -9.0390    103.7240     49.1007   4.8171292112e+01   5.2427797239e+01    0.2673749    0.2248759  44.05  0.001363196    1.162    0.140
       231  -9.1850     62.7804     48.4516   6.3412331232e+01   6.1391522110e+01    0.2373707    0.1964651 -52.94  0.001100495    1.272    0.214
       232  -9.2591    246.4806     47.9788   2.5007327965e+01   2.0224445157e+01    0.1840533   0.09628884 -29.19  0.001028038    1.581    0.368
       233 -10.2699    154.6284     43.8500   3.4652950042e+01   4.0563418480e+01    0.4054433    0.2632709  45.87  0.001578742    1.654    0.396
       234 -10.6462    154.5708     34.8262   3.1745833021e+01   4.1777515999e+01    0.4001935    0.3439865  31.04  0.001158895    1.328    0.247
       235  -9.4135    149.1410     33.3902   3.2139236495e+01   4.3336103403e+01    0.2744253     0.224169 -74.31 0.0004375841    1.260    0.207
       236 -12.2917    163.4079     42.6177   3.2844771533e+01   3.8564139582e+01    0.4083761    0.3167737 -70.56  0.001176029    1.373    0.272
       237 -10.3660    158.3537     38.5107   3.2341402893e+01   4.0354246820e+01    0.5749647     0.255642  48.40  0.002264988    2.440    0.590
       238  -8.8590     72.8783     45.7005   5.7817505212e+01   5.9985620438e+01    0.3521528    0.1770229  39.07  0.001405605    2.012    0.503
       239  -9.0489     67.4313     45.0224   5.9886964453e+01   6.1214673479e+01    0.3772623    0.2841424  47.27  0.001879159    1.347    0.258
       240  -9.3037     71.8133     40.6697   5.6111193877e+01   6.1178069911e+01     0.447319    0.2410717 -34.31   0.00185189    2.034    0.508
       241  -9.5542     75.3399     39.9985   5.4353883435e+01   6.0557276125e+01    0.2638896    0.2027887  51.03 0.0005921971    1.306    0.234
       242 -10.0835      1.5874     21.6580   9.2883777761e+01   7.4693873407e+01    0.2786298    0.1582664 -71.25  0.001003239    1.674    0.403
       243  -9.1010    107.0676    246.5236   8.6661743053e+01   1.2621979554e+01    0.1558595    0.1374155  28.55 0.0009196554    1.202    0.168
       244 -11.3325     76.8384    219.7893   9.0882195993e+01   2.0438955430e+01    0.5626433    0.3628631   4.45  0.002988191    1.974    0.493
       245 -10.1117     73.6960    213.9344   9.1113240971e+01   2.1858686829e+01    0.4568427    0.2803101  30.43  0.002689595    1.318    0.241
       246 -11.0603     34.1171     39.5710   7.5284226473e+01   6.7821401977e+01    0.8373863    0.5981079 -56.67  0.003299624    1.399    0.285
       247  -9.9077     55.9607    217.2965   9.5504201478e+01   2.3195839905e+01    0.2670733    0.1520495 -71.96  0.001023671    2.090    0.522
       248  -8.9853     91.4954    214.5123   8.7028102936e+01   1.9638127130e+01    0.2575018   0.09831516  30.52 0.0007894911    2.065    0.516
       249  -9.4358    123.9520    206.0051   7.8640837769e+01   1.6930807149e+01    0.1754297    0.1430965  22.75  0.001134025    1.017    0.016
       250  -9.9212     16.1331     22.7513   8.1066329978e+01   7.3530678412e+01     0.329473    0.1843109 -28.72  0.001475547    1.887    0.470
       251  -9.7413     15.3107     18.8788   8.0023219840e+01   7.4457523426e+01    0.2117951    0.1544949 -43.71  0.001214799    1.234    0.190
       252 -10.5106     69.2919    217.5123   9.2432600285e+01   2.1704984295e+01    0.3488439    0.1920772  55.49 0.0004700614    1.859    0.462
       253  -8.5665    133.0205    198.9876   7.5665253759e+01   1.6874462544e+01    0.1425525    0.1184547  20.92 0.0009062061    1.011    0.011
       254  -8.7354    223.0261    188.1790   5.6427307914e+01   6.1757862800e+00    0.1480373    0.1111635   4.34 -0.0006383859    1.052    0.049
       255  -9.3225      1.3103    185.0077   1.0718111714e+02   3.4545889240e+01    0.2520793    0.0976062 -86.54  0.001217484    2.555    0.609
       256  -9.9895    100.9913    176.0014   8.0128552533e+01   2.5722332703e+01    0.1922676    0.1677059  30.52  0.001155367    1.008    0.008
       257  -8.9647      6.9441    168.5009   1.0520024596e+02   3.7764082546e+01    0.1796022    0.1101977  24.70  0.000803151    1.564    0.361
       258 -11.2295     18.0813    160.9005   1.0172363364e+02   3.8681709188e+01    0.3945652    0.2263001 -42.88  0.001984477    2.258    0.557
       259 -10.8686      5.8010    163.1867   1.0531960426e+02   3.9049267357e+01    0.5274051    0.1948894  21.87  0.001292683    2.522    0.603
       260  -9.0637    180.0471     44.7736   3.1093886938e+01   3.4296368750e+01    0.2602647    0.1857901  47.50   0.00136559    1.544    0.352
       261 -10.0374    108.4302     43.8715   4.4781822553e+01   5.2170294003e+01    0.4499333     0.271729  68.82  0.001865816    1.966    0.491
       262  -9.4391     78.9346     44.4352   5.4828981140e+01   5.8954064597e+01    0.2541144    0.2101582 -66.36 0.0006822236    1.450    0.310
       263  -9.6971    209.7467     42.6739   2.7063226759e+01   2.7947780716e+01    0.3617307    0.1563491 -26.58  0.001612441    2.195    0.544
       264  -9.4531     55.9189     43.9605   6.4882485185e+01   6.3571509668e+01     0.326264    0.1901227 -41.74            0    1.730    0.422
       265  -9.4681     52.0029     28.0105   5.9538997038e+01   6.7457181021e+01    0.3088882    0.2330818 -73.62 0.0003392701    2.017    0.504
       266 -10.9328     61.5478     35.5653   5.8406662784e+01   6.4221400627e+01    0.7970789    0.5501974 -50.26  0.003762433    1.586    0.369
       267 -10.2388     54.7001     36.9616   6.2446334928e+01   6.5230923246e+01     0.391032    0.3324312  59.54  0.001334714    1.380    0.276
       268  -9.8543     53.8101     33.2418   6.1170035105e+01   6.6128054470e+01    0.2568615    0.2102568  -6.21 0.0006109242    1.323    0.244
       269 -10.6456     17.8571     41.1167   8.6322298346e+01   6.9105594242e+01    0.4251812    0.2647514  82.55    0.0015268    2.241    0.554
       270 -10.2512    145.1905     40.9326   3.5358619968e+01   4.3334671722e+01    0.3963147    0.2852141  61.08  0.001435266    1.358    0.264
       271 -12.2359    140.2216     37.8910   3.5240082023e+01   4.5016963292e+01    0.4068666    0.3323934   6.93 0.0002941119    1.488    0.328
       272  -9.5809     27.5713     42.0356   8.0293585734e+01   6.8000774216e+01    0.2439031    0.1935283   1.65 0.0005932715    1.309    0.236
       273 -10.0446    250.5694     38.1979   2.2567701310e+01   2.0561105547e+01     0.360319   0.09901249 -30.54  0.001133231    2.693    0.629
       274  -9.7598    239.1021     40.9237   2.4022267663e+01   2.2337827362e+01    0.3087443    0.2125342  -0.86  0.001817253    1.926    0.481
       275 -11.3988    245.7130     32.6279   2.1686695831e+01   2.2012988252e+01    0.5107738    0.3650287   8.50  0.001191838    1.980    0.495
       276 -10.7012    230.6133     39.3192   2.4337864412e+01   2.4120040727e+01    0.2624315    0.1769315 -37.93  0.000556085    1.221    0.181
       277  -9.5240    226.2506     37.9868   2.4387816677e+01   2.5119354923e+01    0.2297137    0.1825024  86.73  0.001271351    1.391    0.281
       278  -9.1802    218.3172     41.1660   2.5856401360e+01   2.6349434319e+01    0.1924439    0.1645049  62.46 0.0005780022    1.333    0.250
       279  -8.8697     97.6890     41.5791   4.7043393094e+01   5.5166676856e+01    0.1939633    0.1432456  64.16 0.0003480794    1.429    0.300
       280  -8.9311     48.7390     40.8143   6.7300117016e+01   6.5446902536e+01    0.1935282    0.1851384 -36.36 0.0006152628    1.080    0.074
       281  -8.2533     48.5189     37.5024   6.5980177017e+01   6.6183137741e+01    0.2174335    0.1287393 -36.92 0.0006922323    1.763    0.433
       282 -10.0887    201.5357     37.7573   2.6634113562e+01   3.0290125213e+01    0.4406646    0.2223832 -51.34  0.001515622    1.954    0.488
       283  -8.7933    110.2882     38.2880   4.2078864801e+01   5.2592552509e+01    0.2313374    0.1544591 -28.31  0.000528726    1.610    0.379
       284  -9.2122    112.9888     40.0452   4.2062552692e+01   5.1643644851e+01    0.2590427    0.2217796 -27.87 0.0005636056    1.232    0.188
       285 -10.0684    115.4631     35.9218   3.9825490490e+01   5.1637058292e+01    0.5136285    0.2681794 -38.37  0.001972593    1.941    0.485
       286  -9.7135    118.6571     36.3149   3.9209666538e+01   5.0764762329e+01    0.4812455    0.2371896  66.60  0.001861475    2.192    0.544
       287 -11.4142    126.8660     34.0927   3.6529760504e+01   4.8969464155e+01    0.9031702     0.404965 -50.15            0    2.710    0.631
       288 -10.7093    123.9622     30.6920   3.5855634908e+01   5.0180916094e+01    0.3032106    0.2560604  67.52 0.0004026726    1.135    0.119
       289 -10.1160    194.6526     37.1684   2.7206576825e+01   3.1886561195e+01    0.2479444     0.196543 -60.66 0.0003616063    1.209    0.173
       290  -9.4890      2.5200     38.0322   9.6090096212e+01   7.0720459312e+01    0.2309574    0.1724215 -19.88  0.001350599    1.348    0.258
       291 -10.7357     73.6566     35.1022   5.2831031414e+01   6.1806363006e+01    0.4168166    0.3242376 -41.25  0.001666058    1.339    0.253
       292 -11.0546     31.2852     32.3943   7.4151150590e+01   6.9780623822e+01    0.3308928    0.2687622 -63.74 0.0009836023    1.364    0.267
       293  -9.0476    178.4323     34.0591   2.8204557228e+01   3.6013337230e+01    0.3251153    0.1902441  39.99  0.001491743    2.177    0.541
       294  -9.3545    180.0042     28.9515   2.6531154659e+01   3.6238002676e+01    0.2891085    0.2468509 -83.96  0.001197701    1.147    0.128
       295 -11.0685      6.4162    157.9717   1.0494432689e+02   4.0211557514e+01    0.3880913    0.1969426 -76.87  0.001999026    1.920    0.479
       296 -10.4098    170.8132     32.5131   2.8703995890e+01   3.8034538359e+01    0.5106291    0.2995648 -31.82  0.001729243    1.631    0.387
       297  -9.0684    185.7971     35.7529   2.7811979697e+01   3.4078637999e+01    0.2388698    0.1613987  66.23 0.0009285149    1.526    0.345
       298 -11.5394    236.3098     30.0562   2.1762421496e+01   2.4027187672e+01    0.4584053    0.3142417 -18.93  0.002851665    1.503    0.335
       299 -10.1865    223.5616     22.4593   2.0887619259e+01   2.7317661587e+01    0.4018812    0.2332406 -54.77  0.001504682    1.566    0.362
       300 -10.9823     11.4432    144.9922   1.0283689215e+02   4.2955847845e+01    0.3436318    0.2641255  33.80 0.0008298489    1.252    0.201
       301 -11.4675      3.2825    152.2498   1.0563344220e+02   4.1753170294e+01    0.5070884    0.2364122 -69.06  0.001220576    2.130    0.531
       302 -10.7504      5.7720    147.6364   1.0470428560e+02   4.2692819251e+01    0.4592845    0.1628113  32.77   0.00141178    2.333    0.571
       303  -8.2096     47.2686    160.2667   9.3135321449e+01   3.6106658233e+01    0.1211154    0.1007433 -28.19 0.0006852561    1.467    0.318
       304  -9.9764     46.0433     29.0912   6.3408375648e+01   6.8300546069e+01    0.5154542    0.2835226  27.58  0.001563935    2.003    0.501
       305  -8.9769    223.4794     30.9306   2.2928376019e+01   2.6444075863e+01    0.1738659    0.1548325 -71.33 0.0005325632    1.143    0.125
       306 -10.0861    216.5573     29.9070   2.3239728664e+01   2.7969562853e+01    0.3305597    0.1889984 -47.02  0.001044046    1.519    0.342
       307  -9.1744    206.8683     26.3350   2.3155740978e+01   3.0411046380e+01    0.2840922     0.133393 -32.13  0.001378405    1.834    0.455
       308 -11.1921     15.5431    154.3899   1.0210600170e+02   4.0407210723e+01    0.4463658    0.1698912  45.72  0.001983074    2.215    0.549
       309  -8.8469    201.0497     29.5144   2.4509432939e+01   3.1337610509e+01    0.1721046    0.1240004  81.28  0.000336859    1.459    0.315
       310  -9.3833    146.9850     29.0893   3.1030698210e+01   4.4425736059e+01    0.2025535    0.1935879  75.19            0    1.051    0.049
       311  -9.8362     29.7885    150.8669   9.7559351177e+01   4.0077203951e+01    0.2159204    0.1676931 -69.42 0.0003404655    1.331    0.248
       312 -10.1844     82.5621     27.5581   4.5872670257e+01   6.1031697638e+01    0.4274197    0.3414806  80.19  0.002165155    1.510    0.338
       313  -9.8481     29.3659    146.3188   9.7320069552e+01   4.1218829409e+01     0.289931    0.1821291  47.20 0.0006369474    1.444    0.308
       314 -10.2591     23.5678    148.2172   9.9277740330e+01   4.1255314514e+01    0.2217715    0.1692445  29.14 0.0005334528    1.281    0.220
       315  -9.0357     49.9823    146.0000   9.0786509879e+01   3.9211547889e+01    0.2201317   0.07445408  25.58 0.0003542568    2.833    0.647
       316  -8.9849     56.3846     27.0484   5.6756781328e+01   6.6804091470e+01    0.2704178    0.1313958 -47.85  0.001096435    2.322    0.569
       317  -8.6712    155.0477     26.2216   2.8853140758e+01   4.2709090540e+01    0.1836387    0.1713628 -83.60 0.0002575566    1.014    0.014
       318  -9.7123     70.4967     26.5318   4.9997018241e+01   6.3954165062e+01    0.2723106    0.1896258  31.48 0.0005800675    1.513    0.339
       319  -9.5649     73.6806     25.6969   4.8283851016e+01   6.3376123002e+01    0.2714288    0.1917888  39.31  0.000807299    1.377    0.274
       320  -9.1982     11.3337     33.2065   8.8539151109e+01   7.1467610078e+01    0.2743948    0.1692417  27.53  0.001432986    1.721    0.419
       321  -8.6030    104.0135     23.9952   3.7757573247e+01   5.6224879124e+01    0.1745153    0.1539057  60.43 0.0009405825    1.068    0.064
       322 -10.3980     99.4466     23.7070   3.8834836493e+01   5.7429157445e+01    0.3185025    0.2467733  72.72 0.0005333782    1.329    0.248
       323 -10.6512     67.1399     22.1109   4.9125711021e+01   6.5398112008e+01    0.5042704    0.3197376  25.12  0.001757744    1.938    0.484
       324  -9.6071    248.6641     22.5846   1.9303380380e+01   2.2499395894e+01    0.2054694    0.1507149 -49.66 0.0006331138    1.122    0.109
       325  -9.9924    212.0865     22.3580   2.1715079205e+01   2.9710955739e+01    0.2312109    0.2025438 -48.99 0.0004838516    1.040    0.038
       326 -10.7753      3.0194    142.4610   1.0532866148e+02   4.4105362068e+01    0.3274756    0.2737752  29.93  0.001702816    1.226    0.184
       327  -8.6309    159.3556     22.2851   2.6985105581e+01   4.2066260113e+01    0.1427909    0.1001524  39.86 0.0005738519    1.669    0.401
       328  -9.7979     44.4530    141.5191   9.2035961101e+01   4.0918274079e+01    0.2356434    0.2198271  71.66 0.0005607627    1.038    0.037
       329 -10.2920     20.8760    118.7535   9.7762293896e+01   4.8855510144e+01    0.2800444     0.244527 -67.97  0.001677961    1.143    0.125
       330 -10.4937     23.6651    124.7036   9.7317232533e+01   4.7111449739e+01    0.3681561    0.2422879  56.48  0.001354618    1.470    0.320
       331 -11.0579     30.7686    126.1347   9.4956020951e+01   4.6140555479e+01    0.4802981    0.3856716  38.70  0.002180201    1.203    0.169
       332 -11.6411     28.9360    137.5533   9.6699174890e+01   4.3420804843e+01     0.648906    0.4061873 -77.47   0.00108175    1.563    0.360
       333  -9.7231    201.8423     18.8537   2.1626485936e+01   3.2300007426e+01    0.4265612    0.1962141 -59.93  0.001671732    2.323    0.569
       334 -10.2277    188.4561     20.5755   2.3263068153e+01   3.5167178648e+01     0.235653    0.2157931 -49.67 7.592028e-05    1.066    0.062
       335 -10.1492     27.2217    130.4105   9.6615629402e+01   4.5364971889e+01    0.2877031    0.1998782  30.30 0.0008510982    1.403    0.287
       336  -9.0333    143.1675     21.9335   2.9144028032e+01   4.6258715270e+01    0.2257515    0.1771588 -67.34 0.0007258111    1.298    0.230
       337 -11.3298     17.3590    141.0384   1.0073422445e+02   4.3498081262e+01    0.6089255    0.2209079  41.54  0.002583142    2.347    0.574
       338 -10.8323      1.8444    112.8222   1.0431643425e+02   5.1547024508e+01    0.7003306    0.2678472  79.90  0.002811212    2.659    0.624
       339 -10.5710      8.2326    136.9760   1.0342336278e+02   4.5126460872e+01    0.3195113    0.1625411  40.19            0    1.758    0.431
       340  -9.7797      8.7815    104.1064   1.0107995883e+02   5.3438853638e+01    0.2777663    0.2317959 -70.41 0.0009896901    1.137    0.120
       341 -11.1401     10.7282    112.2534   1.0096970643e+02   5.1218667314e+01    0.2965175    0.2127841 -85.52 0.0002781293    1.285    0.222
       342  -9.8366    129.8947     19.5176   3.0429596238e+01   5.0007127923e+01    0.3120398    0.2417367  81.64 0.0007561844    1.269    0.212
       343 -11.0134      6.5544    108.5053   1.0227762861e+02   5.2419653712e+01     0.547342    0.3379197 -10.90  0.002774502    1.992    0.498
       344 -11.5025     10.9052    128.8129   1.0206428275e+02   4.6987932035e+01    0.6182208    0.2959109  29.94  0.001372096    1.951    0.487
       345 -11.1204     17.5659    134.1273   1.0018644702e+02   4.5196983269e+01     0.404727    0.2725942  68.43 0.0006042119    1.405    0.288
       346 -10.9231     12.7516    134.9644   1.0183519450e+02   4.5328667400e+01    0.3082199    0.2590496  51.55 0.0002625279    1.099    0.090
       347 -11.5327     11.9151    118.1678   1.0097847083e+02   4.9625614944e+01    0.6237233    0.4018315 -64.05  0.003051439    1.500    0.333
       348  -9.3358    118.0396     19.4325   3.2624400869e+01   5.3138804174e+01     0.256686    0.2032223  41.12 0.0008440666    1.315    0.240
       349  -8.1588     71.6765    138.2698   8.2855330578e+01   3.8347279560e+01     0.148961    0.1012258  57.09 0.0002078968    1.571    0.363
       350 -10.2127      4.2551    131.3508   1.0443562910e+02   4.6755162763e+01    0.3291585    0.1806245  38.06  0.001099131    1.675    0.403
       351  -8.9831     88.6997     19.2966   3.9862756899e+01   6.0716467333e+01    0.2415546     0.176293 -88.90 0.0005790195    1.756    0.430
       352  -8.9692     67.9258    130.9015   8.2877506889e+01   4.0662566171e+01    0.2107097      0.19192 -12.86  0.001171635    1.229    0.186
       353  -8.8164     83.7008     13.2724   3.8372942436e+01   6.2719311187e+01    0.2038857    0.1526115  39.20 0.0004104208    1.308    0.236
       354 -11.6534     98.9551    126.1017   7.2127517338e+01   3.6946518207e+01     0.264645    0.2528807  36.01 0.0002943445    1.006    0.006
       355  -9.4820     59.0432    125.1754   8.4938861629e+01   4.3276786398e+01    0.2413332    0.1955572  31.99 0.0004670832    1.205    0.170
       356 -10.4668     48.4356    126.5285   8.8815996086e+01   4.4230033052e+01    0.3801472    0.2218729  55.54  0.001719172    1.821    0.451
       357  -8.5910     69.4748    126.4212   8.1604883325e+01   4.1548247650e+01     0.144501    0.1367803  47.27 2.988461e-05    1.012    0.012
       358  -9.4951    230.5645    124.7376   4.3387392784e+01   1.3352041479e+01    0.2255877    0.1851957 -29.04  0.001014121    1.167    0.143
       359  -9.5139     38.0458    125.0043   9.2260948115e+01   4.5736038089e+01    0.2288984    0.1473818  58.06 0.0008792988    1.583    0.368
       360  -8.8888     67.1634    123.7838   8.1923504893e+01   4.2528106084e+01    0.1957228     0.167685 -21.99 0.0003249715    1.341    0.254
       361  -9.0155     82.6881    120.9069   7.6184827674e+01   4.0891251303e+01    0.2468544    0.1838829 -38.61  0.001194095    1.489    0.328
       362 -10.2981     39.7506    119.8069   9.0986437541e+01   4.6895587382e+01    0.3346579     0.303409  -1.95  0.001571129    1.232    0.188
       363 -10.3669     15.4908    115.6684   9.9468168753e+01   5.0035557391e+01    0.2832512    0.2634544 -51.10 0.0008460041    1.161    0.138
       364 -11.4781     98.7196    117.4389   7.0328661580e+01   3.8981133125e+01    0.3417907    0.2783675  40.82 0.0002887343    1.182    0.154
       365  -9.3502     98.5690    113.5444   6.9489266117e+01   3.9906273370e+01    0.2533944    0.1455869  34.13 7.983903e-05    1.728    0.421
       366 -10.6543     57.8309    117.9369   8.4166393037e+01   4.5261611167e+01    0.4445932    0.2715418  37.02  0.001610745    1.559    0.359
       367  -9.8089     72.1391    117.4218   7.9041211111e+01   4.3383569250e+01    0.2679452    0.2292093  68.91 0.0006328356    1.234    0.190
       368  -9.6103     66.9791    117.0915   8.0772611474e+01   4.4222738992e+01    0.2865373    0.2059681 -63.30  0.001239475    1.416    0.294
       369 -11.3753     46.7879    116.3195   8.7912334833e+01   4.7027095834e+01    0.3249909    0.2463403 -67.97  0.000242727    1.302    0.232
       370  -9.4683     50.0564    112.3233   8.6060345082e+01   4.7671449561e+01    0.2700563     0.183302 -50.11  0.000275173    1.516    0.340
       371  -9.2166     30.8352    118.1097   9.4037994738e+01   4.8196550352e+01    0.2170347     0.171585  57.96  0.000619836    1.228    0.185
       372  -9.1465     75.4602    114.0293   7.7214904871e+01   4.3712437444e+01     0.213962    0.1465919 -59.61 0.0003473919    1.494    0.331
       373  -9.0966     39.7526    114.3973   9.0242034281e+01   4.8292184717e+01    0.2417521    0.1865481  11.77  0.001105723    1.432    0.302
       374  -9.7269     84.2695    112.9801   7.3993807060e+01   4.2541487274e+01    0.2607525    0.2111968  28.12 0.0002521606    1.241    0.194
       375  -8.9211     71.6714    112.9340   7.8311554517e+01   4.4566443890e+01    0.2002049    0.1864301 -74.47  0.000322556    1.095    0.086
       376 -10.8072     62.0762    111.9062   8.1545407588e+01   4.6218952398e+01    0.3932607    0.3144448  23.14  0.002030089    1.294    0.227
       377 -10.6602     20.5985    110.7382   9.7078114273e+01   5.0951823008e+01    0.4830834    0.2576586  31.97  0.002288681    1.812    0.448
       378 -10.5585     35.1666    107.1692   9.0968244742e+01   5.0634684437e+01    0.7001094    0.2467284 -68.53  0.002588044    2.628    0.620
       379  -9.3264     34.3520    103.7122   9.0786385401e+01   5.1617327167e+01    0.2642527    0.1835835  49.46 0.0005811244    1.456    0.313
       380  -9.9331     28.5266    109.4451   9.3867520004e+01   5.0651717910e+01    0.2635973     0.244302 -55.52 0.0006447189    1.117    0.105
       381 -11.2541    120.2211    107.8637   6.1688727017e+01   3.7003036772e+01    0.3596936     0.243734  39.58  0.001654565    1.441    0.306
       382 -10.4240     46.4238    108.7481   8.6840064251e+01   4.9023058438e+01    0.4839222    0.2968584  48.20  0.001128978    1.664    0.399
       383 -11.5682     45.8715    102.9016   8.6051053429e+01   5.0602282869e+01    0.3752896    0.2725012  86.41  0.001402611    1.521    0.343
       384  -8.1901    138.9847    107.7406   5.6717754871e+01   3.3190123778e+01    0.1802777    0.1263305  42.52 0.0008445199    1.407    0.289
       385 -10.0731    130.7663    105.0121   5.8110238889e+01   3.5438014552e+01    0.4479095    0.3445154  -3.26  0.002117704    1.648    0.393
       386 -10.6075     21.4105    104.9487   9.6135389222e+01   5.2402047519e+01    0.3040737    0.2472574  75.85 0.0005565503    1.192    0.161
