#   1 NUMBER                 Running object number                                     
#   2 MAG_AUTO               Kron-like elliptical aperture magnitude                    [mag]
#   3 X_IMAGE                Object position along x                                    [pixel]
#   4 Y_IMAGE                Object position along y                                    [pixel]
#   5 X_WORLD                Barycenter position along world x axis                     [deg]
#   6 Y_WORLD                Barycenter position along world y axis                     [deg]
#   7 A_WORLD                Profile RMS along major axis (world units)                 [deg]
#   8 B_WORLD                Profile RMS along minor axis (world units)                 [deg]
#   9 THETA_WORLD            Position angle (CCW/world-x)                               [deg]
#  10 FWHM_WORLD             FWHM assuming a gaussian core                              [deg]
#  11 ELONGATION             A_IMAGE/B_IMAGE                                           
#  12 ELLIPTICITY            1 - B_IMAGE/A_IMAGE                                       
         1 -13.4321    166.7344     56.8270   6.3928724388e+01   3.6026564765e+01     1.965583      1.23876  24.95  0.005983375    2.119    0.528
         2 -13.3000    180.5978     42.6056   5.6888971548e+01   3.4528039397e+01    0.9544764    0.9084803 -19.93  0.003039302    1.072    0.067
         3 -13.8801    201.7155     11.5671   4.4746053156e+01   3.2749687766e+01     1.171949     1.017844  -9.70  0.004546961    1.309    0.236
         4 -11.1420    189.7896     15.1757   4.7184003596e+01   3.5431708231e+01    0.3527284    0.2686034  77.98   0.00122681    1.270    0.213
         5 -13.1244    225.5920      4.3706   4.0520782189e+01   2.7560967331e+01     1.977589    0.4796379  75.04  0.006305865    4.325    0.769
         6 -18.6753     47.5074    238.1304   1.2573571187e+02   2.0748917980e+01     5.804977     4.661929  74.99   0.04080388    1.178    0.151
         7 -12.4449    248.0022    246.2578   9.2161101889e+01  -1.0072925260e+01    0.6944333    0.3951223 -12.25  0.004403068    1.851    0.460
         8 -10.6549    156.4931    189.6596   9.9524656840e+01   1.2946064897e+01    0.2354785    0.1960367  49.08 0.0004995205    1.120    0.107
         9 -11.6952    150.0312    188.2523   1.0061480474e+02   1.4391787864e+01    0.3766112    0.2168198  43.53  0.001830545    1.574    0.365
        10  -9.7036    242.3274    184.6895   8.2163416977e+01  -2.0125673256e+00    0.1129049    0.1070069 -73.13 0.0004619871    1.662    0.398
        11 -11.3254    151.8620    181.4366   9.9044711636e+01   1.5320947919e+01    0.4209992    0.2587668 -75.24  0.001718297    2.977    0.664
        12 -12.3290    145.4446    180.8409   1.0029500906e+02   1.6630841114e+01    0.5045356     0.301185 -65.75  0.002264839    2.302    0.566
        13 -12.3535    141.8265    175.1120   1.0005215091e+02   1.8417211264e+01    0.4352907    0.3627116  69.24  0.002433498    1.283    0.221
        14 -11.0299    188.7592    176.5529   9.0526644963e+01   9.1068771273e+00    0.5827957    0.3722551 -56.22  0.002325166    2.166    0.538
        15 -10.6427      8.3840    223.5838   1.3119636155e+02   2.7467047731e+01    0.1106358   0.08508562 -85.10 0.0009140314    1.352    0.260
        16 -10.7447      1.6673    177.1202   1.2986293452e+02   3.6974083578e+01    0.1361392   0.09634542 -88.29 0.0001625345    1.091    0.083
        17  -8.5603    208.2581    172.6027   8.5907721341e+01   5.9819748902e+00    0.1312089    0.1105603 -66.82 0.0006963725    1.706    0.414
        18 -12.5079    125.2265    172.1721   1.0316594851e+02   2.2047420654e+01    0.7046553    0.3861046  55.44  0.003140934    1.976    0.494
        19 -10.0454    117.2146    161.9972   1.0318333537e+02   2.5613859717e+01    0.3386897    0.1796202  51.13  0.001486164    1.925    0.481
        20  -9.9556     15.9991    213.3536   1.2943308835e+02   2.8599780066e+01    0.1178252    0.0953583  54.47 0.0005152138    1.385    0.278
        21 -11.1982     96.7853    156.2801   1.0694733176e+02   3.0323187337e+01    0.2641727    0.2460961  67.44 0.0003103647    1.083    0.076
        22 -12.4162    101.1904    150.2475   1.0483633154e+02   3.0953229341e+01    0.6310371    0.4582757 -32.88  0.003169848    1.788    0.441
        23 -19.1589     34.3541    102.7174   1.1406508392e+02   5.0798910420e+01     17.01545    0.7076257 -64.31   0.02652765   17.264    0.942
        24 -11.4580    204.1412    200.0549   9.2014328476e+01   2.5124996504e+00    0.6046585      0.17798  35.43   0.00199558    3.861    0.741
        25 -11.1678    133.8739    145.4807   9.6057755322e+01   2.6067841797e+01     1.169867      0.30567 -54.51   0.00288175    5.717    0.825
        26 -10.4294    113.2990    151.4592   1.0215618610e+02   2.8602849311e+01    0.2977894    0.2090981 -85.23    0.0014112    1.801    0.445
        27  -9.7602    174.8617    149.1174   8.7605196012e+01   1.6908750454e+01    0.2214644      0.20725  81.22 0.0005644855    1.227    0.185
        28 -11.2520    193.5334    196.1174   9.3310307553e+01   5.0195883523e+00     1.040832    0.5569308 -62.91   0.00321128    6.359    0.843
        29 -11.6483    110.7506    136.9994   9.9898203486e+01   3.2290997545e+01     0.577692    0.3347894 -38.42  0.002187046    2.038    0.509
        30 -11.3562    106.0034    130.8951   9.9809772861e+01   3.4521651210e+01    0.4102376    0.3322263 -70.05  0.001174183    1.251    0.201
        31  -8.6207    117.2549    145.6788   1.0007589939e+02   2.9170804550e+01    0.1426932    0.1100566  89.34 0.0002580966    1.541    0.351
        32 -11.7629    100.1354    136.0013   1.0237197309e+02   3.4365637863e+01    0.2689618    0.2604156 -40.79 0.0003361033    1.137    0.120
        33 -10.2949    136.0000    129.9246   9.2061686495e+01   2.9006113811e+01    0.4190308   0.08527071 -46.52  0.001042929    4.858    0.794
        34 -10.5512    160.5978    127.4345   8.5646563899e+01   2.4292193488e+01    0.4059837    0.2599886 -54.39  0.001725256    1.774    0.436
        35 -10.5582    117.1962    128.2268   9.6355438833e+01   3.3083561967e+01    0.2894262    0.2475053 -19.21 0.0007536334    1.378    0.275
        36 -10.5292    105.2707    123.8474   9.8448809800e+01   3.6261642465e+01    0.2732582    0.2293303 -35.37 0.0006165368    1.275    0.215
        37 -10.0069    121.2112    122.8156   9.4068185873e+01   3.3525874233e+01    0.3115228    0.2155436  -9.83  0.001270116    2.393    0.582
        38  -9.8556    154.5644    121.3540   8.5513932737e+01   2.6871733513e+01    0.2886725    0.1939802  76.39 0.0009587242    2.404    0.584
        39  -9.6136    135.0000    119.9184   8.9874573729e+01   3.1382580049e+01    0.2569305   0.08591286 -45.46    0.0008002    2.927    0.658
        40  -9.7971    112.0612    117.9112   9.5271548614e+01   3.6373554778e+01    0.2490182    0.2126765  47.23 0.0004822393    1.225    0.184
        41  -9.8935    231.2569    113.8690   6.8169512273e+01   1.0940398905e+01    0.2554877     0.212109  36.96 0.0007291659    1.263    0.209
        42 -10.3071    168.2556    113.1941   8.0258555757e+01   2.5431741763e+01    0.3869996    0.2948872 -69.13  0.001053436    1.713    0.416
        43 -10.5753    134.3886    105.3856   8.6223113805e+01   3.4636167299e+01    0.4456353    0.1536196 -43.20  0.001419575    2.816    0.645
        44  -9.3782    187.0533    186.6761   9.2825272502e+01   7.7346473354e+00    0.2059231    0.1818092  59.21 0.0008952523    1.315    0.239
        45 -11.3259    119.2239    110.1848   9.1442420025e+01   3.6723897472e+01    0.5555928     0.337277  55.17  0.002349535    1.932    0.482
        46  -9.9020    205.5101    110.1624   7.1800609983e+01   1.7332856111e+01    0.2650591    0.2194659  45.42 0.0006247988    1.249    0.200
        47  -9.8905    223.0026    198.4750   8.8254914527e+01  -5.7389786692e-01    0.1906264    0.1554778 -11.75 0.0003473075    1.196    0.164
        48  -9.0780    127.8070     95.1556   8.5053140784e+01   3.8206206970e+01    0.2135463    0.1806659  -9.06 0.0004707159    1.322    0.244
        49 -10.1195     80.2558     75.8046   9.3132660594e+01   5.1242972008e+01    0.2116854    0.1943281  49.60 0.0004744033    1.273    0.214
        50  -9.2986    167.8886    248.6219   1.0611120477e+02   1.8295850403e+00    0.1665579    0.1436105 -25.12 0.0008777408    1.465    0.317
        51 -10.0019     61.3564    191.4741   1.1941191229e+02   2.7820133406e+01     0.350821     0.250263 -83.05  0.001874292    1.254    0.203
        52 -12.5922    185.7700     35.6734   5.3921291492e+01   3.4099667244e+01    0.6382053    0.5170335  17.40  0.001733017    1.426    0.299
        53  -9.4699     13.6561     59.9774   1.1220091070e+02   6.1975223869e+01    0.1710405    0.1188462 -57.74 0.0004327988    1.117    0.105
        54 -11.2211     66.0482    195.0213   1.1884333901e+02   2.6492895670e+01    0.2315013    0.1790905  78.22  0.000510781    1.083    0.077
        55 -12.3894     70.1552    193.2314   1.1783601133e+02   2.6311822067e+01    0.4631028    0.3057649 -53.60  0.001628716    1.783    0.439
