#   1 NUMBER                 Running object number                                     
#   2 MAG_AUTO               Kron-like elliptical aperture magnitude                    [mag]
#   3 X_IMAGE                Object position along x                                    [pixel]
#   4 Y_IMAGE                Object position along y                                    [pixel]
#   5 X_WORLD                Barycenter position along world x axis                     [deg]
#   6 Y_WORLD                Barycenter position along world y axis                     [deg]
#   7 A_WORLD                Profile RMS along major axis (world units)                 [deg]
#   8 B_WORLD                Profile RMS along minor axis (world units)                 [deg]
#   9 THETA_WORLD            Position angle (CCW/world-x)                               [deg]
#  10 FWHM_WORLD             FWHM assuming a gaussian core                              [deg]
#  11 ELONGATION             A_IMAGE/B_IMAGE                                           
#  12 ELLIPTICITY            1 - B_IMAGE/A_IMAGE                                       
         1 -11.2510    249.9912     13.7950   3.4596834768e+02   2.5405368285e+01    0.2285727    0.1389014 -19.10   0.00141547    2.421    0.587
         2 -11.0599     49.5162     14.1242   1.4740363150e+01   6.9807277880e+01    0.2957252    0.2133066  42.75 0.0008565236    1.272    0.214
         3 -10.5870     35.0805     13.8700   2.1974979052e+01   7.2724131608e+01    0.2259298    0.1951142  47.89 0.0004794885    1.165    0.142
         4 -11.3187     32.1953     10.2473   2.1365788880e+01   7.3770354640e+01    0.2309929    0.2032228  22.62 0.0006199915    1.042    0.041
         5 -11.6788    241.2274     10.4571   3.4569517815e+02   2.7238404370e+01    0.2091072     0.116685 -39.43  0.001384017    1.423    0.297
         6  -9.7674    218.7020      8.8961   3.4640201769e+02   3.1471765070e+01    0.1602781    0.1093302 -52.21 0.0005685227    1.099    0.090
         7 -11.5032    178.1098      7.9825   3.4855435562e+02   3.9869879778e+01    0.2618351     0.144546 -44.71  0.001481093    1.514    0.340
         8  -9.5756     69.4716      9.5397   4.9245693326e+00   6.5845506242e+01      0.13289    0.1167278  58.26 0.0001357384    1.032    0.031
         9 -10.0712     45.3252     12.0429   1.5439650680e+01   7.0951446653e+01    0.2410092    0.1717582  50.74 0.0007666312    1.273    0.214
        10  -8.9885    212.3360      8.3411   3.4660087361e+02   3.2750231849e+01   0.09923182     0.087497  39.00  0.000705073    1.760    0.432
        11 -11.0957    124.7243      7.1519   3.5324993379e+02   5.2488375837e+01    0.4210217    0.2084136 -84.63   0.00137405    2.141    0.533
        12 -10.5368     97.3513      6.3244   3.5699784209e+02   5.9363998239e+01    0.3877739    0.1587638 -45.47  0.001427091    2.561    0.610
        13 -11.3790     85.5737      7.3081   3.5974883217e+02   6.2182335737e+01    0.2539991    0.2364373 -66.09 0.0006499279    1.138    0.121
        14 -11.1815    237.4420      6.8092   3.4513528599e+02   2.8277092986e+01    0.1892517    0.1284641 -78.96 0.0009202394    1.350    0.259
        15  -9.3810     23.6707      5.2957   2.3521881126e+01   7.5975486747e+01     0.114823    0.0986709  76.52 0.0005604164    1.633    0.388
        16 -10.8199    174.4808      3.5368   3.4764903784e+02   4.1116085410e+01    0.2323966     0.110856 -29.65  0.001194094    2.114    0.527
        17  -9.4839     16.2948      4.6642   2.8724256412e+01   7.7268497515e+01    0.1111418   0.09868505  77.74 0.0003701797    1.646    0.392
        18 -11.3539    113.9350      1.8382   3.5270231787e+02   5.5642393499e+01    0.2926514    0.1688773  80.36 0.0007837908    1.529    0.346
        19  -9.8161     91.4931    116.4730   3.6239631173e+01   4.0468538215e+01    0.1542201    0.1498839 -89.75  0.000222013    1.012    0.012
        20  -9.4966     95.7562    111.6489   3.3740688933e+01   4.0846308827e+01    0.1535734    0.1195163 -27.16 0.0002787721    1.581    0.367
        21 -10.0400     79.3996    110.8058   3.8874214419e+01   4.4089261919e+01    0.2191372    0.1406257 -46.36 0.0007261087    1.616    0.381
        22 -11.2084    235.8486    107.3308   5.3625194460e+00   1.5536148075e+01    0.1931458    0.1118006  66.50  0.001097574    2.543    0.607
        23 -10.0097     12.8483    105.8634   6.4514254466e+01   5.4091002465e+01    0.1971144    0.1554562  65.70 0.0002614387    1.279    0.218
        24  -9.5282    102.7939    105.7705   3.0119825532e+01   4.0862769794e+01    0.2556917    0.1163536  52.22 0.0008869382    2.508    0.601
        25 -10.1846      1.7887    104.9810   6.9242817351e+01   5.5032441131e+01    0.2227502     0.168144 -53.05 0.0008229075    1.296    0.228
        26 -12.2595    246.4372    101.8321   3.1676638762e+00   1.4785504549e+01    0.3477098    0.1451551 -29.17  0.001617614    2.719    0.632
        27  -9.0971    108.2721    101.2794   2.7348064830e+01   4.0778805526e+01    0.1438873    0.1229456  -9.40 0.0001653701    1.493    0.330
        28 -11.1778     28.4254     99.2457   5.6597816432e+01   5.4540428581e+01    0.3850289    0.2150388 -31.04  0.001552336    2.293    0.564
        29 -10.5524    102.9675     95.7915   2.7400128734e+01   4.3121248055e+01    0.2958466    0.2168397 -45.12  0.001385504    1.383    0.277
        30  -9.9753     89.9203     94.1665   3.1013086198e+01   4.6164952303e+01    0.2351673    0.2057193  75.20 0.0005574108    1.191    0.160
        31 -11.2274     16.6882     93.2444   6.0963059433e+01   5.7259745990e+01    0.3733514    0.2568696 -61.08  0.001119221    1.345    0.257
        32 -11.1275    242.0000     92.4724   1.8223110798e+00   1.6770526421e+01    0.2644016   0.05126082 -37.66 0.0009323525    3.915    0.745
        33 -11.6564     64.0074     96.4697   4.0940618855e+01   5.0404651324e+01    0.5148523    0.3495477  18.88  0.001374634    1.807    0.447
        34  -9.7399    108.6843     90.3445   2.4220726729e+01   4.3116571635e+01    0.1605876    0.1186435 -86.76 0.0007048118    1.716    0.417
        35 -12.2157    249.0892     85.9814   3.5989507145e+02   1.6616448780e+01     0.534612     0.141396 -33.40  0.002011807    3.921    0.745
        36 -10.2106    232.3109     84.6670   1.2558099799e+00   1.9401641929e+01    0.1240817   0.07276717 -58.15 0.0003504636    1.676    0.403
        37  -9.4557    116.0036     83.9946   2.0404921902e+01   4.2857586515e+01    0.1827833      0.17157 -76.57 0.0003890757    1.011    0.011
        38 -12.0722     54.3727     78.7605   4.0032425522e+01   5.6418718715e+01    0.3305824    0.2942529  64.17 0.0004011766    1.178    0.151
        39 -10.3050    243.0000     78.9774   3.5909689824e+02   1.8507098501e+01    0.1975384   0.05072848 -37.20 0.0008047624    2.959    0.662
        40 -10.0371    143.3979     77.1765   1.2179762993e+01   3.8032325837e+01    0.2290189    0.1714943  70.67 0.0008025404    1.397    0.284
        41 -10.1626    151.9975     76.0016   1.0213570517e+01   3.6325717242e+01    0.1755663    0.1572385 -66.15 0.0005489244    1.003    0.003
        42 -10.6304    130.4651     74.4860   1.4132077034e+01   4.1456464329e+01    0.1472556      0.13685 -75.45 2.637423e-05    1.018    0.018
        43 -10.1715     64.1029     69.6441   3.2998521983e+01   5.6847550306e+01    0.2328627    0.1998462 -67.93 0.0006008202    1.229    0.186
        44  -9.8773      7.9577     68.7237   6.1161481838e+01   6.4401277612e+01    0.1840785    0.1771396   1.01 0.0005430962    1.093    0.085
        45 -11.1766    192.2024     65.7704   1.5751349572e+00   2.9459045260e+01     0.212056    0.1805046 -53.10 0.0002881526    1.069    0.064
        46  -9.7608     70.1781     66.6025   2.9514924935e+01   5.6346222380e+01    0.2053599    0.1402179  32.30 0.0004003613    1.609    0.379
        47 -11.2552    249.8408     62.8741   3.5539799206e+02   1.9595278903e+01    0.4049062    0.1081313 -39.64  0.001869452    2.517    0.603
        48 -12.2305    249.1227     54.9085   3.5391384961e+02   2.0730220001e+01    0.5941491    0.1877668 -43.36   0.00300987    2.126    0.530
        49  -9.8185    204.4138     65.2908   5.7660658767e-02   2.7139280236e+01    0.1807077   0.09461849 -46.79 0.0008125461    1.548    0.354
        50 -11.0511     99.8104     62.8958   1.8215434495e+01   5.0697430598e+01    0.4150862    0.2325417 -54.87  0.001529458    1.979    0.495
        51 -10.1530     75.3384     64.6895   2.6875994886e+01   5.5707215350e+01    0.2442914    0.1488957  50.81 0.0006541702    1.639    0.390
        52 -10.4496     78.2984     62.9671   2.5182533883e+01   5.5444086155e+01     0.224339    0.2146719  53.24 0.0002512296    1.040    0.039
        53 -10.3283      4.3646     63.8181   6.2315141532e+01   6.5876751980e+01    0.2405043    0.2117106 -56.04 0.0006470979    1.045    0.043
        54 -10.5580      2.6068     59.9296   6.2629090825e+01   6.6957398108e+01    0.2978992    0.1773096 -39.18 0.0008028075    1.614    0.380
        55 -10.3354    114.5772     60.9260   1.3642037915e+01   4.7622296933e+01    0.2332858    0.1958391  52.60 0.0003817026    1.228    0.186
        56 -11.7957    229.5312     59.0884   3.5628032671e+02   2.3433882313e+01    0.3891844    0.1921911 -60.42  0.002089109    2.016    0.504
        57 -10.0611    124.9566     59.7279   1.0864474087e+01   4.5380802392e+01    0.2011543    0.1789776  79.36 0.0003313545    1.074    0.069
        58 -10.5233     22.3112     57.9383   5.0089499653e+01   6.5865337534e+01    0.2193976    0.1836903  39.74   0.00044007    1.260    0.206
        59  -9.4405     14.5750     57.5316   5.4651210844e+01   6.6713169902e+01    0.1352064    0.1254411 -40.20 0.0001476263    1.010    0.010
        60  -9.3470    152.4864     56.5037   4.7250467387e+00   3.9462626696e+01    0.1399671    0.1242869 -70.57 0.0002248086    1.021    0.020
        61 -10.4860    119.9791     55.4909   1.0604932072e+01   4.7281853873e+01     0.226643    0.1998307 -34.32 0.0004130879    1.265    0.209
        62 -10.0050    123.6975     54.0800   9.3353803384e+00   4.6628272279e+01    0.2658779    0.1959527  64.59 0.0006830911    1.318    0.241
        63  -9.6758     78.6042     55.7048   2.2418587312e+01   5.6815591933e+01    0.2200756     0.175391  10.84 0.0006852493    1.685    0.407
        64  -9.3835     39.3917     54.1935   3.9149068334e+01   6.4512827493e+01    0.1824149    0.1358474 -67.19 0.0002863427    1.532    0.347
        65  -9.5447     88.5031     52.5711   1.7938301648e+01   5.5192423741e+01    0.1459408    0.1367787  71.49 0.0001101184    1.010    0.010
        66 -10.5546     16.2693     50.4085   5.1512000208e+01   6.8265978252e+01    0.3425888    0.1857264 -25.00  0.001488046    2.285    0.562
        67 -10.9924     94.0147     48.6201   1.4802388390e+01   5.4608708830e+01     0.248254    0.2085481 -46.59 0.0002310997    1.230    0.187
        68 -11.7976    248.6512     44.2616   3.5188596940e+02   2.2131568479e+01    0.3386379    0.1829307 -39.40  0.002165422    1.413    0.292
        69 -10.5295     39.1711     44.1392   3.5289930050e+01   6.6691167764e+01    0.2180501    0.1858306  -9.64  0.001113287    1.257    0.205
        70  -9.4758     31.6697     43.7039   3.9421721147e+01   6.7923073757e+01    0.1407527    0.1024436 -13.48 0.0004175477    1.636    0.389
        71 -10.3224    119.5399     40.6513   5.7350462997e+00   4.9722072290e+01    0.3349211    0.2223885  15.42  0.001199511    2.895    0.655
        72 -10.4137    225.0000     39.9979   3.5264051372e+02   2.6713724003e+01    0.1923847   0.05373947 -34.72 0.0005975711    2.934    0.659
        73 -10.5924    158.8452     39.1929   3.5889646641e+02   4.0525169236e+01    0.2231803    0.1827002 -67.71 0.0003492491    1.052    0.049
        74  -9.2849     96.0126     38.0159   1.0202504170e+01   5.5834014438e+01    0.1705101    0.1526084  72.75  0.000351499    1.034    0.033
        75 -11.1612    119.1810     35.0550   3.8754543392e+00   5.0605948765e+01    0.2324244    0.2021809  66.97 0.0002995531    1.139    0.122
        76 -10.5919     40.2334     35.6200   3.0886911869e+01   6.8184966627e+01    0.3292984    0.2082721  54.25  0.001132718    1.871    0.466
        77 -10.9320    241.6009     32.9300   3.5010177885e+02   2.4660959612e+01    0.2228713    0.1140618 -71.71  0.001332356    1.965    0.491
        78  -9.6792    178.1533     31.8308   3.5470922499e+02   3.7137349899e+01    0.1522653    0.1474163 -81.53 0.0002390828    1.291    0.225
        79  -9.6196    153.4944     32.0079   3.5752309305e+02   4.2720763807e+01    0.1868475    0.1220434 -39.54 0.0003534398    1.473    0.321
        80 -10.2982     48.7150     32.0465   2.4722708108e+01   6.7274877195e+01    0.1870616     0.176729  -5.77 0.0004080457    1.089    0.082
        81  -9.9795    167.5826     30.8844   3.5555381794e+02   3.9611990995e+01    0.2067103    0.1600255  72.79 0.0005463993    1.321    0.243
        82 -10.1694     92.6011     31.1236   8.3547787921e+00   5.7656329217e+01    0.2305517    0.1798234  75.24 0.0004477414    1.237    0.192
        83  -9.8689     17.7355     31.0754   4.3163651062e+01   7.2370929988e+01    0.1793406    0.1586794 -29.13 0.0004571647    1.082    0.076
        84  -9.9736      3.4393     31.2010   5.4347544407e+01   7.3705328559e+01    0.1596005    0.1222815 -79.37 0.0003210265    1.536    0.349
        85 -10.6866     59.2609     28.8648   1.8374042980e+01   6.5648025945e+01    0.2912303    0.2463517   4.58  0.001143673    1.375    0.273
        86  -9.4793    104.0001     28.2436   4.4929596763e+00   5.5259755632e+01     0.179355    0.1091361  66.02 0.0003676587    1.514    0.339
        87  -9.3971    160.6638     27.2800   3.5531552595e+02   4.1642468005e+01    0.1398537   0.08288989 -66.89 0.0003641297    1.616    0.381
        88 -10.6027     46.9854     26.9095   2.2982841425e+01   6.8464148590e+01     0.196135    0.1848005  38.25 0.0003733666    1.041    0.039
        89 -10.4086    110.7925     24.9342   1.8490288841e+00   5.4001606783e+01    0.2632392    0.1848659  78.48 0.0007032064    1.337    0.252
        90 -11.6473     98.4727     22.6052   3.4825780780e+00   5.7334750997e+01    0.2500055    0.2357431  89.81   0.00046311    1.071    0.067
        91  -9.8525     88.1940     24.3791   6.6880242322e+00   5.9626417727e+01    0.1904904    0.1230762  75.00 0.0004174755    1.577    0.366
        92  -9.5848     38.4870     22.5603   2.5147913803e+01   7.0771065670e+01    0.1312321    0.1199103  28.18 9.490711e-05    1.015    0.015
        93 -10.6366     66.5217     20.8460   1.1616422513e+01   6.5192747113e+01    0.2415468    0.1958602  89.98 0.0006707102    1.413    0.292
        94  -9.0156    159.3123     20.6727   3.5359017381e+02   4.2739843777e+01    0.1418275   0.07942558 -62.76 0.0002637551    1.666    0.400
        95  -9.8356     79.8014     20.2337   7.1291873581e+00   6.2167854784e+01    0.2377622    0.1325504 -67.67 0.0009351358    2.816    0.645
        96 -10.1192    109.2817     19.0346   3.5991250872e+02   5.5077917159e+01    0.1892511    0.1691007 -69.23 0.0005781324    1.097    0.088
        97  -9.7322     16.4864     18.4773   3.7668829084e+01   7.4958658082e+01    0.1276421    0.1115703  -1.16   0.00026851    1.038    0.037
        98  -9.9517     23.5933     16.7665   3.1255926436e+01   7.4240518456e+01    0.1999697    0.1607133  67.30  0.000901505    1.773    0.436
        99 -10.1193     19.8586     15.8319   3.3456065460e+01   7.4957884183e+01    0.2310714    0.1624845  24.79 0.0006641835    1.346    0.257
       100 -10.6396    248.0018    183.0254   1.7343598688e+01   3.0553662204e+00    0.1367816   0.09752274 -25.75  0.001014721    1.036    0.035
       101  -9.6568    183.6274     15.2557   3.5000567922e+02   3.7895530481e+01    0.1324467   0.07122661 -65.72 0.0004620118    1.646    0.393
       102 -10.0976     19.8575    174.6065   6.8391459609e+01   3.4754183461e+01    0.2169305    0.1014252  37.51 0.0009496741    1.850    0.459
       103  -9.6290    113.3034     14.2872   3.5743624838e+02   5.4600301978e+01     0.130596   0.09548911  45.05 0.0002720612    1.563    0.360
       104 -10.5189    224.0000    172.0316   1.8895890189e+01   7.3207499712e+00      0.19387   0.05426554 -40.61  0.000570624    2.942    0.660
       105 -10.6117     21.4090    170.3300   6.7612246188e+01   3.5726240133e+01    0.2618912    0.2099273  55.12 0.0005398833    1.118    0.105
       106  -9.6550     78.8207     11.6393   3.3768192420e+00   6.3390308440e+01    0.1928219    0.1166532  76.77 0.0009402647    1.679    0.405
       107  -9.5700     27.6846    159.3086   6.4713695747e+01   3.8058121749e+01     0.156774   0.09353265  57.27 0.0005124805    1.631    0.387
       108 -10.6753      3.0291    156.5378   7.2499038065e+01   4.0843718929e+01    0.2616614    0.1882556 -88.94 0.0004046972    1.276    0.216
       109  -9.6272     39.9964    147.5480   5.9344511550e+01   3.9951486874e+01    0.2151323    0.1421244  27.95 0.0003804794    1.512    0.338
       110 -10.7959     22.4415    141.8903   6.4805200355e+01   4.3295244096e+01    0.2750567    0.2283557  49.86 0.0006582107    1.152    0.132
       111 -11.3476    246.1992    137.6254   9.8113922295e+00   9.6620652474e+00    0.2254919   0.06734706 -40.72  0.001018894    2.534    0.605
       112  -9.6142     26.3581    134.3035   6.2567817843e+01   4.5030527024e+01    0.1539896    0.1052494 -36.33 0.0007038962    1.719    0.418
       113  -9.6419     11.2500    133.6461   6.8069652416e+01   4.6494315425e+01    0.1845477    0.1364969   1.97 0.0009355352    1.581    0.367
       114  -9.4435     17.5261    132.4230   6.5630867789e+01   4.6342064160e+01    0.1442436    0.1318491  76.05 8.234972e-05    1.015    0.015
       115 -11.6080    236.2625    129.9119   9.6144013813e+00   1.2107221505e+01    0.3287421    0.1536937 -27.78   0.00161488    2.352    0.575
       116 -10.1855     28.3130    138.1699   6.2306624303e+01   4.3768784037e+01    0.2277818    0.2030543   1.41 0.0005388968    1.276    0.217
       117 -11.2796    135.8857    123.9039   2.5780646333e+01   3.0192843756e+01    0.3674855    0.2139767  32.36  0.001544228    2.098    0.523
       118  -9.7087      2.1521    118.1574   7.0252212348e+01   5.1377856730e+01    0.2000395    0.1483056  59.12  0.000461293    1.316    0.240
       119  -9.6209     55.5402    117.5038   4.8965428251e+01   4.6183842839e+01    0.1528887    0.1464637  88.03 5.947086e-05    1.005    0.005
