#   1 NUMBER                 Running object number                                     
#   2 MAG_AUTO               Kron-like elliptical aperture magnitude                    [mag]
#   3 X_IMAGE                Object position along x                                    [pixel]
#   4 Y_IMAGE                Object position along y                                    [pixel]
#   5 X_WORLD                Barycenter position along world x axis                     [deg]
#   6 Y_WORLD                Barycenter position along world y axis                     [deg]
#   7 A_WORLD                Profile RMS along major axis (world units)                 [deg]
#   8 B_WORLD                Profile RMS along minor axis (world units)                 [deg]
#   9 THETA_WORLD            Position angle (CCW/world-x)                               [deg]
#  10 FWHM_WORLD             FWHM assuming a gaussian core                              [deg]
#  11 ELONGATION             A_IMAGE/B_IMAGE                                           
#  12 ELLIPTICITY            1 - B_IMAGE/A_IMAGE                                       
         1 -12.2879    220.8100     40.5726   3.1805321896e+01   2.5790322262e+01     1.181464    0.7566631  49.55  0.006386607    1.969    0.492
         2 -11.4921    245.3139     20.4778   2.5332888514e+01   2.3213874401e+01    0.6792564     0.452596 -52.78  0.002767265    1.177    0.150
         3  -9.7776      1.9287      3.8228   8.0597845660e+01   7.6124638106e+01    0.3593183     0.144729 -49.83  0.001862759    2.342    0.573
         4 -10.2511      1.7054     14.4822   8.6072014095e+01   7.4310425733e+01    0.3473456    0.1451433 -49.42   0.00172291    1.962    0.490
         5  -9.1951      8.1862      2.3996   7.5181032566e+01   7.5775096580e+01    0.1508582   0.09703736  32.53 0.0009570024    1.738    0.424
         6 -10.5236     83.0909    223.4143   9.7539930671e+01   1.7222127556e+01    0.2866546    0.1974395 -79.84  0.001684219    1.627    0.386
         7  -8.8219     81.4155    249.8443   1.0032627505e+02   1.2536181990e+01    0.2374353    0.1449527  34.34  0.001440633    1.421    0.296
         8 -11.5956     10.2642    231.3354   1.1324867740e+02   2.4133966227e+01     1.173635    0.4583955  69.30  0.003188954    2.343    0.573
         9 -12.8471     14.9532    246.4245   1.1298675638e+02   2.0805816314e+01     2.230761    0.8450468  29.85   0.01165877    2.605    0.616
        10 -12.2986     52.5191    238.5965   1.0525045752e+02   1.8179734911e+01     1.362689    0.6990282  27.40  0.007299892    2.108    0.526
        11 -10.5796     41.9830    215.9436   1.0583314656e+02   2.3932522983e+01    0.4898719    0.2124363  57.14 0.0007259863    2.126    0.530
        12 -10.0938     56.6708    169.5328   9.7877041564e+01   3.2674313212e+01    0.3210157    0.2584256 -45.94 0.0008697883    1.461    0.316
        13 -12.5632     10.2876    206.7363   1.1210622884e+02   2.9171077606e+01    0.9997094    0.9332944 -22.37  0.006380785    1.562    0.360
        14  -8.0974    110.8674    167.8757   8.3500427490e+01   2.4888381649e+01    0.2084612    0.1945757 -17.89  0.000437857    1.214    0.176
        15  -9.4027     83.2177    163.5399   8.9967447863e+01   3.0395083557e+01     0.335283    0.1740169 -66.13  0.001430717    2.002    0.500
        16  -9.4740     68.1449    160.4909   9.3585339192e+01   3.3343853621e+01    0.2690393    0.2507812 -17.30 0.0006337551    1.311    0.237
        17 -10.0425     72.6243    218.8033   9.9369159979e+01   1.9550691743e+01    0.3063433    0.1662615  50.81  0.001503426    1.617    0.382
        18 -11.6513     54.1684    156.4189   9.6885580457e+01   3.6209604713e+01    0.5195965    0.3467842 -33.65  0.001562896    2.077    0.518
        19  -9.0020     81.8649    213.5126   9.6778878644e+01   1.9382026901e+01    0.2437868    0.1754236 -88.20 -7.312705e-05    1.517    0.341
        20 -11.1785     54.5865    208.4075   1.0243056379e+02   2.4033223201e+01    0.9863451    0.3503062  54.74  0.003945323    2.943    0.660
        21 -11.7906     68.2362    144.6336   9.1112053624e+01   3.7266566021e+01    0.8692408    0.5620213  78.83  0.003198292    1.891    0.471
        22  -8.9997     92.5434    141.5285   8.3561554593e+01   3.4243595225e+01    0.3971692    0.2331776 -42.11  0.001678061    1.946    0.486
        23  -8.1777     96.3223    137.9994   8.1795026325e+01   3.4456129160e+01    0.3266882    0.2088527 -27.91  0.001325174    2.332    0.571
        24 -10.4516     80.2805    139.2888   8.6658926734e+01   3.6795414748e+01    0.3301703    0.2946435 -47.15 0.0005411947    1.188    0.158
        25 -11.0187     76.4517    154.5388   9.0386388446e+01   3.3605962008e+01    0.5989944    0.4975469 -11.67  0.001651441    1.592    0.372
        26  -9.0947    105.9392    130.6125   7.7529339352e+01   3.4507985995e+01    0.3418177    0.3039908 -11.84  0.001038511    1.327    0.247
        27 -11.1869     18.0663    200.8790   1.1008587153e+02   2.9703365974e+01    0.3806821    0.3273942 -32.40 0.0008307146    1.682    0.405
        28  -9.0230     92.4082    126.4547   8.0505391647e+01   3.7950390516e+01     0.289814    0.2581065  -2.21  0.001514954    1.338    0.253
        29  -8.2166    103.8678    119.1110   7.5488448010e+01   3.7631143005e+01    0.2225412    0.2043183  86.31 0.0004190383    1.121    0.108
        30 -10.1370     52.8182    116.8501   9.1007879630e+01   4.6393001502e+01    0.4431449    0.2412877 -67.80 0.0008840351    1.771    0.435
        31  -8.3574     78.2967    223.3427   9.8571768352e+01   1.7884269267e+01    0.1148728   0.09702513 -20.16 0.0003930276    1.666    0.400
        32 -10.1903      1.7669     88.7710   1.0478379240e+02   5.8047249834e+01    0.7634866    0.1207604 -73.98  0.002122783    5.528    0.819
        33 -10.5411      1.8146     72.1667   1.0221686496e+02   6.2035018032e+01    0.6376288    0.1180991 -70.02  0.002066144    4.178    0.761
        34  -8.2714      7.6455     76.3219   1.0043814126e+02   6.0728531235e+01    0.1287816   0.08864913  64.41 -2.395372e-05    1.758    0.431
        35  -9.1455     13.1685     60.2621   9.4575135891e+01   6.4119835674e+01    0.2283661    0.1415967 -52.45  0.000711594    1.339    0.253
        36 -10.0938      8.0847     59.0002   9.6710906647e+01   6.4742663472e+01    0.3759948    0.1957968  63.02  0.001610321    3.399    0.706
        37 -10.7177     73.7548    235.1398   1.0062379318e+02   1.6198900703e+01    0.3145542    0.2008166  35.11  0.001877895    1.404    0.288
        38 -11.5359    228.3394     34.1400   2.9621560737e+01   2.5018962618e+01    0.8124793    0.4339342  64.33  0.002870792    1.997    0.499
        39  -9.1624     18.7224     48.0342   8.8439301962e+01   6.6381080847e+01    0.2443094    0.1402419 -51.65  0.001057585    1.483    0.326
        40  -9.9913      2.3466     38.9426   9.4516772752e+01   6.9469660342e+01    0.2977896    0.1489782 -61.05  0.001357346    1.718    0.418
        41  -8.7807    121.5158     29.8317   4.3069424276e+01   5.0894454601e+01    0.2543099    0.1992733 -79.44 0.0008883522    1.452    0.312
        42  -9.6795      2.5950     27.2360   9.0596142465e+01   7.1841503469e+01    0.2228284    0.1225714 -47.83  0.001296214    1.462    0.316
        43 -12.2206     99.6964    228.9785   9.4560304345e+01   1.3850629160e+01     1.411949      0.28402  33.81  0.004438784    4.531    0.779
        44  -9.2963      9.3888     24.7831   8.5430740541e+01   7.1829831078e+01    0.1802736   0.08660146 -44.09 0.0007476214    1.721    0.419
        45 -13.9595     29.4807    191.3259   1.0682412202e+02   3.0688147950e+01     6.630942     2.513103  79.21   0.02470701    3.637    0.725
        46 -10.3530     49.9188    175.2031   1.0029471705e+02   3.2151422859e+01    0.4239932    0.2917302 -33.23  0.001659713    2.107    0.525
        47  -7.5035    189.3236     15.7055   2.8726479472e+01   3.5930250670e+01    0.1390212   0.08312269 -64.93 0.0007019215    1.619    0.382
