#   1 NUMBER                 Running object number                                     
#   2 MAG_AUTO               Kron-like elliptical aperture magnitude                    [mag]
#   3 X_IMAGE                Object position along x                                    [pixel]
#   4 Y_IMAGE                Object position along y                                    [pixel]
#   5 X_WORLD                Barycenter position along world x axis                     [deg]
#   6 Y_WORLD                Barycenter position along world y axis                     [deg]
#   7 A_WORLD                Profile RMS along major axis (world units)                 [deg]
#   8 B_WORLD                Profile RMS along minor axis (world units)                 [deg]
#   9 THETA_WORLD            Position angle (CCW/world-x)                               [deg]
#  10 FWHM_WORLD             FWHM assuming a gaussian core                              [deg]
#  11 ELONGATION             A_IMAGE/B_IMAGE                                           
#  12 ELLIPTICITY            1 - B_IMAGE/A_IMAGE                                       
         1  -8.9980     46.0298     20.8951   4.1728906851e+01   7.0847873361e+01    0.4632315    0.2068952 -36.63  0.001926571    2.407    0.585
         2  -9.0411    109.6442     25.0437   2.3431488573e+01   5.4664262430e+01    0.2513721     0.191419  77.07 0.0002921903    1.212    0.175
         3  -9.1906      8.8460     18.8687   6.9087079641e+01   7.7345562243e+01    0.3495318    0.2214915 -48.94  0.001035942    1.514    0.339
         4  -9.2082     64.0110     13.7243   2.9544468949e+01   6.7692652206e+01    0.4558542    0.2389871  50.46  0.001289262    1.773    0.436
         5  -9.5793     79.2558     12.5150   2.4349812869e+01   6.4007094853e+01    0.4556895    0.2582051  74.41  0.001517208    1.704    0.413
         6  -8.7425     74.4455     13.4756   2.6146080566e+01   6.5124258769e+01    0.2887504    0.2551319  42.33  0.001000707    1.197    0.165
         7  -8.3717     96.2160     12.5343   2.0631333484e+01   5.9612694579e+01    0.3876746     0.174098  45.69  0.001236051    2.632    0.620
         8  -8.5279     88.0201     12.6602   2.2359629276e+01   6.1732365145e+01    0.2893498    0.1826537  42.64 0.0008851232    1.788    0.441
         9  -9.8262     31.8616     10.7218   4.3205803014e+01   7.5290732006e+01    0.3061596     0.221905  28.99 0.0003242725    1.419    0.295
        10  -6.9963    107.0000     10.9784   1.8092743638e+01   5.6955268137e+01    0.2157996   0.07870498 -24.93 0.0008071098    2.975    0.664
        11  -9.7233     20.3290      8.2431   5.0225431892e+01   7.7783363677e+01    0.3132106    0.2403466  24.71 0.0006845508    1.259    0.205
        12  -8.6672    142.8043      9.1685   1.3109058728e+01   4.7960431491e+01    0.2247497    0.1685515  79.53 0.0003205818    1.263    0.208
        13  -8.8833      3.4736      7.0134   6.7644490894e+01   8.0302605927e+01     0.467589     0.225343 -18.93  0.001867486    3.330    0.700
        14 -10.3377     13.5735      4.2660   5.3339930765e+01   7.9514485972e+01    0.3508915    0.2764837  -3.92 0.0001871204    1.330    0.248
        15  -7.7828    131.7766      5.0341   1.2731519501e+01   5.1130357615e+01    0.5073944   0.08209497 -45.54  0.001547749    4.412    0.773
        16  -7.6057    134.2878      2.6853   1.1672240724e+01   5.0710068060e+01    0.1780861    0.1030736  82.80 0.0003191689    1.553    0.356
        17  -9.5956     76.7300      6.4376   2.1740279909e+01   6.5276766151e+01    0.2498758    0.2160639  55.44 0.0002465945    1.141    0.123
        18  -8.5284     41.4380      5.2778   3.3328934304e+01   7.3984959528e+01    0.3258203    0.2082937   8.06 0.0009386467    2.222    0.550
        19 -10.3778     84.9937      5.0617   1.9224607741e+01   6.3269575300e+01    0.2549588    0.2480824  69.15 0.0003587799    1.135    0.119
        20  -9.9668     49.0749      4.0291   2.8901036461e+01   7.2366112639e+01     0.276081    0.2149834  40.83 0.0002911088    1.248    0.199
        21  -7.5800    179.6151      5.2502   9.2776671956e+00   3.9653263381e+01    0.1501015    0.1120115 -26.57 0.0002746215    1.488    0.328
        22  -7.8198     91.6273      5.1698   1.8037283489e+01   6.1531361686e+01    0.2012689    0.1593554  89.60  0.001133671    1.141    0.123
        23  -8.8439    110.6971      2.9673   1.4239062690e+01   5.6743535569e+01    0.3589442    0.1563171 -39.35   0.00158842    2.145    0.534
        24  -8.4927     57.9725      3.4236   2.5196739897e+01   7.0283809800e+01    0.4283549    0.1624144  50.02  0.001729849    2.391    0.582
        25  -8.2890    153.6707      2.8999   1.0221759933e+01   4.5904295358e+01    0.1974409    0.1577553  83.05 0.0002876736    1.231    0.188
        26  -8.1832    125.5475      3.0271   1.2614825887e+01   5.2900833605e+01    0.1963157    0.1606255 -86.06 0.0003843075    1.061    0.058
        27  -7.7558     30.8383      1.8400   3.6582399847e+01   7.6683303010e+01    0.1639265    0.1493446  88.95 0.0003558504    1.304    0.233
        28  -7.7285    105.4823      1.5048   1.4281243431e+01   5.8227915787e+01    0.1376769    0.1172033 -83.20 0.0001748457    1.016    0.016
        29  -7.8328    124.1879    106.7581   4.7004451843e+01   3.6242650576e+01    0.2082799    0.1836874  -7.10  0.001059026    1.386    0.278
        30  -9.7540    214.5097    249.5094   5.4766074920e+01  -1.2011192653e+00    0.2357149    0.1468272  33.76  0.001707643    2.096    0.523
        31 -10.9541    184.1188    249.4166   5.9789310944e+01   1.5355412391e+00    0.5565346     0.159817  25.63  0.002657294    3.056    0.673
        32  -8.4417     66.4824    104.4969   6.4769698557e+01   4.8106459134e+01    0.2795139    0.1598058  19.55  0.001024851    2.396    0.583
        33  -7.5340     93.9652    102.7822   5.4617004299e+01   4.3403779515e+01    0.2092695    0.1281911  41.69 0.0008621986    1.651    0.394
        34  -7.7003     65.1402    100.6240   6.4346976242e+01   4.9364174831e+01     0.220398    0.1533834  21.67 0.0009431254    1.699    0.412
        35 -10.1818    241.8823     96.8762   2.5354498807e+01   1.6222869582e+01    0.3442347    0.1442629 -51.95  0.001665983    2.599    0.615
        36  -8.2534     11.0238     95.0231   8.7680265027e+01   5.7562504394e+01      0.17581     0.163783  26.84 0.0006141523    1.142    0.124
        37  -7.8579     51.7037     93.9635   6.8274284763e+01   5.3330126120e+01    0.2180568     0.199529 -77.96 0.0004142982    1.063    0.060
        38  -8.8324    250.0000     94.9784   2.4196672770e+01   1.5310725590e+01    0.1957183   0.04825897 -35.80 0.0008045743    2.957    0.662
        39  -8.1395     43.7824     91.6387   7.1272051902e+01   5.5120579516e+01    0.3262062    0.2543231 -12.79   0.00153073    1.603    0.376
        40  -8.3720     96.2580     90.3600   5.0408309662e+01   4.5884833138e+01     0.340412    0.2704794  -5.41  0.001524499    1.837    0.456
        41  -7.5427    109.6659     90.6540   4.6481602554e+01   4.2909534744e+01    0.1570646    0.1272692  -2.93 0.0004537739    1.768    0.434
        42  -8.5386     21.8318     90.3615   8.1624558320e+01   5.8022262890e+01    0.2603436    0.2007127   3.00  0.001292433    1.466    0.318
        43  -7.3424      1.5106     89.4762   9.1850306619e+01   5.9676301541e+01    0.1427089    0.1309538 -83.81 0.0008101021    1.008    0.008
        44  -7.7568     65.5417     84.9451   5.9940709556e+01   5.3364389240e+01    0.2335274    0.1244825 -36.09  0.000809033    2.638    0.621
        45  -9.9605     37.9156     80.5461   7.1385476541e+01   5.8931700331e+01    0.7536418    0.4277835  -7.25  0.002634139    3.161    0.684
        46  -8.7678     21.1886     84.0311   8.0825617978e+01   5.9856203091e+01    0.2611288    0.1900242 -11.94 0.0006085149    1.617    0.382
        47  -7.7239    126.7741     83.1631   3.9844486761e+01   4.0649005808e+01    0.2028264    0.1858303   7.66  0.001062838    1.362    0.266
        48  -9.7371    241.9815     78.9585   2.1760670616e+01   1.8635574553e+01    0.2952021   0.09160568 -44.52   0.00136391    2.406    0.584
        49  -8.4026    249.7495     78.9899   2.1096607778e+01   1.7455746684e+01    0.1593538   0.07244831 -36.25 0.0008949708    1.607    0.378
        50  -8.9798     88.0539     77.9812   4.9276440428e+01   5.0493452543e+01    0.3791106    0.3028442  13.78 0.0007266761    1.726    0.421
        51  -9.8948      7.1540     77.9767   8.7491717092e+01   6.2601137527e+01    0.5340561    0.2839964 -35.63  0.001190388    2.067    0.516
        52  -8.3114     13.5960     73.6889   8.3104550388e+01   6.3354977278e+01    0.4671141    0.2446657 -33.35  0.001923092    2.217    0.549
        53  -7.9467    184.3309     77.9171   2.7911083932e+01   2.9042535719e+01    0.1927805    0.1457729 -41.75 0.0005134684    1.155    0.134
        54  -7.3953    119.3414     76.2949   3.9576946007e+01   4.3734878729e+01    0.1488533    0.1238376  15.33   0.00070306    1.659    0.397
        55  -8.7250     51.2014     76.1196   6.3621858518e+01   5.8113905883e+01    0.6717191     0.196257  30.63  0.001873426    4.044    0.753
        56  -8.9649     29.8549     67.8609   7.2314755997e+01   6.3328560670e+01    0.7577292    0.3736829 -11.17   0.00216553    4.940    0.798
        57  -9.2689     23.5317     73.4473   7.7346198803e+01   6.2541655034e+01    0.5665959    0.1618758 -53.65  0.001843121    3.046    0.672
        58  -8.2027     23.3895     69.1909   7.6408792618e+01   6.3701505442e+01    0.2805081    0.1970675 -66.12 0.0004576078    1.365    0.267
        59  -8.0938     74.9333     74.0759   5.2743634003e+01   5.4175217276e+01    0.2322603    0.2243466  65.38 0.0004532479    1.044    0.042
        60  -7.4543    116.4029     67.8254   3.7604471831e+01   4.6082223592e+01    0.2055686    0.1459687 -32.40 0.0009374978    1.597    0.374
        61  -8.1377    106.0778     67.1938   4.0100832749e+01   4.8664570453e+01    0.3039962    0.2075499 -13.26  0.001192148    2.570    0.611
        62  -8.7190     83.5526     63.7537   4.5912954733e+01   5.4600708916e+01    0.3763604    0.2810681 -18.61  0.001303259    1.902    0.474
        63  -8.7172     17.4331     62.3875   7.8342906556e+01   6.6084905232e+01    0.6684164    0.3258778 -13.67  0.002398018    3.173    0.685
        64  -7.2379    136.5323     62.4384   3.1436091086e+01   4.2233418882e+01    0.1498629    0.1316861 -71.74 0.0001848606    1.039    0.038
        65 -10.2436     62.1697     60.9486   5.3331813226e+01   5.9773268278e+01    0.4617715    0.3177993  28.26 0.0003941645    1.712    0.416
        66  -8.8173     52.7956     60.1433   5.7415141749e+01   6.1746093382e+01    0.3107601    0.2130413  55.86  0.001098758    1.604    0.376
        67  -8.5701     49.8120     58.1518   5.8151833226e+01   6.2745986069e+01     0.234289    0.2025014 -25.31 0.0005534433    1.294    0.227
        68  -9.1076     35.9917     59.2005   6.6065568128e+01   6.4724192361e+01    0.3997829    0.2742649  30.19  0.001915914    1.472    0.321
        69  -9.3040    249.0120     65.0318   1.8385429449e+01   1.9358149621e+01    0.1873759     0.133461 -45.95  0.001342654    1.037    0.036
        70  -8.7784     99.7397     55.1983   3.7602531484e+01   5.2481245435e+01    0.2935198    0.2568776  -3.33 0.0003519716    1.487    0.328
        71  -9.3960     75.3089     49.7783   4.3414017521e+01   5.9294713190e+01    0.3977007    0.3192669  -3.62  0.001129021    1.733    0.423
        72  -7.4633    118.7649     50.6398   3.1204005458e+01   4.8577685447e+01    0.2033767    0.1349925  75.19 0.0005208636    1.568    0.362
        73  -8.9422    106.6623     48.1366   3.3115956042e+01   5.2017528879e+01    0.2904361    0.2367896  33.61 0.0005102919    1.523    0.343
        74  -8.8082     45.5779     48.2968   5.6376108556e+01   6.5728803576e+01    0.2832985    0.2333029   9.69 0.0002352931    1.415    0.293
        75  -8.8419     10.2850     46.9933   7.9171877661e+01   7.0654090588e+01    0.4428771    0.1992127 -58.47  0.001381536    1.971    0.493
        76  -9.4378     14.6358     44.1916   7.5006803560e+01   7.0981436785e+01    0.5211034    0.2548191 -41.83  0.001595454    2.091    0.522
        77  -8.8472    246.7906     47.5932   1.5028310765e+01   2.1861246302e+01    0.1442642   0.09018996 -74.56 0.0005370409    1.729    0.422
        78  -8.9231      4.6320     45.5403   8.3121700179e+01   7.1402683264e+01    0.4556444    0.2140675  33.57   0.00200399    2.182    0.542
        79  -9.0463     57.4965     41.3067   4.7097323329e+01   6.4846731812e+01    0.4124413    0.2697448   4.81  0.001544506    3.144    0.682
        80  -7.3726     32.9736     43.0000   6.1567198189e+01   6.8994469331e+01     0.235712   0.07924871  33.48 0.0008027493    2.945    0.660
        81  -8.7664     95.0073     41.4709   3.3545995255e+01   5.6035556404e+01    0.2857552    0.1439979  64.76 0.0008745592    2.022    0.505
        82  -9.3541     84.2594     39.3474   3.5813925576e+01   5.9044482102e+01    0.6379627    0.2360144  44.99  0.002098589    3.166    0.684
        83  -8.5797      3.6240     39.2308   8.2282078826e+01   7.3042001969e+01    0.3050527    0.1173893 -69.66  0.001228286    2.437    0.590
        84  -9.0371      3.2395     24.7222   7.7732516117e+01   7.6530175336e+01    0.3387261    0.1932015 -51.33 0.0003674725    1.593    0.372
        85 -10.0633      5.1176     33.6178   7.9253606462e+01   7.4315551353e+01    0.7801331    0.3088018  17.85  0.003254293    2.495    0.599
        86  -8.7686      1.3771     28.8071   8.1113684111e+01   7.5695103839e+01    0.2972049    0.1678277 -74.11   0.00146323    1.844    0.458
        87  -8.1376    125.0315     38.4123   2.5624417893e+01   4.8899107356e+01    0.3809935    0.1787202  46.79    0.0012519    2.668    0.625
        88  -9.6703     68.2818     36.8521   4.0302768190e+01   6.3275402249e+01    0.4841383    0.3149021  37.41  0.001428402    1.736    0.424
        89  -7.6959     53.2286     37.9684   4.7534450802e+01   6.6374487696e+01    0.1921953    0.1710482   0.46            0    1.283    0.221
        90  -9.1151     55.9758     35.0726   4.4738124554e+01   6.6333416102e+01    0.2854563    0.2040282  42.94 0.0005858042    1.365    0.267
        91  -8.7791     35.5092     37.0545   5.7136426850e+01   6.9880197133e+01     0.333958    0.2238882 -39.70  0.001564833    1.564    0.361
        92  -8.1424     38.5308     34.9884   5.4180611452e+01   6.9784855154e+01    0.2290394    0.1879966  11.82 0.0005530922    1.359    0.264
        93  -8.3572    105.3344     36.4027   2.8888987456e+01   5.4212793965e+01    0.3002351    0.2211571  34.82  0.001254235    1.742    0.426
        94  -8.4663     92.0270     36.6594   3.2349059254e+01   5.7548260879e+01    0.2139114    0.1795308  70.17  0.000461234    1.119    0.107
        95  -9.1359     95.9124     32.4926   2.9538547093e+01   5.7191369872e+01    0.4166052    0.2666639  83.06  0.001347594    1.733    0.423
        96  -9.4991     22.0475     31.8597   6.4113925382e+01   7.3010094140e+01    0.4083205    0.2362033  28.34  0.000268855    1.708    0.415
        97  -9.1072     70.9826     29.9411   3.5880054731e+01   6.3771138686e+01    0.3108122    0.2275549  63.43  0.001035618    1.312    0.238
        98  -9.6620     69.6660     25.5220   3.4089818464e+01   6.4751119240e+01    0.4240026    0.2980174  67.30  0.001394257    1.399    0.285
        99  -8.8843     42.2729     27.5860   4.7858174018e+01   7.0493641376e+01    0.2732289    0.2236739  -0.75 -0.0001541599    1.452    0.311
       100  -9.7475    192.0151    250.2383   5.8533750899e+01   6.9877025150e-01    0.1958664      0.12851  15.29  0.001178979    1.243    0.196
       101  -7.3127    152.5668     26.9587   1.7815013290e+01   4.3569787560e+01    0.1712254    0.1194657   8.49 0.0007377656    2.437    0.590
       102  -8.4490     61.8701     26.7126   3.7709732700e+01   6.6418916994e+01    0.2138116    0.1969332   1.69 0.0003669355    1.224    0.183
       103  -8.4216     25.2850     25.4592   5.8105179626e+01   7.3879419500e+01    0.2857537     0.146998 -37.97  0.001257735    2.157    0.536
       104  -8.3062    100.0069    250.4611   7.6451783014e+01   1.0030263754e+01    0.1655432    0.1148051  24.44  0.001076263    1.129    0.115
       105 -10.0196    128.9288     21.9282   1.9108301805e+01   5.0073182645e+01    0.2462276    0.2200292 -89.84 0.0002912368    1.088    0.081
       106  -8.8587    166.9715     21.0080   1.4584759675e+01   4.0852528550e+01    0.1963304    0.1600757 -62.27            0    1.018    0.017
       107  -8.1537     92.3967     20.4977   2.5073531532e+01   5.9700505119e+01    0.2917052    0.1637791  42.17  0.001121962    2.133    0.531
       108  -8.7548     27.9382     20.5047   5.3000818137e+01   7.4395294315e+01    0.3550458    0.1268862  37.18  0.001334834    2.785    0.641
       109  -7.7811    109.0677    106.0128   5.0891947376e+01   3.9553016918e+01    0.2392531    0.1959791  -7.40 0.0008971053    1.649    0.394
       110  -9.1582     12.9974     17.7895   6.4224019534e+01   7.7105297104e+01    0.4413691     0.236169  11.07  0.001960651    2.393    0.582
       111  -7.1946    172.2816     19.3081   1.3651040163e+01   3.9820912580e+01    0.1132571    0.1004593  36.29 0.0002517599    1.562    0.360
       112  -7.3043    146.6969     18.7004   1.5842807511e+01   4.5980816875e+01    0.1258403    0.1017791  43.80  0.000290337    1.587    0.370
       113 -10.9191     80.7025     22.9783   2.9262532241e+01   6.2374510100e+01    0.5831574    0.2673633  49.26  0.001135583    2.177    0.541
       114  -8.0317    127.6388     16.1472   1.7194505287e+01   5.1061891502e+01    0.1852804    0.1615284 -53.51 0.0005580796    1.137    0.120
       115  -8.9498    247.3995    246.8067   4.9552874070e+01  -3.5377681407e+00     0.136347    0.0621334 -24.14  0.000956187    1.715    0.417
       116  -6.9664    131.2861    247.3640   6.9562015670e+01   7.1710976528e+00     0.116731   0.07556465 -10.33 0.0003320999    1.692    0.409
       117  -8.9202     14.2849    105.4199   8.7363199627e+01   5.4364186359e+01     0.328295    0.2053157 -41.74  0.001327232    1.759    0.432
       118  -7.7338    147.0612     14.2643   1.4372314804e+01   4.6378892334e+01     0.193483    0.1444969 -83.74  0.001102317    1.186    0.157
       119  -7.5891     85.1852    245.3323   7.9255513753e+01   1.2483031958e+01    0.1959095   0.09004661 -61.09  0.001019432    2.644    0.622
       120  -9.6564    187.9341    233.5545   5.7053933678e+01   3.2310253595e+00    0.1893165    0.1463474 -29.81 0.0007560576    1.373    0.272
       121  -7.4938     26.9878    220.5027   9.1442454385e+01   2.3309377635e+01    0.1620091    0.1014641 -10.08 0.0008071515    2.342    0.573
       122  -6.9647     63.6867    211.3103   8.1461989933e+01   2.1475803280e+01    0.1406654   0.08367357  52.14 0.0003136249    1.630    0.386
       123  -8.3195    115.5024    200.8307   6.7336608566e+01   1.7164921395e+01    0.2180869    0.1687446  25.44 0.0004672988    1.156    0.135
       124  -7.4871    121.5480    198.4206   6.5575376762e+01   1.6828959424e+01    0.1316535     0.115433  10.75 5.423008e-05    1.045    0.043
       125  -7.3424    165.4675    197.4884   5.5959857971e+01   1.1189535520e+01    0.1239081    0.1041889  -4.49  0.000137823    1.019    0.019
       126  -8.1741     68.2542    145.0139   7.2146584044e+01   3.6957540111e+01    0.2851856     0.236421 -69.18   0.00144074    1.221    0.181
       127  -7.9119     65.5238    143.4358   7.2794758583e+01   3.7774384727e+01    0.2378294    0.2012929 -58.66 0.0005448647    1.221    0.181
       128  -8.5470    243.5752    144.2154   3.4114471616e+01   9.4354079448e+00    0.1652901   0.08253349 -28.86 0.0007761739    1.681    0.405
       129  -7.8180     55.5027    135.0475   7.4901663859e+01   4.1460186829e+01    0.2266349    0.1486444 -67.64 0.0004198567    1.514    0.339
       130  -9.8096     39.6720    126.3329   7.9452110865e+01   4.5915498931e+01    0.3254407    0.2545126  67.36 0.0003185885    1.260    0.206
       131  -7.4972     84.7782    121.4075   6.2157435670e+01   4.0469929369e+01    0.2180713    0.1531544  22.61 0.0009417476    1.682    0.406
       132  -7.3821     77.7558    121.3164   6.4497822523e+01   4.1722049693e+01    0.1558855    0.1181121  78.23 0.0002801493    1.516    0.340
       133  -7.7467     12.2296    120.9814   8.9810597411e+01   5.0067262582e+01    0.1959061    0.1144649 -81.98 0.0006048036    1.602    0.376
       134  -7.3355     91.2460    119.0480   5.9525262562e+01   3.9894768572e+01    0.1929076    0.1313424 -55.18  0.000265209    1.458    0.314
       135  -9.2419    249.7581    114.4112   2.7927382495e+01   1.2727459278e+01     0.223834    0.1002595 -42.41 0.0009235437    1.725    0.420
       136  -7.4064    142.5365    111.4749   4.3830309923e+01   3.1467707782e+01    0.1464149    0.1378661 -42.52 3.475837e-05    1.054    0.051
       137  -8.2131      1.4036    110.7574   9.3585257324e+01   5.3653533505e+01    0.2129124    0.1182811 -69.19  0.000950507    1.662    0.398
       138  -8.3192     20.5214    114.5041   8.5675150347e+01   5.1257826628e+01    0.1522997    0.1357424  71.58 2.187325e-06    1.050    0.048
       139  -7.6517    133.3992    106.3845   4.4647136750e+01   3.4402616206e+01    0.2961512    0.1304501 -33.36 0.0009455646    3.302    0.697
