#   1 NUMBER                 Running object number                                     
#   2 MAG_AUTO               Kron-like elliptical aperture magnitude                    [mag]
#   3 X_IMAGE                Object position along x                                    [pixel]
#   4 Y_IMAGE                Object position along y                                    [pixel]
#   5 X_WORLD                Barycenter position along world x axis                     [deg]
#   6 Y_WORLD                Barycenter position along world y axis                     [deg]
#   7 A_WORLD                Profile RMS along major axis (world units)                 [deg]
#   8 B_WORLD                Profile RMS along minor axis (world units)                 [deg]
#   9 THETA_WORLD            Position angle (CCW/world-x)                               [deg]
#  10 FWHM_WORLD             FWHM assuming a gaussian core                              [deg]
#  11 ELONGATION             A_IMAGE/B_IMAGE                                           
#  12 ELLIPTICITY            1 - B_IMAGE/A_IMAGE                                       
         1 -15.3329    241.3424     13.4585   3.3311628213e+01   2.4548809186e+01     2.829443     1.233127 -42.99    0.0146428    1.738    0.425
         2 -13.2811     11.3338     24.1825   9.7920337896e+01   7.3238988660e+01    0.6929904    0.3297806 -31.20   0.00324365    2.263    0.558
         3 -12.1836     13.0219     13.0203   9.1333462198e+01   7.5431175411e+01    0.3465917    0.2262819 -29.42  0.001519045    1.421    0.296
         4 -13.1077      5.6839     11.6882   9.6654505703e+01   7.6305771627e+01    0.8944124    0.4109473 -39.48  0.004520923    1.897    0.473
         5 -12.1785      8.5756      2.0204   8.8393516612e+01   7.7952937263e+01    0.8276449    0.2109269  26.84  0.003178598    4.121    0.757
         6 -12.3915     15.2569      7.1733   8.6054918048e+01   7.6326798135e+01    0.5042083    0.2961608  -4.27  0.002575161    2.182    0.542
         7 -13.0981     24.1964      4.4259   7.7262857458e+01   7.5696412157e+01    0.6119147    0.3606352  21.17  0.003250608    1.884    0.469
         8 -12.3465     19.2455     14.5472   8.7417978451e+01   7.4501435237e+01    0.3802051    0.2210241 -25.52  0.001958864    1.851    0.460
         9 -12.5769    153.6248      3.2753   3.7268270979e+01   4.6071684280e+01    0.4598941    0.2251375 -63.33  0.001919115    2.310    0.567
        10 -10.8535    119.1738      3.3814   4.1838180520e+01   5.5044142007e+01     0.205309    0.1264253  87.00 0.0009532296    1.746    0.427
        11 -11.4750     40.8089      2.7732   6.5469500137e+01   7.3267100803e+01    0.3191366    0.1813672  26.30  0.001559041    2.006    0.502
        12  -9.7602     53.5157      1.5296   5.8384303694e+01   7.0959603207e+01    0.1303454    0.1172814  15.15 0.0001985838    1.017    0.017
        13 -12.7248    174.3354      3.1440   3.5236821933e+01   4.0809402481e+01     0.473477    0.2325908 -74.00  0.002043419    2.259    0.557
        14 -11.9134     15.7818    240.3684   1.2113199020e+02   2.2759178672e+01    0.5315136    0.1461051  43.51  0.002662337    2.191    0.544
        15 -12.1215    248.8311    225.2094   7.6104410770e+01  -3.0816959787e+00    0.3741486    0.2362733   2.38  0.002483894    1.248    0.199
        16 -12.6049    234.3949    244.4599   8.1084654442e+01  -3.4524571641e+00    0.5035655     0.246748  -8.31  0.003040485    2.313    0.568
        17 -12.9861    242.9852    235.1871   7.8458367242e+01  -3.4555110914e+00      1.26197    0.4577193 -15.52  0.004744695    6.031    0.834
        18 -12.3121    243.0763    245.8672   7.9957082896e+01  -4.5072465950e+00    0.4974125    0.2459907 -11.39  0.003229207    2.035    0.508
        19 -11.8989    247.6451    239.1427   7.8326780416e+01  -4.3391561149e+00    0.3819367     0.197883 -14.62  0.001600237    1.764    0.433
        20 -11.4059    249.8892    233.0090   7.7105986029e+01  -3.9776277994e+00    0.3088459    0.1624224 -19.70    0.0016615    1.678    0.404
        21 -11.1614    248.9680    250.1707   7.9672229805e+01  -5.5109446919e+00    0.3339558    0.1318731  25.91  0.002092198    2.078    0.519
        22 -11.0559    248.9769    245.2197   7.8986836444e+01  -5.0542015067e+00    0.2700942    0.1595362 -10.53  0.002047737    1.410    0.291
        23 -12.1856    225.9974    248.4166   8.2933008526e+01  -2.9372712443e+00     0.309027     0.191329  12.18  0.001770977    1.236    0.191
        24 -12.8280    212.9795    247.7689   8.4927860060e+01  -1.4241811833e+00    0.4971056    0.2416264  13.56  0.002916076    2.155    0.536
        25 -11.3666    203.3242    249.2260   8.6705404192e+01  -4.7566160017e-01    0.2319785    0.1256055  11.88   0.00146107    1.804    0.446
        26 -11.4077    169.0198    250.4615   9.2758726259e+01   3.4718061481e+00    0.2936663   0.08340983  33.56  0.001360507    2.736    0.634
        27 -10.7154     87.5017    250.5030   1.0795951693e+02   1.3476588664e+01    0.2405695   0.08522705  32.90  0.001217319    2.189    0.543
        28 -11.0303     74.5299    250.4967   1.1043869092e+02   1.4982038886e+01    0.3098254   0.06621748  35.76  0.001340649    3.000    0.667
        29 -11.5889     64.9241    249.0260   1.1217949617e+02   1.6298348335e+01    0.3874429    0.1623617  40.64  0.002253712    1.693    0.409
        30 -11.0780     50.6434    250.1405   1.1495872967e+02   1.7668945368e+01    0.4011815    0.1043056  34.42   0.00192716    2.635    0.620
        31 -11.5921     36.6602    248.6263   1.1751865265e+02   1.9358850971e+01    0.4190482    0.1587017  48.38    0.0024443    1.854    0.461
        32 -11.4770     20.1250    249.1123   1.2060459131e+02   2.0878396695e+01     0.335832    0.1529501  44.28  0.001853564    1.493    0.330
        33 -11.3942     11.9670    249.0360   1.2208983769e+02   2.1636253764e+01    0.3512752    0.1337932  44.50  0.001746673    1.700    0.412
        34 -10.9249      3.5025    250.2125   1.2363916065e+02   2.2183309034e+01    0.2743733    0.1692249  15.71  0.001881906    2.227    0.551
        35 -11.9550      3.2327    243.0870   1.2353058575e+02   2.3401232701e+01    0.3995536    0.1710423  59.65  0.002021203    1.712    0.416
        36 -12.5544    226.2740    240.9002   8.1859532882e+01  -2.2019887902e+00    0.2997022    0.1641388   4.47  0.001914848    1.797    0.443
        37 -11.5387    107.4474    240.1257   1.0320887049e+02   1.2650503351e+01    0.3510594    0.1245247  43.48  0.001706597    2.312    0.568
        38 -11.4451     72.2282    240.2481   1.1017580979e+02   1.6901966609e+01    0.3110425    0.1362646  45.93  0.001749232    1.766    0.434
        39 -10.5247     37.8712    240.3273   1.1691380534e+02   2.0634376748e+01    0.2278015    0.1092573  50.98   0.00128809    1.560    0.359
        40 -12.0182    158.6670    245.8804   9.4084172001e+01   5.3310785884e+00    0.2768676    0.1184811  27.35  0.001472953    2.043    0.510
        41 -11.8705     57.1768    242.1604   1.1325832885e+02   1.8281020559e+01    0.4361861    0.1564846  48.50  0.002298384    2.143    0.533
        42 -11.4223    128.5597    239.8876   9.9070607336e+01   9.9974987226e+00    0.2490145    0.1130355  44.19  0.001337067    1.974    0.493
        43 -10.4192    220.4051    238.7194   8.2492810122e+01  -1.3086573935e+00     0.140286    0.0823976 -16.01 0.0009487493    1.645    0.392
        44 -11.2546    215.0069    239.0528   8.3415611685e+01  -7.2212216534e-01    0.1764378     0.101577   4.32  0.001134462    1.708    0.415
        45 -10.4463     64.7105    240.0177   1.1164515451e+02   1.7801129824e+01    0.2505685   0.07760581  49.06  0.001170555    2.656    0.624
        46 -10.9674     44.8609    237.2059   1.1539400866e+02   2.0450398644e+01    0.2838438    0.1060514  48.15  0.001538422    1.974    0.493
        47 -11.2765      6.4764    236.2558   1.2276453933e+02   2.4303517351e+01    0.3221708    0.1526821  60.73  0.001657405    1.592    0.372
        48 -11.0500     94.9831    235.6564   1.0527375536e+02   1.4921809531e+01    0.3224403   0.09233498  39.05  0.001448686    2.515    0.602
        49 -12.4444    231.6284    234.7928   8.0151605431e+01  -2.1658898518e+00    0.3114459    0.1750209 -10.07  0.001936738    1.704    0.413
        50 -10.6585    207.4883    233.9854   8.3954593802e+01   7.3499758034e-01     0.151027   0.07727059 -11.42 0.0008097673    2.545    0.607
        51  -9.8028     67.3182    234.6370   1.1075923049e+02   1.8417121634e+01    0.1235007   0.06475339  56.99 0.0007041276    1.771    0.435
        52 -10.9577     59.4222    232.0464   1.1217815862e+02   1.9766685374e+01    0.3082922    0.1153586  48.17  0.001580589    2.106    0.525
        53 -11.1075     14.0411    231.8354   1.2119287177e+02   2.4418731609e+01    0.3257973    0.1515868  50.80  0.001758703    1.529    0.346
        54 -11.0471    218.0312    231.2167   8.1813898684e+01  -2.1176531564e-01    0.1962987    0.1158338 -12.75  0.001287525    1.667    0.400
        55 -10.8527     48.6283    230.8330   1.1428830458e+02   2.1170435849e+01    0.3109475    0.1305607  64.73  0.001570678    2.579    0.612
        56 -11.0474     39.5562    230.9835   1.1612370390e+02   2.2100897640e+01    0.2947707    0.1338743  61.87  0.001657255    2.015    0.504
        57 -12.0085     25.7124    228.8881   1.1879294839e+02   2.3861737919e+01    0.4402474     0.203766  65.43  0.002582397    1.911    0.477
        58 -11.9812    236.8652    228.2451   7.8379200578e+01  -2.0678466083e+00    0.3166809    0.1702619  -9.42  0.001944568    1.845    0.458
        59 -11.5178      4.6529    228.3073   1.2290576897e+02   2.5879458947e+01    0.3691615    0.1513989  57.07   0.00177503    1.778    0.438
        60 -10.3318     32.1700    229.3884   1.1752588855e+02   2.3138007570e+01    0.1701449   0.06821386  42.16 0.0009468736    1.775    0.437
        61 -11.2424     81.9996    236.3703   1.0793794402e+02   1.6393288431e+01    0.3184674    0.1248153  49.36  0.001596478    2.273    0.560
        62 -10.9162     11.0283    225.8172   1.2159036691e+02   2.5780844725e+01    0.3118539    0.1259567  53.45  0.001483502    1.789    0.441
        63 -11.0801     18.6145    221.9145   1.1993938096e+02   2.5818929730e+01    0.2894072    0.1347137  61.06  0.001709508    1.744    0.427
        64 -11.2304      2.1527    220.6263   1.2319607196e+02   2.7506090603e+01    0.2955569    0.1420383  75.77  0.001825153    1.789    0.441
        65 -10.6614     43.4684    221.1280   1.1478296841e+02   2.3496068398e+01    0.2570441   0.09617534  45.36  0.001325438    1.976    0.494
        66 -11.9338    248.5896    214.8392   7.4545016700e+01  -1.9716989607e+00    0.3889661    0.1670239 -22.29  0.002216811    2.224    0.550
        67 -10.3559    226.9532    218.4197   7.8461079654e+01   1.6749370271e-01     0.184491     0.148539 -32.28  0.001378089    1.639    0.390
        68 -11.4127     11.9633    216.8945   1.2111051997e+02   2.7370327395e+01    0.3898743    0.1682164  55.22  0.002262039    1.744    0.427
        69 -11.2528     34.7520    216.8588   1.1637426708e+02   2.5210639016e+01    0.2497806    0.0905001  50.07  0.001257543    2.123    0.529
        70 -11.1890      2.3687    212.4481   1.2293541045e+02   2.9044713956e+01    0.2908274    0.1522088  69.17   0.00148916    1.541    0.351
        71 -10.0071    233.4125    211.7807   7.6396071873e+01   1.4581148088e-01    0.1556956   0.08499085 -17.92 0.0009506008    1.729    0.422
        72  -9.9583     24.2227    217.3965   1.1860363959e+02   2.6146384038e+01    0.1662742   0.07425776  42.19 0.0009453972    1.666    0.400
        73 -10.5909     21.4013    211.0840   1.1891818720e+02   2.7635827220e+01    0.2300257    0.1142255  74.96  0.001312085    1.871    0.465
        74  -9.8895    240.0000    206.9735   7.4598218545e+01  -1.0087778234e-01    0.1696566   0.05369604 -33.19 0.0008054914    2.964    0.663
        75  -9.9522     35.9763    207.4888   1.1559095759e+02   2.6915118888e+01    0.1820626   0.05512996  48.22 0.0008099189    2.504    0.601
        76 -12.0161     12.5508    205.2548   1.2056747158e+02   2.9595408999e+01    0.4637915    0.1644447  52.28  0.002387704    2.106    0.525
        77 -10.0449    247.0068    205.9668   7.3367035328e+01  -8.2201862566e-01    0.1380251   0.09778029 -10.63  0.000909043    1.126    0.112
        78 -10.0160    250.5549    200.6964   7.1973750608e+01  -6.5298897148e-01    0.2018063   0.08727034 -26.35  0.001135516    2.053    0.513
        79 -11.6792    239.3835    219.1762   7.6618994794e+01  -1.3848847208e+00    0.2404846    0.1354344 -15.29  0.001577664    1.610    0.379
        80 -11.9890      3.4067    197.0569   1.2225906351e+02   3.2029954626e+01     0.369123    0.1695179  65.58  0.002085114    1.772    0.436
        81 -12.0741      4.2526    188.8958   1.2179689024e+02   3.3664518936e+01    0.4116313    0.1536028  60.77  0.002051533    2.194    0.544
        82 -10.7025     16.8938    189.7303   1.1893943508e+02   3.2419824392e+01    0.2484282    0.1048407  65.23   0.00123181    2.137    0.532
        83  -9.9642     24.5818    186.7947   1.1699083575e+02   3.2344273575e+01    0.1742315   0.09478908  79.22 0.0008193436    1.717    0.418
        84 -11.0953     11.2929    183.6261   1.1996319851e+02   3.4217748663e+01     0.226084    0.1182298  77.89  0.001258887    1.687    0.407
        85 -11.2206      1.8098    177.8721   1.2197074221e+02   3.6231267166e+01    0.2794626    0.1271739  83.05  0.001471435    1.925    0.481
        86  -9.7940     11.3267    172.6619   1.1944573775e+02   3.6639320313e+01    0.1362665   0.06666487  59.15 0.0007051637    1.727    0.421
        87 -11.1627      6.5038    171.4521   1.2058061613e+02   3.7297449446e+01    0.2484165    0.1025259 -85.04  0.001212115    2.173    0.540
        88 -10.2828      5.6747    161.3333   1.2033189895e+02   3.9671917071e+01    0.1365329   0.06783841  59.48 0.0006619895    1.711    0.416
        89 -10.1812     10.6681    166.3495   1.1929627448e+02   3.8127916925e+01     0.139037   0.06737973  59.53 0.0007048127    1.772    0.436
        90 -10.5763      4.2360    136.9739   1.1945932758e+02   4.5593095822e+01    0.1756431   0.09035366 -84.62 0.0008901968    1.658    0.397
        91 -11.0155    248.1111    129.7209   5.9091897750e+01   8.5507203503e+00    0.2226236     0.141376 -35.99  0.001052657    1.394    0.283
        92 -10.9196    241.7045    125.5045   5.9085434069e+01   1.0138320569e+01    0.2390545   0.09519914 -32.53  0.001083107    2.092    0.522
        93 -11.7740    248.8530    119.0519   5.6759214925e+01   9.8765590980e+00    0.3825809    0.1307279 -36.09  0.001592355    2.369    0.578
        94  -9.7728    243.4752    118.9796   5.7453971027e+01   1.0754786980e+01    0.1786085   0.08713057 -47.70 0.0008093977    2.482    0.597
        95 -11.2214    247.9710    112.7292   5.5522781075e+01   1.0877612442e+01    0.2323668    0.1315931 -40.68   0.00103681    1.606    0.378
        96 -12.2075    244.0000    109.0386   5.5231064936e+01   1.2042128626e+01    0.3607375    0.1179906 -34.08   0.00149566    2.451    0.592
        97 -11.2617    248.5060    107.0065   5.4217469975e+01   1.1567584628e+01    0.2712664    0.1714269 -44.45 0.0009306729    1.558    0.358
        98 -12.0712    247.4044    103.1609   5.3513494166e+01   1.2274725793e+01    0.3202458     0.153161 -44.69  0.001477362    2.073    0.518
        99 -10.9777    238.6295    102.8187   5.4545983658e+01   1.3831717268e+01    0.1901073    0.0978289 -38.73 0.0009441928    1.660    0.397
       100 -11.7157    249.1399     97.8979   5.2145113899e+01   1.2694149690e+01    0.3114616    0.1726465 -52.29  0.001561937    2.198    0.545
       101 -10.2001    236.2296     95.9612   5.3299023891e+01   1.5224616881e+01    0.1818638   0.09123049 -32.68 0.0008788421    1.650    0.394
       102 -11.8255    242.7440     92.9078   5.1795494249e+01   1.4483156315e+01    0.2517903    0.1447257 -42.97  0.001126071    1.574    0.365
       103 -12.2888    249.4912     87.9816   4.9900761382e+01   1.3963929812e+01    0.4783474     0.195489 -25.75  0.002093966    2.336    0.572
       104 -12.1502    246.5931     84.7973   4.9509786330e+01   1.4899704347e+01    0.2217898    0.1499436 -48.15 0.0009654603    1.440    0.306
       105 -10.2557    237.4669     90.5114   5.1891234644e+01   1.5763832033e+01    0.1313528    0.1077603 -34.03 0.0001816217    1.042    0.041
       106 -12.7069    248.9238     75.0233   4.7037147592e+01   1.5775881042e+01    0.5526711    0.2332119 -32.51   0.00262556    1.873    0.466
       107 -11.5294    243.8114     76.7946   4.7987992252e+01   1.6471981435e+01    0.1814149    0.1273817 -48.10 0.0007658062    1.342    0.255
       108 -10.0543    239.6500     81.3182   4.9502343006e+01   1.6629771364e+01    0.1337938   0.08638146 -55.74  0.000704791    1.736    0.424
       109 -10.4445    239.5033     72.5042   4.7458940215e+01   1.7846864501e+01    0.1311095    0.1065542 -37.98 -7.010822e-05    1.033    0.032
       110 -12.9942    249.5200     64.4749   4.4568354409e+01   1.7027242276e+01    0.8393837     0.128972 -33.86  0.002738622    3.981    0.749
       111 -11.4973      3.0518     50.9055   1.1085287314e+02   6.7453396245e+01    0.3980614     0.127352 -64.73  0.001668782    2.297    0.565
       112 -10.4304     26.8918    248.7525   1.1934467456e+02   2.0297661310e+01    0.2148128   0.08983317  46.58  0.001329548    1.627    0.385
       113 -12.7336    143.0263    247.7568   9.7176774710e+01   7.0483371523e+00    0.4254313    0.1796993  30.08  0.002297686    1.935    0.483
       114 -11.8047      1.6830     25.2419   1.0532696099e+02   7.3601118460e+01    0.4111198    0.1313611 -66.57   0.00171626    2.616    0.618
       115 -11.8057      2.4664     40.5374   1.0900071392e+02   6.9996820475e+01    0.4158444    0.1305496 -59.95  0.001777736    2.272    0.560
       116 -12.0054    127.1066    247.8945   1.0017579507e+02   9.0274313617e+00    0.2964252    0.1141085  40.62  0.001550655    2.060    0.515
       117 -10.8852    109.9742    248.5209   1.0349386277e+02   1.1065488986e+01     0.178291   0.08552005  34.25 0.0009836501    1.590    0.371
       118 -12.2216    194.9406    245.6228   8.7647554625e+01   9.0838086673e-01    0.2907239    0.1619081   5.81  0.001759501    2.019    0.505
       119 -11.9194     84.3174    244.6549   1.0812777434e+02   1.4767297043e+01    0.2895821    0.1564803  53.83  0.001764082    1.722    0.419
       120 -11.4767     44.4201    244.7933   1.1586941318e+02   1.9203403394e+01     0.295629    0.1507448  51.23  0.001674615    1.487    0.328
       121 -10.3420     40.3348     11.3229   7.1543085720e+01   7.2113873500e+01    0.1371686    0.0944417   2.44 0.0007050585    1.709    0.415
       122 -12.2347    115.7113    244.2999   1.0199787861e+02   1.0978135724e+01    0.2871917     0.136213  43.08  0.001636312    1.736    0.424
       123 -11.4011     17.7522     31.5595   9.6478527117e+01   7.1089148891e+01    0.2962421    0.1427049 -26.74  0.001267944    2.652    0.623
       124 -11.6783    178.6947    243.4627   9.0190128951e+01   3.1369043489e+00    0.2786268    0.1451061  19.52  0.001636129    1.832    0.454
       125 -11.8764     97.4739    245.2645   1.0561656189e+02   1.3089206007e+01     0.362695     0.125049  44.09  0.001792662    2.315    0.568
       126 -10.7267    183.7966    250.3757   9.0159812706e+01   1.6933250675e+00    0.1584947   0.07777453  24.47 0.0009497352    1.694    0.410
       127 -11.5398     29.4745    240.6938   1.1854538750e+02   2.1408617521e+01     0.390244    0.1637344  57.99  0.002286301    1.937    0.484
