#   1 NUMBER                 Running object number                                     
#   2 MAG_AUTO               Kron-like elliptical aperture magnitude                    [mag]
#   3 X_IMAGE                Object position along x                                    [pixel]
#   4 Y_IMAGE                Object position along y                                    [pixel]
#   5 X_WORLD                Barycenter position along world x axis                     [deg]
#   6 Y_WORLD                Barycenter position along world y axis                     [deg]
#   7 A_WORLD                Profile RMS along major axis (world units)                 [deg]
#   8 B_WORLD                Profile RMS along minor axis (world units)                 [deg]
#   9 THETA_WORLD            Position angle (CCW/world-x)                               [deg]
#  10 FWHM_WORLD             FWHM assuming a gaussian core                              [deg]
#  11 ELONGATION             A_IMAGE/B_IMAGE                                           
#  12 ELLIPTICITY            1 - B_IMAGE/A_IMAGE                                       
         1 -13.2444      8.4999     35.9943   5.6780459170e+01   7.2234317530e+01     1.108063    0.8021054 -49.27  0.006253882    1.254    0.203
         2 -12.2411    247.0743     24.3604   3.5248059351e+02   2.2882187787e+01    0.5281451    0.1963747 -34.57   0.00277024    2.053    0.513
         3 -11.3757     81.7938      7.6486   5.1732054068e+00   6.2992056865e+01    0.3044913    0.2345068  83.34  0.001707029    1.283    0.221
         4 -11.0508      3.4726      2.7961   4.3379392360e+01   7.9295766126e+01    0.3517884     0.252779  40.00  0.002187006    1.624    0.384
         5 -11.0600    116.2727      2.9001   3.5705350423e+02   5.4602005267e+01    0.3318987    0.1737727 -83.75  0.001495076    2.006    0.502
         6 -14.3309     12.7582    200.2270   7.6874598217e+01   3.0009640336e+01     2.049124     0.910499  85.46   0.00860535    2.283    0.562
         7 -11.1128    161.1922    249.1441   4.7760659376e+01   3.0765033727e+00    0.3268311    0.2177192  20.83  0.002208023    1.195    0.163
         8 -11.4256     36.8831    248.9666   7.3665985196e+01   1.7609678149e+01    0.5243721    0.1979602  43.35  0.002718246    1.883    0.469
         9 -11.4461    247.8038    231.8120   3.0858701922e+01  -3.9420706688e+00    0.2969113    0.2146362  -6.45  0.002457497    1.070    0.065
        10 -10.7032    115.0000    226.9825   5.4485230528e+01   1.2308851475e+01    0.1825502   0.07267492 -56.29 0.0002385907    2.999    0.667
        11 -11.6089    212.8559    223.5541   3.5021370786e+01   5.9170598984e-01     0.294371    0.2181915 -26.61  0.002162855    1.318    0.241
        12 -11.2598     58.1592    216.8797   6.6667470101e+01   2.1531846371e+01    0.5708622    0.3074712  59.57  0.002852233    1.926    0.481
        13 -13.1824     68.9701    213.8656   6.3766688575e+01   2.0835736241e+01     1.473764    0.7109575  50.19  0.006945843    1.969    0.492
        14 -11.7352     72.5209    203.8291   6.1874220040e+01   2.2505586042e+01    0.6592602    0.3362138  66.91  0.002743964    2.784    0.641
        15 -10.7040    131.3760    243.3969   5.2940844916e+01   7.4944393399e+00    0.2292521    0.1899845  33.32  0.001614427    1.174    0.148
        16 -11.1933     51.5432    209.5781   6.7686618310e+01   2.3864717332e+01    0.5280212    0.2527904  47.37  0.002540848    1.789    0.441
        17 -12.4768    172.7341    204.1454   3.9189220807e+01   8.3332132210e+00    0.7148377    0.5760951 -58.85  0.004485155    1.746    0.427
        18 -11.7204     39.1434    201.1317   7.0165815769e+01   2.7147885023e+01    0.7182176    0.3571497 -67.03  0.003491778    2.125    0.529
        19 -11.1116     55.3211    201.4162   6.6017957754e+01   2.5206278323e+01    0.4513499    0.3013145  69.04  0.002428927    1.548    0.354
        20 -12.0062    114.1384    201.3917   5.1379431122e+01   1.7216020843e+01    0.4944676     0.205715  38.98  0.002116304    2.119    0.528
        21 -12.6137     14.9021    168.7866   7.4535099485e+01   3.7346264335e+01     1.279887    0.6130699  63.23  0.005358303    2.001    0.500
        22 -12.0310     24.7294    181.9270   7.2622676709e+01   3.3172657503e+01     1.150762    0.3334559 -71.74  0.004287258    3.225    0.690
        23 -12.9904     31.8453    191.7522   7.1386839280e+01   3.0097407858e+01     0.949718    0.6049892 -85.77  0.005107382    1.588    0.370
        24 -11.4289     31.5039    179.5016   7.0539192689e+01   3.3068599215e+01     0.569245    0.3833704  69.59  0.002366823    1.402    0.287
        25 -12.7686     32.2041    170.3530   6.9561884826e+01   3.5262052061e+01     1.270519    0.5079341 -73.81  0.005166699    2.455    0.593
        26 -10.1952     67.2525    190.8745   6.1821847563e+01   2.6075051526e+01    0.2593022    0.1874148 -45.50    0.0013742    1.647    0.393
        27 -11.5368     55.7730    187.5486   6.4548153583e+01   2.8323726378e+01    0.5665495    0.4568686 -78.78  0.002656313    1.297    0.229
        28 -10.2085     42.2541    184.3541   6.7948434533e+01   3.0706307038e+01    0.4010816     0.145872  53.19  0.001489065    2.828    0.646
        29 -10.7550     91.5059    180.9921   5.4116727120e+01   2.4896205174e+01     0.338298    0.1405284  47.06  0.001283081    2.472    0.595
        30 -10.7071     57.2259    176.7971   6.2974810561e+01   3.0706529842e+01     0.349102    0.2954649 -60.01   0.00198308    1.291    0.225
        31 -10.5023     41.3947    176.9445   6.7502014440e+01   3.2604178165e+01     0.334373    0.2365527 -85.68  0.001779352    1.420    0.296
        32 -11.4773      2.4463    175.3521   7.8467261230e+01   3.6753415241e+01    0.4905627    0.2762611  86.02  0.001902375    1.627    0.385
        33 -10.9785    146.2824    176.9933   4.0106341656e+01   1.7052647611e+01    0.1961589    0.1798763 -22.62  0.001187372    1.088    0.081
        34 -10.7872     89.6749    171.6069   5.3212135143e+01   2.7327987995e+01    0.3151438    0.2399757 -18.85  0.001559778    1.725    0.420
        35 -10.6066     64.3179    161.6748   5.8992590864e+01   3.3489541049e+01    0.5119902    0.2220211  44.78  0.001999741    2.169    0.539
        36 -10.3219     23.5775    159.2065   7.1195536948e+01   3.8982892858e+01    0.3062257    0.2480369 -87.05  0.001311605    1.166    0.142
        37 -11.2827     26.2238    154.4667   6.9940132017e+01   3.9953138556e+01    0.6267484     0.288576 -69.24  0.002696428    2.047    0.511
        38 -11.6514      8.0528    150.8944   7.5445358574e+01   4.2500033772e+01    0.7368039    0.3200104  67.03  0.003047486    2.331    0.571
        39 -11.3032     16.6083    151.4521   7.2748155799e+01   4.1645314331e+01    0.3983712    0.2995885  43.56  0.002208265    1.248    0.199
        40 -10.9592     54.9107    147.1434   5.9831698243e+01   3.8507931742e+01    0.5151994    0.3067066 -80.92     0.002077    1.838    0.456
        41 -10.8581     75.6094    145.6111   5.3040496237e+01   3.5869801039e+01    0.3112389     0.264047  66.86  0.001618216    1.178    0.151
        42 -11.4075     18.2426    144.8452   7.1652081652e+01   4.3241002341e+01    0.3299579    0.2162916 -75.56   0.00137335    1.430    0.301
        43 -11.5218      1.7595    123.6691   7.5666149526e+01   5.0153910086e+01      0.44063    0.1785979 -77.96  0.001817339    2.177    0.541
        44 -12.0819      1.8892    135.8145   7.6481609572e+01   4.6908228113e+01     1.103727    0.2175206 -81.02  0.003171885    4.651    0.785
        45 -10.1490     19.3329    137.5238   7.0592787966e+01   4.5095172265e+01    0.3470815     0.174375  54.98  0.001496684    1.980    0.495
        46 -10.0938     34.4790    135.5700   6.5089959477e+01   4.4102509650e+01    0.3154318     0.136774 -72.32  0.001225732    2.220    0.550
        47 -12.1654     75.3828    127.7837   4.9746453698e+01   4.0459994901e+01    0.6328353    0.5068848 -72.59  0.002462981    1.272    0.214
        48 -13.5378     81.8451    121.4004   4.6270221745e+01   4.0972333737e+01     2.116333     1.203572  62.85  0.007867618    2.453    0.592
        49 -11.2012     24.2713    131.5545   6.8211687740e+01   4.6242552062e+01    0.4211956    0.1273082  24.74  0.001445813    3.201    0.688
        50 -11.3657     12.0472    126.8627   7.2151468776e+01   4.8574873007e+01    0.7535888    0.3964118  89.77   0.00335656    1.856    0.461
        51 -11.8272    124.0897    121.4263   3.3947304497e+01   3.2789892481e+01    0.7755705    0.4980812 -52.62  0.003455403    1.572    0.364
        52 -12.4377     50.7392    116.5865   5.6159239195e+01   4.7187927524e+01     1.108108    0.7410656  48.49  0.005079757    1.508    0.337
        53 -10.5068     32.7775    120.6895   6.3637612755e+01   4.8313284930e+01    0.3680901    0.2587234   0.73  0.001745148    1.818    0.450
        54 -11.2702    102.6125    195.3724   5.3317592545e+01   2.0122175568e+01    0.3717194    0.2889744  57.26  0.002078097    1.366    0.268
        55 -11.3001     38.2277    110.3168   5.9812096001e+01   5.0495518005e+01     1.022805    0.2609695 -48.38  0.002794106    4.569    0.781
        56 -11.2068      3.4957     98.5840   7.2663401122e+01   5.6794088904e+01    0.4966211    0.2866203  67.21  0.002146949    1.831    0.454
        57 -12.1058     50.2928     91.4616   5.0793376123e+01   5.3859685244e+01    0.8493179    0.5651645  88.42  0.003457132    1.982    0.496
        58 -12.4335     95.1522     88.0365   3.3232483793e+01   4.6388722647e+01    0.5755642    0.4723778 -76.51  0.002806184    1.344    0.256
        59 -12.9828     86.0574     81.2017   3.4105552616e+01   4.9845210152e+01     1.625995    0.6828122 -42.40  0.005669472    2.565    0.610
        60 -11.5963     38.2929     72.5179   5.1069409121e+01   6.0344973374e+01    0.5268506    0.4588346  85.78  0.002883297    1.261    0.207
        61 -11.6681     62.7228     70.8898   3.9491629801e+01   5.6800792589e+01    0.6334566    0.4727445 -63.70  0.003069244    1.445    0.308
        62 -12.3994     14.9052     79.0972   6.4384234786e+01   6.1189392260e+01     1.298827    0.7131632  67.48  0.005506821    2.378    0.579
        63 -12.6448      9.4747     57.9132   6.2768118429e+01   6.6996448084e+01     1.309816    0.5552899 -73.08  0.005374965    2.430    0.589
        64 -12.3966     35.5027     59.3241   4.8316185885e+01   6.3893587857e+01    0.8800477     0.568958 -58.95  0.003583894    1.545    0.353
        65 -11.6891     67.5850     53.3371   3.0998327368e+01   5.9590614349e+01    0.8379266    0.4225153  51.19  0.003404417    2.052    0.513
        66 -12.8438    112.8352     46.6940   1.4329340776e+01   5.0199207541e+01    0.9919869    0.7386711  12.67    0.0046165    1.990    0.498
        67 -12.3366    106.2792     43.6639   1.4777312272e+01   5.2309919373e+01    0.8155694    0.5730595  87.79  0.003832054    1.665    0.399
        68 -11.6958     67.3362     44.3149   2.7314905503e+01   6.1347127480e+01    0.5293506    0.4198398 -31.65  0.001912501    1.345    0.257
        69 -11.8558    166.7148    240.6004   4.5624894372e+01   3.6170599664e+00    0.2831416     0.168877  11.35  0.001700253    1.624    0.384
        70 -12.3717    107.3448     32.3498   1.0163538441e+01   5.3685147145e+01    0.5704921    0.4176736  78.07  0.002905048    1.354    0.261
        71 -12.4091     39.9999     27.7377   3.2020074366e+01   6.9663344592e+01    0.4506211    0.3316225 -38.61  0.002488068    1.391    0.281
        72 -11.7886     78.4089     22.7926   1.3472040289e+01   6.2141982267e+01    0.2919253    0.1892491 -13.42  0.001382494    1.977    0.494
        73 -12.8766    142.8573    241.5882   5.0399050574e+01   6.3577709051e+00    0.8975081    0.5832629 -26.93  0.005560046    1.764    0.433
        74 -13.3141      6.2596    229.5688   7.9568483008e+01   2.4307392410e+01    0.9756629    0.3927779  47.42  0.004644775    1.784    0.439
        75 -12.3416     10.6177    218.1205   7.8165862916e+01   2.6280772047e+01    0.8570336    0.3466825  77.62  0.003551297    2.545    0.607
