#   1 NUMBER                 Running object number                                     
#   2 MAG_AUTO               Kron-like elliptical aperture magnitude                    [mag]
#   3 X_IMAGE                Object position along x                                    [pixel]
#   4 Y_IMAGE                Object position along y                                    [pixel]
#   5 X_WORLD                Barycenter position along world x axis                     [deg]
#   6 Y_WORLD                Barycenter position along world y axis                     [deg]
#   7 A_WORLD                Profile RMS along major axis (world units)                 [deg]
#   8 B_WORLD                Profile RMS along minor axis (world units)                 [deg]
#   9 THETA_WORLD            Position angle (CCW/world-x)                               [deg]
#  10 FWHM_WORLD             FWHM assuming a gaussian core                              [deg]
#  11 ELONGATION             A_IMAGE/B_IMAGE                                           
#  12 ELLIPTICITY            1 - B_IMAGE/A_IMAGE                                       
         1 -14.4663    148.9927     59.1128   9.0063180973e+01   4.0196594187e+01     1.356423     0.995246 -14.17  0.001032393    1.452    0.311
         2 -14.8885    159.8111     44.1664   8.2605659841e+01   3.9840149941e+01     1.507321     1.044835 -20.63  0.003893267    1.429    0.300
         3 -13.2555    189.8667     13.9156   6.7105366131e+01   3.5570864331e+01     1.335817    0.6584225 -55.25  0.004937293    2.710    0.631
         4 -14.4292    172.9134      9.1568   6.7761080234e+01   4.0566003445e+01     1.113725    0.7906902  67.40  0.003215177    1.421    0.296
         5 -13.8974    171.4622     15.9091   7.0406899947e+01   4.0288181005e+01     1.003815    0.7336216  72.36  0.004711473    1.462    0.316
         6 -10.6015    167.5375    245.7165   1.2331370084e+02   7.8542132693e+00    0.1427786     0.100763 -32.38 0.0008584504    1.990    0.498
         7 -20.2427     80.2467    179.4437   1.3137737594e+02   2.9464669040e+01     13.16658     5.518313 -67.57   0.06927568    2.557    0.609
         8 -11.9295    187.8671    174.7411   1.1013622185e+02   1.3176942044e+01    0.2189831    0.1694052 -70.85  0.001250459    2.169    0.539
         9 -12.5105     23.4459    218.4649   1.4400265771e+02   2.9227229395e+01    0.2545224     0.131694 -69.57  0.001926881    2.112    0.527
        10 -12.0016    165.2653    171.8589   1.1382587266e+02   1.7569307672e+01    0.2309658    0.1543023  50.72  0.001316656    1.429    0.300
        11 -10.4188     18.0920    221.8754   1.4496208524e+02   2.9199986264e+01    0.1064482   0.08890384  85.99 0.0003289534    1.405    0.288
        12 -11.3954    167.9046    240.1967   1.2265916675e+02   8.3894000961e+00    0.1532419    0.1089799  46.37  0.000339018    1.168    0.144
        13 -11.9980    230.0920    166.7272   1.0134867826e+02   6.6933438882e+00     0.264347    0.1702894 -40.67  0.001475141    2.056    0.514
        14 -14.0799    163.9674    156.7921   1.1144343874e+02   2.0119630358e+01      0.50043    0.4372744 -54.77   0.00205018    1.349    0.259
        15 -13.5845    159.9700    151.0412   1.1117040724e+02   2.1782494305e+01    0.4217505    0.3229164 -16.98  0.002381895    1.585    0.369
        16 -12.3764    134.5962    108.8639   1.0776676826e+02   3.4220500202e+01     1.008575    0.1604394 -45.62   0.00239914    6.455    0.845
        17 -15.4785    143.6363    144.7778   1.1335526213e+02   2.5850179567e+01     1.013088    0.8768193 -62.31  0.004542429    1.289    0.224
        18 -14.5213    134.2290    147.1306   1.1577956842e+02   2.7111499721e+01     1.533304    0.4595805 -56.41  0.004496313    5.858    0.829
        19 -14.4124    135.4266    128.6310   1.1196307558e+02   3.0296431591e+01     1.574022     0.346591 -48.03  0.004611197    4.874    0.795
        20 -12.0799    207.3481    210.8671   1.1256653314e+02   5.6056615101e+00    0.2022753    0.1301254  43.81  0.001120235    1.374    0.272
        21 -10.3689     30.9160    211.0860   1.4248203125e+02   2.9666891131e+01    0.1415183   0.08180314  61.83            0    1.273    0.215
        22 -11.8651    127.0523    249.8193   1.2993842994e+02   1.2928418588e+01    0.1392458    0.1212767  53.03 0.0005340563    1.236    0.191
        23 -10.0410     22.8263    156.1889   1.4073953059e+02   4.0050656249e+01    0.1279723    0.1077885 -80.81 0.0004109427    1.268    0.211
        24 -11.0830     16.5761    154.0774   1.4185864975e+02   4.0989303500e+01    0.2752323     0.201256 -18.01  0.001882145    2.602    0.616
        25 -11.2419    192.4093    153.1974   1.0531142227e+02   1.5336669278e+01    0.1724452    0.1241337 -44.13 0.0006793329    1.669    0.401
        26 -10.7758     30.9562    206.3574   1.4223774430e+02   3.0418060726e+01    0.1644216    0.1252026  46.96 0.0008671381    1.369    0.270
        27 -13.2081    173.7660    148.8432   1.0800747296e+02   1.9538382853e+01    0.3866349    0.3597315 -42.48  0.001502938    1.232    0.188
        28 -12.0211     27.4958    145.5041   1.3896907510e+02   4.1727652965e+01    0.2728226    0.2288633 -82.80  0.001263798    1.192    0.161
        29 -12.4448    173.9718    140.6117   1.0630337349e+02   2.0799569018e+01    0.2459527    0.2066127 -45.06 0.0008523116    1.346    0.257
        30 -13.1140     11.5936    206.0080   1.4535894217e+02   3.2248435099e+01    0.3772165    0.1913324  34.34  0.002687107    2.122    0.529
        31 -13.4070    160.4180    128.0784   1.0640430723e+02   2.5568166145e+01     0.434812    0.3775978 -50.42  0.001787695    1.272    0.214
        32 -10.8967     28.5237    239.2773   1.4409225821e+02   2.5685195266e+01    0.1197041   0.07133406  73.36 0.0006185046    1.305    0.233
        33 -11.9121     21.7270    237.5298   1.4500911927e+02   2.6572090359e+01    0.1460972   0.09998536  80.13  0.001362193    1.255    0.203
        34 -12.5005    139.5781    200.4955   1.2273604370e+02   1.7577018158e+01    0.4551767    0.2356937  44.98 0.0007970237    1.564    0.361
        35 -11.0501    135.4224    196.1631   1.2293898789e+02   1.8847939377e+01    0.2399506    0.1760176  72.98   0.00131168    1.618    0.382
        36 -13.1129    145.0553    190.8650   1.2048239176e+02   1.8123789342e+01    0.4927754    0.4249084 -46.63  0.002998142    1.399    0.285
        37 -14.1962    201.1820    163.6786   1.0573865204e+02   1.2260938103e+01     2.348358    0.7637077 -47.74  0.006317485    8.296    0.879
        38 -13.8711    206.4886    177.9874   1.0741346211e+02   9.4917194794e+00    0.5857863    0.4595267  28.21  0.003272531    1.038    0.037
        39 -10.8855    205.3492    110.2567   9.3314025756e+01   1.8958446644e+01    0.3031504    0.1876403  42.22  0.000982518    1.549    0.354
        40 -11.8800    203.5145    175.0118   1.0740366196e+02   1.0380832194e+01    0.2946026     0.236473 -10.85  0.001147181    1.304    0.233
        41 -10.9821     23.1291    107.1875   1.3633493516e+02   5.0087421747e+01    0.1844054    0.1571782  -9.77  0.001074698    1.678    0.404
        42 -12.0090    203.3744    170.7026   1.0665235701e+02   1.0951323452e+01    0.5383117     0.215679  34.95  0.002321227    2.448    0.591
        43 -11.1952     28.0102     97.9048   1.3387358841e+02   5.1718857737e+01    0.3244419    0.2465596 -55.86  0.002210362    1.309    0.236
        44 -11.7509     34.5260    187.6032   1.4057138144e+02   3.3207105409e+01    0.2385177    0.2220549  55.38 0.0007308028    1.442    0.307
        45 -11.2643     12.9003    242.4229   1.4642737331e+02   2.6684942911e+01    0.1149647   0.09674782  74.95  0.001190836    1.441    0.306
        46 -10.0974    150.9342    240.5470   1.2536179317e+02   1.0754309549e+01    0.1543156    0.1133328  59.48  0.001201413    1.408    0.290
        47 -12.9879     47.1774     92.6643   1.2760379054e+02   5.1091422437e+01    0.4202732    0.2993859  17.54  0.002272384    1.885    0.469
        48 -12.2927    199.2022    178.9286   1.0884494424e+02   1.0642807276e+01    0.4439307    0.2932702 -59.59  0.001791011    2.881    0.653
        49 -11.4349      3.4936     90.0994   1.3981676335e+02   5.5138069325e+01    0.2771457    0.1363617 -14.22  0.001357595    4.163    0.760
        50 -11.0370    103.4630     81.9892   1.0886582976e+02   4.5485647700e+01    0.2366032    0.2049217  43.09  0.001330499    1.229    0.186
        51 -10.7640    143.0186     80.5442   9.8207487314e+01   3.7825429818e+01    0.2356517    0.1971819 -33.41 0.0005802882    1.166    0.142
        52 -13.5780    195.6813    169.6084   1.0782038619e+02   1.2471663948e+01    0.4424732    0.4057959 -15.27  0.001347293    1.235    0.191
        53 -10.7182    159.8862    247.7487   1.2470402962e+02   8.7081861016e+00    0.2266647    0.1152618  32.40  0.001365587    1.827    0.453
        54 -13.1618    163.5564     35.5803   7.8837974189e+01   4.0061048763e+01    0.4951766    0.4348991   1.89 0.0008782778    1.109    0.098
        55 -10.8178     13.4075     59.8880   1.3256357159e+02   6.1211594201e+01    0.1693644    0.1468833  83.72    0.0004414    1.252    0.201
        56 -11.6638    148.7276     35.6784   8.1842973252e+01   4.3833306614e+01    0.5599936    0.3233008  80.75  0.002025604    2.930    0.659
        57 -10.0239     15.5697    246.8059   1.4619246135e+02   2.5841856789e+01    0.1395942   0.05996615  82.53  0.001055932    2.075    0.518
        58 -12.8158    193.6140    164.7896   1.0731062909e+02   1.3494737425e+01     0.332926    0.2868716  19.89  0.001120001    1.046    0.044
