#   1 NUMBER                 Running object number                                     
#   2 MAG_AUTO               Kron-like elliptical aperture magnitude                    [mag]
#   3 X_IMAGE                Object position along x                                    [pixel]
#   4 Y_IMAGE                Object position along y                                    [pixel]
#   5 X_WORLD                Barycenter position along world x axis                     [deg]
#   6 Y_WORLD                Barycenter position along world y axis                     [deg]
#   7 A_WORLD                Profile RMS along major axis (world units)                 [deg]
#   8 B_WORLD                Profile RMS along minor axis (world units)                 [deg]
#   9 THETA_WORLD            Position angle (CCW/world-x)                               [deg]
#  10 FWHM_WORLD             FWHM assuming a gaussian core                              [deg]
#  11 ELONGATION             A_IMAGE/B_IMAGE                                           
#  12 ELLIPTICITY            1 - B_IMAGE/A_IMAGE                                       
         1  -7.8071     83.4944     11.0025   2.9085776644e+02   7.1757085303e+00  0.008945914  0.005681541  79.22 0.0005094696    2.262    0.558
         2  -8.6956     55.5068     10.0738   2.9117902056e+02   7.3482831632e+00   0.01305447   0.01021643  75.25 0.0007913215    1.502    0.334
         3  -7.9546     47.5917      9.8183   2.9126994460e+02   7.3969543052e+00  0.009339289  0.006417307 -80.42 0.0009419703    1.695    0.410
         4  -8.2210     90.9607      9.0076   2.9075862148e+02   7.1556320375e+00   0.01100158  0.007658134  62.56 0.0006892144    1.739    0.425
         5  -7.6894     13.0000      8.9712   2.9166905135e+02   7.6062633409e+00   0.01060668  0.003734386 -62.78   0.00048518    2.819    0.645
         6  -8.1459    101.1814      8.1310   2.9063405301e+02   7.1066131494e+00  0.009193739  0.007528886  56.51 0.0004273085    1.320    0.243
         7  -8.6315     33.5095      5.0444   2.9140583132e+02   7.5335874314e+00   0.01710695   0.01023753  84.42  0.001138397    2.570    0.611
         8  -8.5422     79.0413      3.5960   2.9086527974e+02   7.2873589192e+00   0.01307952  0.009221762 -87.95  0.001087882    1.732    0.423
         9  -8.5251    236.1349      2.3872   2.8902675543e+02   6.3888130744e+00   0.01318308  0.009625045 -71.02 0.0009086296    1.440    0.306
        10  -7.6408     44.6805      3.3120   2.9126491539e+02   7.4892173871e+00  0.006927496  0.004970148  61.80 0.0003412123    1.648    0.393
        11  -8.0712     15.6241      2.8508   2.9160169089e+02   7.6621320469e+00  0.009217213  0.006333301 -79.72  0.000498161    1.683    0.406
        12  -8.4968     62.3633      1.6073   2.9104811408e+02   7.4068525065e+00   0.01180148  0.007144986  38.32 0.0005818311    1.648    0.393
        13  -8.9863    120.2202    245.4117   2.9183236708e+02   4.2403869370e+00   0.01883908   0.01116196  62.62  0.001683524    2.323    0.570
        14 -10.1726    248.5775    242.2017   2.9032168731e+02   3.5344061130e+00   0.03740048   0.01384086 -66.40  0.002367727    2.990    0.666
        15  -9.0732    247.9127    234.8280   2.9028529316e+02   3.6238576476e+00   0.01538166   0.01231594 -64.11 0.0008824151    1.250    0.200
        16  -9.4757    246.6063    229.5757   2.9026903231e+02   3.6924076879e+00   0.01669776   0.01189079 -82.18 0.0007975909    1.631    0.387
        17  -9.1179    211.0930    246.9790   2.9078549010e+02   3.6962320244e+00   0.02073729   0.01164217 -86.75  0.001641755    2.698    0.629
        18  -8.4387     94.0925    249.5553   2.9216095202e+02   4.3431616865e+00   0.01390161  0.009697162  70.70  0.001057209    1.816    0.449
        19  -9.4171     59.9340    249.2811   2.9255670454e+02   4.5434469810e+00   0.01175544   0.01019815 -41.80 0.0001932324    1.155    0.134
        20  -9.6894      9.1008    243.5556   2.9311420393e+02   4.9027944235e+00   0.02642384   0.01306518 -87.37  0.001820353    4.015    0.751
        21  -8.3450     67.7007    245.4216   2.9244337657e+02   4.5435282876e+00   0.01352622  0.008201373 -79.73  0.001026586    2.038    0.509
        22  -8.5828    201.9873    243.2887   2.9086921188e+02   3.7918486000e+00   0.01413206  0.009298605 -78.52 0.0009881142    1.772    0.436
        23  -8.3545    169.1208    243.2652   2.9125099525e+02   3.9824641523e+00   0.01198095  0.008183777  77.20  0.000490158    1.929    0.482
        24  -8.7913     78.2838    243.7866   2.9231051146e+02   4.5014776932e+00   0.01916796  0.008453864  50.81  0.001460816    3.010    0.668
        25  -9.3953    160.3597    240.6258   2.9133708152e+02   4.0638410300e+00   0.02070997   0.01238722  87.28  0.001428153    2.506    0.601
        26  -9.2741    182.9921    240.0121   2.9107035043e+02   3.9399393302e+00   0.02048963   0.01216155  59.16  0.001494969    2.196    0.545
        27  -8.2057     88.2233    242.1998   2.9218542300e+02   4.4625542396e+00  0.009329297   0.00754685  82.73 0.0007349091    1.415    0.293
        28  -9.0301    241.4291    238.7695   2.9038413771e+02   3.6157037969e+00   0.02928579  0.009370944 -45.34  0.002006279    3.513    0.715
        29  -8.1726    214.3394    240.8516   2.9071116156e+02   3.7485763265e+00   0.01001247  0.005503632 -51.50 0.0007048118    1.761    0.432
        30  -8.8735    146.5757    239.7354   2.9149202626e+02   4.1539489292e+00   0.01825866   0.01306872  86.85   0.00115601    1.731    0.422
        31  -8.7338    194.0715    239.8330   2.9094053307e+02   3.8778455425e+00   0.01015311  0.008672502  58.02 0.0004760291    1.254    0.202
        32  -9.3827    231.2225    237.2761   2.9049371108e+02   3.6922248293e+00   0.01804152   0.01200068  70.68  0.001027257    1.996    0.499
        33  -8.3859    209.0073    238.2717   2.9075767736e+02   3.8094384271e+00   0.01339753  0.008190759 -63.56 0.0008323152    1.638    0.389
        34  -8.4659    135.8500    239.1844   2.9161346093e+02   4.2223944718e+00   0.01332974  0.008630729  51.26  0.001140345    1.727    0.421
        35  -8.5932    129.2631    238.5624   2.9168635493e+02   4.2677134050e+00   0.01644367  0.008982092  68.62  0.001276888    3.152    0.683
        36  -8.5084     25.8903    237.3910   2.9288217422e+02   4.8778564637e+00   0.01428629  0.007576808  70.14  0.001040616    3.571    0.720
        37  -9.9508    215.0435    233.4375   2.9065865904e+02   3.8305946388e+00   0.03215967   0.01702727  68.07  0.002401692    3.474    0.712
        38  -8.8847    203.0912    234.8758   2.9080610995e+02   3.8831633309e+00    0.0152549  0.009516158 -81.55 0.0009255562    2.003    0.501
        39  -9.7408    175.8657    233.5259   2.9111443534e+02   4.0565600670e+00   0.02609373   0.01346045 -79.90  0.002114557    2.776    0.640
        40  -8.1435    170.2501    235.9918   2.9119443896e+02   4.0604287993e+00  0.009251474  0.008658553 -70.84 0.0004690196    1.082    0.076
        41  -7.7868     19.1906    236.3863   2.9295418401e+02   4.9281078880e+00   0.00984968  0.005742022  38.31  0.000616397    1.709    0.415
        42  -9.3510    109.0569    234.5672   2.9189756647e+02   4.4309477730e+00    0.0240196   0.01164967  41.43  0.002089288    2.110    0.526
        43  -8.3013     99.7862    234.6053   2.9200564937e+02   4.4840646648e+00   0.01283149  0.008370092  75.61 0.0009457167    2.114    0.527
        44  -8.9534     79.0766    234.6203   2.9224670570e+02   4.6034683265e+00    0.0166676   0.01018532  55.03  0.001260931    1.963    0.491
        45  -9.1801      8.2906    235.0025   2.9307283735e+02   5.0069199662e+00  0.009466209  0.008733135 -57.87 0.0006512275    1.072    0.067
        46  -8.2951    122.9580    234.0595   2.9173283306e+02   4.3565029823e+00   0.01094205  0.007671255  64.60 0.0007632149    1.740    0.425
        47  -9.0237     68.3868    232.6403   2.9235931327e+02   4.6881716349e+00   0.02491261   0.01218492  58.03  0.001893442    3.195    0.687
        48  -8.3635    194.4790    233.0719   2.9089539760e+02   3.9540171021e+00   0.01070761  0.008970567  57.36 0.0007436638    1.284    0.221
        49  -8.5031    144.9952    233.4788   2.9147306592e+02   4.2357982449e+00   0.01647391  0.007305169  56.78  0.001110192    3.972    0.748
        50  -8.5483    139.8956    230.1320   2.9151239888e+02   4.3041941835e+00   0.01523665   0.00899219  52.02 0.0009908507    1.976    0.494
        51  -8.2688    132.7179    233.1435   2.9161384792e+02   4.3107135468e+00   0.01057413  0.008288253  80.05 0.0009737972    1.497    0.332
        52  -9.2591    236.0205    230.3834   2.9039677013e+02   3.7444300016e+00    0.0183161   0.01129917 -62.97 0.0008658534    1.615    0.381
        53  -9.3561    186.4755    230.6562   2.9097397184e+02   4.0284455533e+00   0.01725888   0.01118192  70.20   0.00128715    2.098    0.523
        54  -8.0010    158.1447    232.1841   2.9131243608e+02   4.1747480263e+00  0.009328295  0.007731766  67.13 0.0005696512    1.345    0.256
        55  -8.2533     92.3719    231.4434   2.9207307252e+02   4.5636442778e+00   0.01291979  0.008071099  61.28 0.0009498075    2.061    0.515
        56  -8.7803      1.9634    231.2853   2.9312440996e+02   5.0865399801e+00   0.01199334  0.008970615  74.70 0.0007310667    1.616    0.381
        57  -9.1174    151.4794    228.9770   2.9137079101e+02   4.2505904629e+00   0.01563191   0.01072292  79.51  0.001181299    1.913    0.477
        58  -9.2527    148.6914    224.6822   2.9137756965e+02   4.3166329388e+00   0.01758993   0.01211649  78.09  0.001200137    1.897    0.473
        59  -8.4288    229.9752    229.0435   2.9045895491e+02   3.7950453821e+00   0.01088184  0.007716952  63.36 0.0008357939    1.695    0.410
        60  -8.8049    162.5001    228.0345   2.9123701580e+02   4.1977510965e+00   0.01603984   0.00993018  56.14   0.00126471    1.957    0.489
        61  -8.8599    128.0076    227.3602   2.9163413053e+02   4.4051682081e+00   0.01620578   0.01083307  64.33  0.001167605    1.886    0.470
        62  -8.3634    120.2133    228.0410   2.9172886204e+02   4.4423228375e+00   0.01350753   0.00760962  52.95   0.00104394    2.147    0.534
        63  -9.6248    225.4204    221.7263   2.9046808201e+02   3.9064231128e+00   0.01680701    0.0123107 -71.51  0.001195589    1.438    0.305
        64  -8.6801    206.1380    225.8908   2.9071699650e+02   3.9698587647e+00   0.01646431   0.00904414 -75.77  0.001132331    2.237    0.553
        65  -7.9649     49.7371    227.1444   2.9254366329e+02   4.8596231096e+00   0.01197573  0.006464197  62.47 0.0009580706    2.848    0.649
        66  -8.8925     38.1654    226.5306   2.9267471241e+02   4.9334477669e+00    0.0163861  0.008173687 -56.79 0.0008576783    1.905    0.475
        67  -8.4441    199.8975    226.1973   2.9079134127e+02   4.0024685478e+00   0.01009581  0.008821159  63.51 0.0006341804    1.233    0.189
        68  -8.8481    216.5735    223.8305   2.9058343542e+02   3.9332891949e+00    0.0163457   0.01131093  78.86   0.00110046    1.883    0.469
        69  -8.8232    180.7945    224.5569   2.9100355621e+02   4.1322101171e+00   0.01447027  0.009735886  65.44 0.0009875087    1.883    0.469
        70  -8.9449    104.8736    223.9182   2.9188274504e+02   4.5789042895e+00   0.01699141   0.01148861  85.29  0.001665635    1.938    0.484
        71  -8.8587     94.0762    224.3742   2.9201110732e+02   4.6359813262e+00   0.01850534   0.01106062  63.32  0.001661619    2.305    0.566
        72  -8.6549    173.1638    223.4012   2.9108535793e+02   4.1898345740e+00   0.01269054  0.009817444  69.59 0.0006297534    1.512    0.339
        73  -8.0882    114.0364    224.0965   2.9177719509e+02   4.5238783771e+00    0.0107035  0.007664103  62.68 0.0008058356    1.659    0.397
        74  -8.0528     60.2481    224.2478   2.9240406972e+02   4.8326965713e+00   0.01438465  0.006482776  47.09  0.001162246    2.578    0.612
        75  -9.2507    160.3245    221.2581   2.9122183806e+02   4.2890828392e+00   0.02676159    0.0102743  47.69  0.001833482    3.333    0.700
        76  -8.5773    140.3491    222.9840   2.9146445741e+02   4.3846396190e+00   0.01224919  0.008561176  54.11 0.0009777022    1.606    0.377
        77  -9.1403    239.0656    221.3968   2.9030764104e+02   3.8311028762e+00   0.01237908  0.009895425 -74.77 0.0006312465    1.322    0.243
        78  -9.3524    192.3689    221.3692   2.9084996983e+02   4.1021791047e+00   0.01620451   0.01169036  73.08  0.001110659    1.725    0.420
        79  -8.5095    202.5974    220.3008   2.9072471148e+02   4.0553068053e+00   0.01174223  0.008225895 -63.70 0.0006494949    1.428    0.300
        80  -8.5777     82.9705    220.7714   2.9211888192e+02   4.7419963839e+00   0.01469125  0.008875347  63.94  0.001262066    2.274    0.560
        81  -7.9905     73.2217    220.8243   2.9223266709e+02   4.7976532404e+00   0.01150912  0.006383704  64.09 0.0009367323    2.760    0.638
        82  -8.0712     27.6170    221.2155   2.9276589948e+02   5.0560136139e+00  0.009828869  0.005733673 -51.62 0.0009480328    1.663    0.399
        83  -9.0947    120.2078    219.0666   2.9167538392e+02   4.5466646667e+00   0.02019573   0.01202114  67.11  0.001692633    2.449    0.592
        84  -9.0911    249.8268    218.8176   2.9016725717e+02   3.7986099171e+00    0.0157197  0.008256267  54.64  0.001326261    2.498    0.600
        85  -8.4383    210.1665    219.0055   2.9062901291e+02   4.0264717991e+00   0.01211269   0.01054438  80.51  0.000710214    1.260    0.206
        86  -9.2776    132.7851    215.8992   2.9151015082e+02   4.5107377965e+00   0.02605099   0.01432719  69.52  0.002044429    3.136    0.681
        87  -8.3356     62.0706    217.4169   2.9234217477e+02   4.9016080137e+00   0.01331967  0.008816474  87.04  0.001151087    2.001    0.500
        88  -9.0645     51.5816    217.4337   2.9246438645e+02   4.9619016508e+00   0.01458696   0.01014687 -84.36 0.0008595531    1.716    0.417
        89  -8.1882      5.5183    218.4882   2.9300698940e+02   5.2149173600e+00  0.006642712  0.006345986 -30.89 4.579886e-05    1.047    0.045
        90  -8.2114    179.2903    217.6647   2.9097985060e+02   4.2209929142e+00  0.006868935  0.005025111  65.98 0.0003798546    1.635    0.388
        91  -8.6896    169.2414    216.3771   2.9108898964e+02   4.2941600739e+00   0.01401152  0.009289316  60.66 0.0007683177    1.850    0.460
        92  -8.6686    142.9051    216.7494   2.9139750248e+02   4.4423039826e+00   0.01403641   0.01035479  76.53  0.001304242    1.665    0.399
        93  -7.8452    111.9660    217.4760   2.9176179239e+02   4.6127996476e+00  0.009709431  0.004801769  49.06 0.0008078334    2.389    0.581
        94  -8.5838     18.4626    216.2368   2.9284287863e+02   5.1666153976e+00    0.0159403  0.006730767 -66.19  0.001098407    2.519    0.603
        95  -8.8956    232.5108    214.5480   2.9034277477e+02   3.9486465113e+00   0.01632108   0.01168024 -79.77  0.001066236    1.587    0.370
        96  -8.4732    185.6594    214.3542   2.9088601947e+02   4.2225476563e+00   0.01176575  0.008155352 -79.90 0.0007284831    1.663    0.399
        97  -8.1705    154.2439    215.2133   2.9125644300e+02   4.3945253735e+00  0.009157582  0.007590763  69.99 0.0004755007    1.353    0.261
        98  -9.0074     93.5189    214.2769   2.9195739256e+02   4.7565812029e+00   0.02306906  0.009872732  48.82  0.001771925    2.937    0.659
        99  -9.5897    214.0591    211.7630   2.9054045848e+02   4.0880115819e+00   0.02383129   0.01780628  85.44  0.002008356    1.613    0.380
       100  -9.3274     73.4889    212.2105   2.9217822895e+02   4.8962586873e+00   0.03116849   0.01300639  55.03  0.002035623    4.278    0.766
       101  -8.4666    224.7800    212.3067   2.9041915839e+02   4.0195164238e+00   0.01137318  0.008874846 -81.46 0.0008269461    1.418    0.295
       102  -8.6358    161.7980    212.4420   2.9115203165e+02   4.3829880576e+00   0.01252581  0.009802348  71.01 0.0007148223    1.489    0.328
       103  -8.9124    204.4058    211.2266   2.9064942382e+02   4.1502174372e+00   0.01444765   0.01060713 -87.47 0.0008870298    1.611    0.379
       104  -9.3884    175.5439    210.2910   2.9097933145e+02   4.3283617421e+00   0.01999102   0.01211799  70.65  0.001376807    2.440    0.590
       105  -8.9945      8.2271    211.8294   2.9293586130e+02   5.2767709177e+00   0.01628485   0.00803423  62.40  0.001158518    3.678    0.728
       106  -8.2836      5.8595    208.0332   2.9294086383e+02   5.3345385102e+00   0.01083103  0.007862013  67.03 0.0006332012    1.662    0.398
       107  -8.5140    192.4531    210.5835   2.9078449926e+02   4.2269777752e+00   0.01310001  0.008580063  74.72  0.001174891    2.096    0.523
       108  -8.7459    148.0450    210.5109   2.9130045342e+02   4.4850524865e+00   0.01383756  0.009746275  74.00  0.001025995    1.806    0.446
       109  -8.8669    116.4789    210.4246   2.9166720037e+02   4.6686721843e+00   0.01882871   0.01033042  54.62  0.001141658    2.313    0.568
       110  -9.3582    236.6823    207.8580   2.9025428106e+02   4.0021189141e+00    0.0224242   0.01427162 -73.56  0.001736653    1.749    0.428
       111  -8.4255     85.6466    209.7083   2.9202178302e+02   4.8551610522e+00   0.01354238  0.008670129  64.79  0.001099215    2.049    0.512
       112  -8.4128     46.4484    209.9213   2.9247942160e+02   5.0788467008e+00  0.009593233  0.005728446  82.88 0.0008077584    2.591    0.614
       113  -8.0926     32.3050    210.6342   2.9264835828e+02   5.1520575688e+00  0.007076467  0.004979372  65.95 0.0007036409    1.743    0.426
       114  -8.1945    126.1659    208.6350   2.9154379511e+02   4.6334531580e+00   0.01104134  0.008928304 -82.41  0.000628006    1.353    0.261
       115  -9.4902    246.3689    207.3470   2.9013873030e+02   3.9518370438e+00   0.01419976   0.01158642 -75.70 0.0006523969    1.294    0.227
       116  -8.0397    156.4345    208.2028   2.9118907970e+02   4.4633028952e+00  0.009280377  0.006448578 -81.95 0.0008918255    1.688    0.408
       117  -8.0487    139.0434    208.0353   2.9139038311e+02   4.5659194788e+00   0.01086107  0.007695908  64.84 0.0006726212    1.713    0.416
       118  -9.1586     99.4040    206.1228   2.9184025586e+02   4.8173714698e+00   0.01806464   0.01147654  69.33  0.001253768    2.168    0.539
       119  -8.6366     57.0774    206.0832   2.9233279412e+02   5.0621874220e+00    0.0181995   0.00992917  61.54  0.001503543    2.720    0.632
       120  -8.0607     12.2298    206.9731   2.9286036605e+02   5.3102154095e+00  0.008870365  0.005469173 -63.48 0.0007701027    1.619    0.382
       121  -8.2773    109.1275    205.2795   2.9172204817e+02   4.7709773250e+00   0.01223564  0.008230684  76.54 0.0006726567    1.986    0.497
       122  -8.6942    227.1397    203.5695   2.9033945113e+02   4.1072820899e+00   0.02039564    0.0100239 -37.20  0.001688342    2.527    0.604
       123  -9.2925    194.9108    203.5172   2.9071366537e+02   4.2948106667e+00    0.0170243    0.0141361  86.48  0.001355947    1.349    0.259
       124  -9.2727    192.3950    197.3772   2.9070617765e+02   4.3807156443e+00   0.01867372   0.01297522  77.84  0.001267423    1.867    0.464
       125  -9.0800    183.8263    203.9831   2.9084531438e+02   4.3536501755e+00   0.01626336   0.01131865  58.88 0.0009839734    1.686    0.407
       126  -8.4616     24.6020    204.8122   2.9270341648e+02   5.2641233796e+00  0.009504638   0.00641223 -79.57 0.0005579385    1.720    0.419
       127  -9.4393    250.1044    202.0080   2.9006338176e+02   3.9921325666e+00   0.01990763  0.009886902 -63.61  0.001333551    2.025    0.506
       128  -9.5946    163.9599    203.0952   2.9107102585e+02   4.4790688049e+00   0.02340635   0.01138537  46.07  0.001116239    2.283    0.562
       129  -8.5278    131.1393    203.9521   2.9145796153e+02   4.6591076985e+00    0.0142319  0.008730744  63.22  0.000949174    2.188    0.543
       130  -8.2412     41.3199    202.9919   2.9249787828e+02   5.1889801524e+00   0.01079374  0.005459742  88.45 0.0007047547    4.268    0.766
       131  -8.0190     17.4941    203.5201   2.9277851306e+02   5.3200714024e+00  0.006588941  0.006401063  65.31 0.0003021803    1.059    0.055
       132  -9.3389    243.0830    200.7317   2.9013727435e+02   4.0477069111e+00   0.01713593   0.00979293 -65.15 0.0008038028    1.785    0.440
       133  -8.1197    221.9878    201.4432   2.9038657593e+02   4.1618633389e+00   0.01296702  0.009271853 -87.26  0.001340113    1.682    0.405
       134  -8.3906    211.0419    202.0140   2.9051718203e+02   4.2187300768e+00   0.01084507  0.007672332  64.25  0.000520141    1.712    0.416
       135  -8.9780    140.6344    201.1247   2.9133059222e+02   4.6370214941e+00   0.01849774   0.01121355  61.88    0.0012274    2.199    0.545
       136  -8.3838     79.8417    201.4778   2.9204028401e+02   4.9843647250e+00   0.01285981  0.007864721  66.82  0.001154689    2.296    0.565
       137  -8.4811     48.1612    202.1743   2.9241333691e+02   5.1590520266e+00    0.0139971  0.007910039  55.46   0.00124596    2.238    0.553
       138  -9.3480    236.8599    198.0820   2.9019368291e+02   4.1145903371e+00   0.01942145   0.01187291 -69.07  0.001477877    1.737    0.424
       139  -9.4275    149.4931    198.6880   2.9121296615e+02   4.6140565975e+00   0.02043092   0.01271564  71.04   0.00136311    2.300    0.565
       140  -8.9017    123.9799    199.3072   2.9151353445e+02   4.7545103821e+00   0.01540111   0.01024103  82.24  0.001480925    2.028    0.507
       141  -9.4173    113.0662    198.7684   2.9163733850e+02   4.8238886625e+00   0.02124102   0.01244683  56.98  0.001686539    2.165    0.538
       142  -9.1196     88.8206    198.8248   2.9191991950e+02   4.9633541923e+00   0.01845922    0.0119365  79.48  0.001421031    2.162    0.537
       143  -8.4978    177.1833    199.0811   2.9089324128e+02   4.4490959977e+00    0.0124584  0.007668209  53.66 0.0006792611    1.907    0.476
       144  -8.5392    202.3349    197.6318   2.9059215260e+02   4.3201222854e+00   0.01284801   0.01022454 -85.36 0.0009073732    1.404    0.288
       145  -8.9350     61.5431    197.0687   2.9222707132e+02   5.1412386610e+00   0.02079471   0.01224364  68.02  0.001586823    2.538    0.606
       146  -8.6707    215.9414    195.8276   2.9042321709e+02   4.2621532116e+00   0.01399462  0.009855561 -84.94 0.0009642847    1.696    0.410
       147  -8.8599     12.7760    197.5058   2.9279768351e+02   5.4171659781e+00   0.01591166  0.009396276  89.34  0.001375573    2.513    0.602
       148  -8.8499    185.2383    195.0504   2.9077546624e+02   4.4492346214e+00   0.01294994   0.01037402  82.45 0.0006569555    1.440    0.306
       149  -8.2446    132.9329    196.1205   2.9139030971e+02   4.7397483734e+00    0.0102959   0.00876655  67.89 0.0006134708    1.292    0.226
       150  -7.7040     36.2900    196.6582   2.9251874070e+02   5.2916139544e+00  0.006893021  0.005017379  66.27 0.0004899256    1.649    0.394
       151  -9.6068    245.7549    193.0500   2.9006023298e+02   4.1213731610e+00    0.0222796   0.01290828 -55.84  0.001442616    1.660    0.398
       152  -8.8553    224.4689    193.9560   2.9031292355e+02   4.2344075986e+00   0.02026331   0.01055279 -69.88  0.001400653    2.137    0.532
       153  -7.2361    209.3066    195.6738   2.9049940193e+02   4.3024281682e+00  0.006926115   0.00500348  63.92 0.0006446685    1.650    0.394
       154  -8.9817    161.1733    194.5753   2.9105250258e+02   4.5942031404e+00   0.01452728   0.01000901  64.32  0.001012334    1.790    0.441
       155  -8.9446     43.6769    193.4134   2.9241337117e+02   5.2867718436e+00   0.01996575   0.01212285  71.79  0.001764979    2.443    0.591
       156  -8.8372    231.0765    193.7778   2.9023508844e+02   4.1981305784e+00    0.0136777  0.009448026 -55.30  0.001162837    1.408    0.290
       157  -8.5744     77.0664    193.9438   2.9202766620e+02   5.0879784547e+00   0.01192101   0.01020963  73.81 0.0006131127    1.291    0.225
       158  -7.8323    205.4580    191.9392   2.9052177977e+02   4.3681252019e+00  0.009075094   0.00569404  80.30  0.000565147    2.323    0.569
       159  -8.1906    198.9577    191.9641   2.9059749081e+02   4.4055370558e+00   0.01066664  0.007711194  64.69 0.0006001102    1.656    0.396
       160  -8.2176    178.9826    191.7262   2.9082832402e+02   4.5241115854e+00   0.01163969  0.008554651 -84.91 0.0005848608    1.583    0.368
       161  -8.4766    172.3468    191.8108   2.9090600495e+02   4.5615867503e+00   0.01267914  0.009686687  73.97  0.001261827    1.561    0.359
       162  -9.1603    139.5674    190.6533   2.9128043565e+02   4.7648872021e+00   0.01823379   0.01199806  68.54  0.001093353    2.009    0.502
       163  -8.3613     23.1317    192.3602   2.9264642196e+02   5.4173879318e+00    0.0100884  0.005586166  38.23 0.0009471101    1.794    0.443
       164  -8.3503      6.4572    190.9556   2.9283231883e+02   5.5296966368e+00  0.009368352  0.005712397  81.71 0.0006489253    2.464    0.594
       165  -8.3985    148.4964    189.4554   2.9116937603e+02   4.7271127512e+00   0.01189171  0.008530247  66.33 0.0007638651    1.693    0.409
       166  -8.9717    129.3417    188.7468   2.9138804774e+02   4.8462248914e+00   0.01533002   0.01029341  67.45 0.0009112905    1.918    0.479
       167 -10.3804     91.7292    188.5893   2.9182497694e+02   5.0655380992e+00   0.04094606   0.01294743  41.71  0.002895819    3.325    0.699
       168  -8.3405    237.0729    188.3380   2.9013284743e+02   4.2264810547e+00   0.01159885  0.008544096 -50.76 0.0006294735    1.332    0.249
       169  -8.9049    216.4885    187.9796   2.9036987049e+02   4.3501155618e+00    0.0142711   0.01094467 -78.49 0.0008033972    1.426    0.299
       170  -9.3094    156.0150    187.5833   2.9107070354e+02   4.7053231558e+00   0.01718456   0.01063875 -74.97 0.0008102757    1.847    0.459
       171  -9.8593    121.0084    186.9680   2.9147441717e+02   4.9151120904e+00   0.02639178    0.0147301 -88.70  0.002161707    2.832    0.647
       172  -8.8476     34.3024    188.0872   2.9249084116e+02   5.4027297066e+00   0.01780849   0.01066474  76.69  0.001432661    2.594    0.614
       173  -8.0768    242.5340    188.4874   2.9007030771e+02   4.1930413663e+00  0.006545587  0.006442608  72.37 0.0002865831    1.040    0.039
       174  -8.6475    191.5156    187.5256   2.9065745124e+02   4.5002478328e+00   0.01493848  0.009018586  64.74  0.001112514    2.308    0.567
       175  -9.2004     54.7679    186.9440   2.9224562557e+02   5.2980390146e+00   0.02211331     0.013091  67.57  0.001726795    2.492    0.599
       176  -7.9354    230.5085    187.5268   2.9020424838e+02   4.2740057590e+00  0.006606678  0.006386742  64.19 2.896157e-05    1.066    0.062
       177  -8.7720    164.8169    186.9095   2.9096427510e+02   4.6621610240e+00   0.01197747  0.009131033  82.32 0.0006560781    1.568    0.362
       178  -9.1462    109.5837    185.9561   2.9160137113e+02   4.9929477227e+00   0.01875224   0.01206684  71.68  0.001170628    2.145    0.534
       179  -8.8327    249.0982    185.2506   2.8997467575e+02   4.1924999643e+00   0.01689139  0.009591513 -65.49  0.001168173    1.804    0.446
       180  -8.8466    210.1869    184.1960   2.9042045498e+02   4.4306183560e+00   0.01302687  0.009219775 -69.54 0.0005478612    1.474    0.321
       181  -8.7554    202.8516    184.6030   2.9050816069e+02   4.4684464102e+00   0.01283337   0.00885473  89.09 0.0007536444    1.832    0.454
       182  -8.8158    182.8876    184.6574   2.9074061611e+02   4.5835911658e+00   0.01273944  0.009726833 -79.37  0.000794421    1.443    0.307
       183  -8.9623     66.6885    184.3250   2.9209115649e+02   5.2597115237e+00   0.01857699   0.01110028  63.64 0.0009691267    2.317    0.568
       184  -8.5255     11.8362    184.8497   2.9273330685e+02   5.5697477766e+00   0.01576568  0.008203258  83.13  0.001065913    4.192    0.761
       185  -8.9219    224.2651    183.0999   2.9025027466e+02   4.3616469317e+00   0.01905299  0.008205445 -59.49  0.001219053    2.213    0.548
       186  -8.2498    197.2430    183.6179   2.9056746760e+02   4.5124214012e+00   0.01186643   0.00828494 -82.71  0.000615853    1.688    0.408
       187  -9.1868    174.3720    183.1374   2.9083056247e+02   4.6506129143e+00   0.02142288   0.01189895 -64.18  0.001106073    1.817    0.450
       188  -8.1485      2.1373    183.8236   2.9284021045e+02   5.6374829849e+00   0.01264326  0.007073484  35.63  0.001206421    1.755    0.430
       189  -8.8885    241.3279    181.9348   2.9004505705e+02   4.2761136232e+00   0.02143589    0.0117421  66.22  0.001708983    2.997    0.666
       190  -9.1034     44.3768    182.2689   2.9233880440e+02   5.4123165989e+00   0.01759422   0.01259827  86.05  0.001216362    1.732    0.423
       191  -9.2657    147.5134    180.3657   2.9112646612e+02   4.8384269598e+00   0.01851455   0.01285092 -86.88  0.001290471    1.762    0.432
       192  -9.5328     25.6347    178.8841   2.9253700141e+02   5.5596728995e+00   0.03402935   0.01764629  82.18  0.002295356    4.330    0.769
       193  -8.5613    137.5085    178.8976   2.9123412654e+02   4.9134168865e+00   0.01581318   0.01121338 -85.44    0.0013545    1.681    0.405
       194  -9.3943    191.4258    178.3197   2.9060338967e+02   4.6076988916e+00   0.01492829   0.01132608  52.62  0.000553832    1.427    0.299
       195  -8.3679    169.4790    178.5439   2.9085999508e+02   4.7323364081e+00   0.01164233  0.008483467  67.61  0.000795029    1.660    0.397
       196  -9.1910     35.8414    176.6508   2.9240476388e+02   5.5268366279e+00   0.02879437    0.0144113  89.53  0.001922419    4.336    0.769
       197  -9.7037    248.2156    176.4832   2.8993238390e+02   4.2993978173e+00   0.02156685   0.01443967  82.90  0.002095872    2.002    0.500
       198  -8.7254    231.1951    176.9341   2.9013281257e+02   4.3930063685e+00   0.01295591  0.008965197 -81.06 0.0006514831    1.687    0.407
       199  -8.2767    217.7539    177.6248   2.9029314886e+02   4.4630145427e+00   0.01281832  0.008422813  76.26   0.00121212    2.091    0.522
       200  -8.6125    205.3111    177.8320   2.9043902481e+02   4.5328154691e+00     0.012822  0.009808644  75.33  0.001210279    1.561    0.359
       201  -8.6037    129.2798    177.4460   2.9132122985e+02   4.9779153155e+00   0.01475446  0.008809406  68.95  0.001060657    2.487    0.598
       202  -8.1555     97.2545    177.7460   2.9169589808e+02   5.1596531299e+00   0.01098933  0.006978123 -28.16  0.001046516    1.932    0.482
       203  -8.8472     89.0212    176.9726   2.9178716497e+02   5.2162216631e+00   0.01444112   0.01031223  80.28 0.0008025054    1.767    0.434
       204  -9.0906    183.1191    176.0015   2.9068611728e+02   4.6827974685e+00   0.01622484   0.01063439 -75.54  0.001045778    1.721    0.419
       205  -9.2971    159.0126    175.3646   2.9096274402e+02   4.8299248072e+00   0.02127425   0.01185743  60.57  0.001103935    2.547    0.607
       206  -9.3539    104.4838    174.9410   2.9159495813e+02   5.1504658710e+00   0.02556546   0.01241922  56.06  0.001930867    3.031    0.670
       207  -9.9344     57.4362    173.2697   2.9213299182e+02   5.4416289909e+00   0.03947342   0.02048215  77.30  0.002644633    4.408    0.773
       208  -8.7858     12.8120    176.7180   2.9267351857e+02   5.6586876664e+00   0.01307583  0.008531851  76.78    0.0012308    2.114    0.527
       209  -8.8103     74.4590    160.5120   2.9185851076e+02   5.4916800304e+00   0.01328632  0.008484088 -21.41 0.0008413249    2.041    0.510
       210 -10.3654     76.6302    173.0953   2.9190834423e+02   5.3328678038e+00   0.03870017    0.0200513 -86.77  0.001835918    3.356    0.702
       211  -9.6544     74.6733    167.0011   2.9189476025e+02   5.4150100862e+00   0.02551071   0.01275521  87.95  0.001646232    4.652    0.785
       212  -7.6517    241.6083    174.3043   2.8999607213e+02   4.3630673341e+00  0.007263256  0.004808809  58.36 0.0007010868    1.812    0.448
       213  -7.9378    224.4702    174.0827   2.9019387212e+02   4.4651564934e+00     0.010056  0.006536418 -65.05 0.0007941553    1.558    0.358
       214  -8.5272    193.9221    172.8364   2.9054153072e+02   4.6569068952e+00   0.01092706  0.008835956 -28.44  0.001232585    1.326    0.246
       215  -9.5578    175.8116    171.9119   2.9074663666e+02   4.7726723725e+00   0.02284652   0.01214477 -60.77  0.001474353    1.836    0.455
       216  -8.3062    142.9870    172.9562   2.9113483421e+02   4.9507358947e+00   0.01076403  0.007724871  63.33 0.0007399013    1.661    0.398
       217  -8.7537    134.8478    172.0768   2.9122431483e+02   5.0080809960e+00   0.01040071  0.008891043  66.13 0.0007715769    1.280    0.219
       218  -9.5055    121.4929    170.5381   2.9137059207e+02   5.1032565705e+00   0.01817402   0.01252482  77.01  0.001084692    1.894    0.472
       219  -9.2875     45.1368    170.8998   2.9226216498e+02   5.5401193555e+00   0.02155742   0.01240759 -80.50  0.001499542    2.259    0.557
       220  -8.8810    229.9967    169.4677   2.9010199399e+02   4.4866504595e+00   0.02116764  0.009733199 -69.96   0.00173319    2.525    0.604
       221  -8.3374    205.7992    170.4805   2.9038931906e+02   4.6153580680e+00   0.01264301  0.008592624  89.60 0.0008470998    1.879    0.468
       222  -8.6236    198.5492    170.5240   2.9047387750e+02   4.6569208707e+00   0.01295301    0.0100716  62.73  0.001041197    1.461    0.316
       223  -8.2565    237.1818    169.8602   2.9002086109e+02   4.4403675955e+00   0.01018117  0.008789421  69.44 0.0006116466    1.269    0.212
       224  -9.1873    167.2086    168.7214   2.9082762624e+02   4.8596078200e+00   0.01567888   0.01032993  61.66  0.001022031    1.889    0.471
       225  -8.6189    149.7692    169.8381   2.9103724643e+02   4.9476856147e+00   0.01206667  0.009026706  84.71 0.0007422095    1.612    0.380
       226  -8.4542    250.5552    172.7439   2.8988279588e+02   4.3292110965e+00   0.01238366  0.006530451 -63.32 0.0006290494    1.899    0.473
       227  -8.5458    218.9504    168.4874   2.9022449833e+02   4.5621688160e+00   0.01181836  0.009278958  86.63 0.0005696509    1.478    0.323
       228  -8.2978     88.8176    168.7088   2.9174018781e+02   5.3134565860e+00   0.01264231  0.008360025  74.72 0.0008585713    2.050    0.512
       229  -8.1223    211.4730    168.0918   2.9030904748e+02   4.6101682449e+00   0.01030345  0.006500817 -63.40 0.0008029126    1.585    0.369
       230  -9.0198    184.9667    166.8398   2.9060977605e+02   4.7785021562e+00    0.0141668  0.009494854 -70.67  0.000736471    1.586    0.370
       231  -8.5902    111.6561    167.6417   2.9146782028e+02   5.1938254579e+00   0.01352751  0.008805974  66.83 0.0009966418    2.024    0.506
       232  -9.0738    191.9370    166.4460   2.9052634733e+02   4.7426445226e+00   0.01618788  0.009391192 -66.20 0.0006481425    1.778    0.437
       233 -10.1230     95.1192    163.1824   2.9163377309e+02   5.3412738252e+00     0.040194   0.01927679  63.32  0.002681382    4.307    0.768
       234  -9.0203     20.5633    166.2756   2.9252097338e+02   5.7354818079e+00   0.01747886   0.00993284  55.71  0.001227014    2.228    0.551
       235  -9.8991    136.5868    164.4751   2.9115860869e+02   5.0863457641e+00    0.0286591   0.01173396  44.32  0.002145661    2.695    0.629
       236  -8.1115    233.9176    165.1212   2.9003038160e+02   4.5143404074e+00   0.01014561  0.008767797  76.57 0.0005304919    1.275    0.216
       237  -8.7395    159.5003    164.5279   2.9089222349e+02   4.9530009653e+00   0.01264816   0.01068437  79.78 0.0007514906    1.322    0.244
       238  -9.2489     33.4487    163.3820   2.9235354387e+02   5.6948968615e+00   0.02681524   0.01153257  51.26  0.001990553    3.215    0.689
       239  -9.5678    246.0670    163.1573   2.8987745356e+02   4.4665620952e+00   0.01337275  0.009612309 -71.24 0.0006460827    1.468    0.319
       240  -8.1417    239.9529    164.3579   2.8995568209e+02   4.4881459595e+00   0.00914848   0.00851994  32.67  0.000591937    1.081    0.075
       241  -8.8046    213.0544    163.7449   2.9026461793e+02   4.6514645512e+00   0.01326409   0.01046768  79.87 0.0007662978    1.481    0.325
       242  -8.6456    205.0135    163.2103   2.9035490085e+02   4.7043454095e+00   0.01185792  0.009003302  77.05 0.0005393531    1.584    0.369
       243  -8.4114     57.5890    163.9862   2.9207582096e+02   5.5486736305e+00   0.01978262  0.008870825  12.79  0.001460833    3.263    0.693
       244  -9.5797      3.4164    162.3082   2.9269720231e+02   5.8803033385e+00   0.02513031    0.0123118  51.10  0.001793878    2.554    0.608
       245  -7.7507    222.0374    162.0086   2.9014979141e+02   4.6194712855e+00   0.00811643  0.007369658 -59.74 0.0003815776    1.092    0.084
       246  -8.8871    151.5618    161.0022   2.9096351355e+02   5.0399623196e+00   0.01409482   0.01010145  65.24 0.0008774404    1.685    0.407
       247  -9.0444    177.6226    160.6083   2.9065789292e+02   4.8934757188e+00   0.01514948   0.01092025  57.90  0.001076086    1.587    0.370
       248  -8.7888     60.8613    160.3286   2.9201585987e+02   5.5723107707e+00   0.01756406   0.01068288  58.06  0.001271387    2.068    0.516
       249  -8.6814    227.4305    159.1362   2.9006989152e+02   4.6214996489e+00   0.01459136   0.01009313  80.51  0.001040985    1.883    0.469
       250  -9.6939    105.5950    157.7544   2.9147931166e+02   5.3437912757e+00   0.02270991   0.01529162  83.07  0.001137498    1.973    0.493
       251  -9.6101    250.2011    157.8222   2.8979743748e+02   4.5044632707e+00   0.01612039  0.009364721 -63.59 0.0008487961    1.726    0.421
       252  -8.2218    237.1349    158.8981   2.8995568928e+02   4.5678945713e+00   0.01038046  0.008743115  67.30 0.0006618842    1.313    0.238
       253  -8.5079    196.7620    158.2173   2.9042094116e+02   4.8102164213e+00    0.0125312  0.009479245  59.74 0.0008249252    1.498    0.333
       254  -8.4858    128.1974    158.9341   2.9122314030e+02   5.1993021500e+00   0.01314327  0.009431047  70.96 0.0007898494    1.729    0.422
       255  -8.4404    188.0320    157.8354   2.9052019139e+02   4.8653048725e+00   0.01183385    0.0093157 -67.49 0.0005731425    1.292    0.226
       256  -9.3105    167.5670    157.2019   2.9075449529e+02   4.9913500717e+00   0.01673807   0.01135734  69.04  0.001112339    1.901    0.474
       257  -8.0919     79.0785    158.5154   2.9179276407e+02   5.4882079280e+00   0.01022237  0.006555727  24.83  0.001029507    1.583    0.368
       258  -8.6143    217.9297    156.3736   2.9016376324e+02   4.7087486295e+00   0.01457193  0.009440263 -85.71  0.001002128    1.972    0.493
       259  -9.0499    157.6706    156.1478   2.9086335678e+02   5.0609613868e+00   0.01505161   0.01105917  84.52 0.0008623202    1.666    0.400
       260  -9.4782    119.4876    155.2294   2.9130240769e+02   5.2927636296e+00   0.02024321   0.01299647  87.71  0.001408334    2.127    0.530
       261  -9.3779     49.7793    155.4977   2.9211617606e+02   5.6924064196e+00   0.02258718   0.01224725  58.98  0.001736655    2.603    0.616
       262  -8.5853    144.5845    154.9707   2.9100863660e+02   5.1504602910e+00   0.01453479   0.01011051  67.11 0.0008655448    1.795    0.443
       263  -9.3462     81.6135    154.7827   2.9174092875e+02   5.5169508108e+00   0.02260952   0.01300926  60.87  0.001727156    2.397    0.583
       264  -8.8073     33.6321    156.4568   2.9231010589e+02   5.7743530534e+00   0.01782088   0.00609439  29.00  0.001351498    2.792    0.642
       265  -8.6543    242.7757    155.1798   2.8986785348e+02   4.5782825695e+00   0.01053429  0.007996249  18.21 0.0003594159    1.373    0.272
       266  -8.0832    239.7091    153.3276   2.8989237588e+02   4.6176004528e+00   0.01297867  0.008916456  65.40 0.0007870856    1.815    0.449
       267  -9.0089    238.3466    150.1718   2.8988928100e+02   4.6621480925e+00   0.01521425  0.008801695   1.09  0.001310425    2.493    0.599
       268  -8.0496    204.7836    155.3544   2.9031050134e+02   4.7969059428e+00  0.008974776  0.008084769 -75.86 0.0004600892    1.145    0.126
       269  -9.6534     67.9321    153.7422   2.9189413718e+02   5.6080591418e+00   0.02134657   0.01296395  63.32  0.001404954    2.233    0.552
       270  -8.0605    232.7075    154.0728   2.8997820618e+02   4.6496292061e+00   0.01037346   0.00821783  88.35 0.0006072363    1.449    0.310
       271  -9.7891    132.8287    153.0144   2.9113379982e+02   5.2412747154e+00   0.02048934   0.01480972  64.21  0.001339024    1.651    0.394
       272  -9.4554    133.4780    148.4946   2.9109919435e+02   5.2900315278e+00   0.01853252   0.01107137 -56.75   0.00183736    1.615    0.381
       273  -8.5668    151.7762    152.9514   2.9091283078e+02   5.1322533348e+00   0.01080124  0.007416565  77.02 0.0008901659    1.909    0.476
       274  -9.1730     20.0645    152.9776   2.9244751882e+02   5.8929620752e+00   0.01054668  0.007719204  63.33 0.0005674782    1.608    0.378
       275  -9.2775     29.2348    150.7206   2.9232715118e+02   5.8663786068e+00   0.02410391   0.01389778  66.55  0.002054428    2.619    0.618
       276  -9.4679    248.7970    149.4498   2.8976353135e+02   4.6097958286e+00   0.01536391   0.01048409 -59.34 0.0008171503    1.435    0.303
       277  -8.6304    243.0393    150.4038   2.8983614594e+02   4.6321857036e+00   0.01225554   0.00931033 -87.69  0.001128151    1.527    0.345
       278  -8.9314    189.5553    150.1736   2.9045656967e+02   4.9454491770e+00    0.0143393    0.0103523  75.20 0.0007817965    1.731    0.422
       279  -7.9124    182.4064    151.2192   2.9054600029e+02   4.9747828994e+00  0.009165503  0.006408147 -80.90 0.0005059325    1.658    0.397
       280  -8.5912    162.1814    150.7460   2.9077851467e+02   5.0975670244e+00   0.01135466  0.009077576 -82.57 0.0006926059    1.377    0.274
       281  -8.5487     98.3486    150.7886   2.9152208167e+02   5.4666495255e+00   0.01241628  0.009560405  81.04 0.0008576803    1.542    0.352
       282  -8.2437    213.1030    149.9360   2.9018128833e+02   4.8115211474e+00   0.01005162  0.008710496  67.35 0.0004386976    1.257    0.205
       283 -10.0174     39.6752    147.8852   2.9218852225e+02   5.8391663156e+00   0.02606396   0.01476868  67.69  0.002003525    2.787    0.641
       284  -8.8689      3.0195    149.7937   2.9262726729e+02   6.0280879153e+00   0.01410703  0.008287622  80.88  0.001128932    2.731    0.634
       285  -8.5557    198.8164    149.0906   2.9034235783e+02   4.9042802075e+00   0.01031204  0.008738759  69.46 0.0005773737    1.306    0.234
       286  -9.9211     89.0637    145.4868   2.9159856884e+02   5.5819409665e+00   0.03880112   0.02171609 -81.56  0.003370064    2.438    0.590
       287  -9.0811    233.3024    147.7231   2.8993321433e+02   4.7198816997e+00   0.01272769   0.01035325 -54.67 0.0006523807    1.206    0.171
       288  -9.1245     78.1471    147.2928   2.9173657175e+02   5.6240299965e+00    0.0131366  0.009292691  60.81 0.0006968491    1.669    0.401
       289 -10.9526     54.9982    143.4854   2.9198363232e+02   5.8019321816e+00   0.04934149   0.03151733 -77.79  0.003237211    1.831    0.454
       290  -7.9584    223.2708    146.9904   2.9004541892e+02   4.7866664458e+00  0.009014148  0.008496717 -72.85 0.0003845867    1.077    0.072
       291 -10.2180    149.0028    145.0060   2.9089754987e+02   5.2406296314e+00   0.02615015   0.01537377  64.08  0.001640315    2.419    0.587
       292 -10.1456    139.1053    143.7190   2.9100508348e+02   5.3129236827e+00   0.03908089   0.01662664 -65.85  0.002594166    2.489    0.598
       293 -10.3514    106.5875    143.9738   2.9138534960e+02   5.4981985774e+00   0.03571559   0.02114386  77.83  0.002588025    2.693    0.629
       294  -9.5640     13.3676    146.4814   2.9248686351e+02   6.0070430097e+00    0.0179311   0.01295991  62.07  0.001258976    1.628    0.386
       295  -8.6260    240.1418    145.3557   2.8983953331e+02   4.7076170943e+00    0.0121738  0.009633129 -79.24  0.000640183    1.373    0.272
       296  -7.9985    206.7830    146.3666   2.9023338002e+02   4.8896625836e+00  0.008994607  0.008258604 -79.32 0.0005938925    1.127    0.112
       297  -8.3181    175.7949    146.2043   2.9059288411e+02   5.0713793721e+00   0.01028396   0.00869962  62.19 0.0006696889    1.287    0.223
       298  -9.8215    125.0961    143.0115   2.9116399518e+02   5.4022706661e+00   0.02319183   0.01441698  76.66  0.001478056    2.370    0.578
       299 -11.2026     69.3930    141.2523   2.9180250311e+02   5.7447963771e+00   0.03493924   0.02436257 -57.70  0.002673957    1.399    0.285
       300  -9.0003    247.0514    143.8815   2.8975040554e+02   4.6845673601e+00   0.01125005   0.00925438 -62.66 0.0005304674    1.210    0.174
       301  -8.2557    194.4455    143.9502   2.9036238830e+02   4.9893423592e+00  0.008988244  0.005679724  80.01 0.0004584653    2.286    0.562
       302  -8.7645    165.6877    143.9907   2.9069724696e+02   5.1557065103e+00   0.01418829  0.009521848  51.86 0.0008385066    1.659    0.397
       303  -7.6870    243.2684    143.6404   2.8979291367e+02   4.7093540240e+00  0.006830984  0.005037928  69.96 0.0003887258    1.643    0.391
       304  -9.1971      2.6304    141.8933   2.9258471403e+02   6.1221743704e+00   0.01851924    0.0116908  69.16  0.001623005    2.193    0.544
       305  -8.3481    182.1558    141.9052   2.9049310962e+02   5.0844089100e+00   0.01020264  0.008655063  65.46 0.0004770387    1.293    0.227
       306  -8.3849    250.3440    141.0580   2.8969521163e+02   4.6981941807e+00  0.009367485  0.008363534 -65.98  0.000577233    1.125    0.111
       307  -7.7077    203.4633    141.4792   2.9024268704e+02   4.9656851631e+00   0.00654297  0.006440877  71.97 0.0001379044    1.040    0.038
       308 -10.5664    133.0876    132.5657   2.9100839134e+02   5.4773549057e+00   0.04722526   0.02728421 -84.41  0.003709623    2.418    0.586
       309  -8.3588    130.1439     97.3567   2.9083174940e+02   5.9033651897e+00   0.01328213  0.006532283  14.58   0.00108485    2.586    0.613
       310 -10.2779    131.4570    119.5040   2.9094916076e+02   5.6385322383e+00    0.0367536   0.01938978  67.39  0.002750743    3.457    0.711
       311 -10.4367    133.3168    109.8496   2.9086965347e+02   5.7398942601e+00   0.03364061   0.01629958 -62.75   0.00218914    2.052    0.513
       312 -10.0554    128.4361    102.0008   2.9087948599e+02   5.8593273175e+00   0.01645968   0.01270224  81.98  0.000809097    1.536    0.349
       313  -8.9885    242.7168    139.4189   2.8977399563e+02   4.7615550073e+00   0.01709629   0.00965477  56.69  0.001513204    2.299    0.565
       314  -9.7301     23.5020    138.3507   2.9232019590e+02   6.0432031619e+00   0.02698705   0.01447218  61.38  0.001999416    2.824    0.646
       315  -7.9098    218.6099    138.7630   2.9005026531e+02   4.9092534454e+00  0.009002191  0.006402452 -77.80 0.0005909705    1.574    0.365
       316  -8.7934    172.4772    138.2826   2.9058403062e+02   5.1826300453e+00    0.0151999   0.01020347  79.81 0.0009914835    2.001    0.500
       317  -8.4290    207.5807    137.9359   2.9017355576e+02   4.9829164130e+00   0.01212416  0.008217951 -82.98 0.0007799413    1.775    0.437
       318  -8.7193    197.6293    137.5078   2.9028673468e+02   5.0456682959e+00   0.01256038  0.009208693  74.51 0.0008203319    1.681    0.405
       319  -8.9117    150.5938    136.4449   2.9082775906e+02   5.3308604684e+00   0.02347139    0.0124777 -12.71  0.001720989    3.583    0.721
       320 -10.4397     83.2116    133.2154   2.9159340324e+02   5.7583733031e+00   0.03123786   0.01735264 -61.77  0.001788348    1.773    0.436
       321  -8.7171     84.3065    123.5112   2.9152260617e+02   5.8648118083e+00   0.01995598    0.0113343 -29.33  0.001758049    2.327    0.570
       322  -8.5874    162.8284    136.3270   2.9068461860e+02   5.2613023543e+00   0.01124314  0.009095303 -83.19 0.0006523802    1.358    0.263
       323  -9.5954     39.0610    136.1006   2.9212534085e+02   5.9796937006e+00   0.01629785   0.01085504  67.66 0.0009389938    1.949    0.487
       324  -9.0183    250.6613    129.8366   2.8962418117e+02   4.8265664967e+00     0.022268  0.006082497 -62.48  0.001484897    3.603    0.722
       325  -8.7660    248.2603    135.3775   2.8968533272e+02   4.7762307053e+00   0.01327154  0.009747857 -60.09 0.0006185579    1.341    0.254
       326  -8.6016    246.9786    130.4493   2.8967064804e+02   4.8408718578e+00     0.013832  0.009469516 -85.73   0.00058772    1.791    0.442
       327  -8.2416    192.1628    135.6017   2.9033889921e+02   5.0995347120e+00   0.01504208  0.005362517 -70.31 0.0009900231    3.836    0.739
       328  -8.0353    187.4717    135.3030   2.9039168660e+02   5.1302323652e+00  0.009112887  0.006511761 -80.78 0.0009416553    1.603    0.376
       329  -8.8513    179.5101    133.8513   2.9047562718e+02   5.1932916298e+00   0.01486364   0.01016986  79.79 0.0008763819    1.925    0.480
       330  -7.9978    237.5523    133.7734   2.8980013783e+02   4.8570976303e+00  0.009179886   0.00646287 -82.01 0.0009367912    1.657    0.397
       331  -7.7077    231.4870    133.9867   2.8987191401e+02   4.8898750373e+00  0.009684362  0.006492906 -62.93  0.000412748    1.486    0.327
       332  -9.2393    112.8172    133.1960   2.9124829230e+02   5.5873891988e+00   0.01613975   0.01138593  65.83 0.0008110988    1.737    0.424
       333  -9.1385    143.0838    131.8206   2.9088751092e+02   5.4280984217e+00    0.0139095   0.01053932  80.63 0.0007976139    1.588    0.370
       334 -10.4826     98.2083    130.1653   2.9140038233e+02   5.7071192071e+00   0.03208334   0.01565102 -66.29  0.001765312    2.152    0.535
       335  -8.8360     98.8480    120.7790   2.9133676437e+02   5.8124794591e+00   0.02441528   0.01304676 -12.04   0.00181052    3.506    0.715
       336  -8.6838    204.8118    130.6738   2.9016220864e+02   5.0833095160e+00   0.01218435  0.008221468  75.15 0.0007550747    1.973    0.493
       337 -10.2720     72.9230    129.1418   2.9168897541e+02   5.8651559179e+00   0.02284689   0.01549589 -84.03  0.001455634    1.787    0.440
       338  -9.8828     12.8733    128.9217   2.9238789189e+02   6.2140120316e+00   0.02875055   0.01684436  80.63  0.002240847    2.758    0.637
       339  -7.8564    220.9170    130.0080   2.8997092378e+02   4.9974813621e+00   0.00781547  0.007709221 -41.84 0.0006616428    1.004    0.004
       340  -8.2117    192.8764    130.2336   2.9029841224e+02   5.1577244431e+00   0.01024925   0.00867075  62.94 0.0006024264    1.290    0.225
       341  -9.3627    168.3589    129.3716   2.9057856342e+02   5.3100090894e+00    0.0143515    0.0109018  85.49 0.0008126781    1.567    0.362
       342  -7.8722      1.9395    130.4426   2.9252449427e+02   6.2592592571e+00  0.009900681  0.004700961  48.30 0.0008071777    2.483    0.597
       343  -8.2451    211.6564    129.1822   2.9007365673e+02   5.0608704617e+00   0.01025226  0.008216041  88.61 0.0006974615    1.421    0.296
       344  -8.0939    161.6714    129.7128   2.9065845846e+02   5.3448328304e+00  0.006895889  0.004957795 -24.98 0.0007012089    1.614    0.381
       345 -10.4978    118.5323    125.0789   2.9113312071e+02   5.6486167324e+00   0.03542718   0.02777978  78.31  0.002573057    1.497    0.332
       346 -10.6869     45.0408    123.8431   2.9198240470e+02   6.0876732374e+00   0.05331669   0.02785592  70.02  0.003825759    3.808    0.737
       347 -10.7376     59.7869    125.0549   2.9181769438e+02   5.9885035758e+00   0.03561105   0.02097905  75.34  0.002724963    2.707    0.631
       348  -8.6673     58.9894    115.5566   2.9177021561e+02   6.1034832557e+00   0.01747241  0.009113991   9.79  0.001447146    2.620    0.618
       349 -10.1355    237.7987    126.3473   2.8975270959e+02   4.9418488158e+00   0.01345333   0.01169946  23.81 0.0004644787    1.160    0.138
       350 -10.1604     28.3283    122.3120   2.9216817342e+02   6.2018194601e+00   0.03797383   0.02050306  73.22  0.002832608    3.529    0.717
       351  -9.0345    179.3206    124.9045   2.9042419952e+02   5.2982856802e+00    0.0126613   0.01039549  51.12 0.0007300079    1.284    0.221
       352  -8.2842    228.4701    125.5085   2.8985611152e+02   5.0058121886e+00   0.01091069  0.006591314 -78.57 0.0008056058    2.025    0.506
       353  -8.4412    188.4556    123.7770   2.9031113241e+02   5.2583561463e+00   0.01243646  0.006699053 -69.54  0.000693289    2.036    0.509
       354  -9.4930    158.8194    121.7943   2.9064420787e+02   5.4533372353e+00   0.01673243   0.01134814  64.43 0.0007313697    1.842    0.457
       355  -7.8708    194.8423    121.8397   2.9022520101e+02   5.2437679369e+00  0.009258781   0.00766634  72.42 0.0004925146    1.362    0.266
       356  -9.0902    172.0412    121.5852   2.9048902767e+02   5.3790707152e+00   0.01183678  0.009301884 -89.75 0.0004269357    1.459    0.314
       357  -9.6330     71.0089    120.1307   2.9165741264e+02   5.9809266946e+00   0.01832719   0.01170277  70.27  0.001218716    2.162    0.537
       358  -8.0818    166.2571    119.9641   2.9054664269e+02   5.4314515662e+00  0.008751604  0.005696043 -63.72 0.0006140633    1.539    0.350
       359 -10.1276    141.5065    117.8796   2.9082236656e+02   5.5991710786e+00   0.02896467     0.016225 -70.27  0.002012084    1.962    0.490
       360  -9.5738      2.8323    117.3816   2.9243616271e+02   6.4059321734e+00   0.02703585   0.01590396  76.11   0.00228411    2.722    0.633
       361  -7.6374    231.4888    117.5022   2.8977296623e+02   5.0811823700e+00   0.00664094  0.006357659  64.75 0.0001195171    1.081    0.075
       362  -9.9984    109.1301    114.1353   2.9117715911e+02   5.8301727724e+00   0.02487121   0.01568172  78.70  0.001509358    2.296    0.564
       363  -8.9667    109.2315    107.8489   2.9113833258e+02   5.9026113657e+00   0.01501274  0.009909719 -17.71  0.001373437    1.958    0.489
       364  -8.1526    219.4532    116.5288   2.8990706297e+02   5.1624423891e+00  0.006505012   0.00646192 -61.42 0.0001064431    1.015    0.015
       365  -9.6881    152.7981    128.1596   2.9075246150e+02   5.4143204117e+00   0.02911329   0.01341669 -69.42  0.001872428    2.477    0.596
       366  -8.1280    250.3181    115.1639   2.8954007938e+02   4.9988095557e+00  0.009525885  0.008304359  11.08  0.001120823    1.189    0.159
       367  -8.6389    192.9513    115.0308   2.9020635992e+02   5.3337969087e+00   0.01168407  0.009023394 -73.29 0.0007060075    1.367    0.268
       368  -8.2944    167.1799    114.8007   2.9050494253e+02   5.4860581095e+00   0.01004602  0.008925391  63.29 0.0007371156    1.202    0.168
       369  -9.9854     78.9568    112.6104   2.9151976145e+02   6.0223884436e+00   0.02693546   0.01669582  68.18  0.001754556    2.266    0.559
       370  -8.9066     78.8542    105.2761   2.9147707037e+02   6.1081909380e+00   0.01887354   0.01207159 -20.29  0.001308012    2.052    0.513
       371 -10.1184     92.6103    112.3234   2.9135886576e+02   5.9467919506e+00    0.0249603   0.01555929 -86.49  0.001249808    2.135    0.532
       372  -8.8791     93.2103    104.8707   2.9130725701e+02   6.0299014386e+00   0.01281571  0.009404913  -6.57  0.001347888    1.622    0.384
       373  -8.7944    174.8917    112.1723   2.9039940248e+02   5.4718283696e+00    0.0137599  0.009417194 -87.41 0.0006838638    1.815    0.449
       374 -10.1674    121.5337    111.7533   2.9101834845e+02   5.7860361206e+00   0.02371026   0.01471014  84.31  0.001155107    2.349    0.574
       375  -9.2061    183.6750    111.0695   2.9029055065e+02   5.4336478473e+00     0.019694   0.01112502 -80.92  0.001302752    2.373    0.579
       376  -8.6152    159.1802    112.0233   2.9058143574e+02   5.5647156281e+00   0.01158526  0.009556429  49.48 0.0006874755    1.268    0.212
       377 -10.2102     66.3985    109.6986   2.9164878003e+02   6.1287701801e+00   0.03105956   0.01776483 -59.84  0.002258047    1.701    0.412
       378  -9.6359     14.1130    111.2915   2.9226819737e+02   6.4117791266e+00   0.01969033   0.01216651  63.38  0.001302441    2.161    0.537
       379  -8.0399    150.0950    110.1863   2.9067622673e+02   5.6387347888e+00  0.009212668  0.007676301  63.70 0.0004907188    1.322    0.244
       380  -9.6264    248.6842    108.7842   2.8952075391e+02   5.0823311363e+00   0.01385531   0.01041243  44.51  0.001195365    1.373    0.272
       381 -10.2675    249.2767    103.3194   2.8948104432e+02   5.1422814395e+00   0.02997325  0.008852373 -52.95  0.002168728    3.034    0.670
       382  -8.8436    188.9704    107.5569   2.9020784646e+02   5.4436780291e+00   0.01284589   0.00926876 -87.53 0.0008247388    1.660    0.397
       383  -9.4129    139.7995    104.3788   2.9076133993e+02   5.7658616952e+00   0.01913015   0.01307885 -85.96 0.0008518426    1.796    0.443
       384 -10.4962     45.5115    102.2368   2.9184777896e+02   6.3360291805e+00   0.03730879   0.02014098  64.85  0.002970468    3.020    0.669
       385 -10.6155     22.8495    102.7801   2.9211542471e+02   6.4603662564e+00   0.03848295    0.0219593  71.55  0.002810786    2.880    0.653
       386  -8.7375    166.5993    104.5209   2.9045005576e+02   5.6087872672e+00   0.01246993   0.01103522  77.36 0.0007447136    1.228    0.186
       387  -9.5657    150.5611    103.0634   2.9062809498e+02   5.7187451375e+00   0.01959417   0.01288249  86.48  0.001165007    2.044    0.511
       388  -9.0064      6.8180    103.4630   2.9230657281e+02   6.5447469025e+00    0.0128138  0.009955966  67.76 0.0007276154    1.493    0.330
       389 -10.3674    109.0450     98.9033   2.9108692288e+02   6.0075958079e+00    0.0330716   0.01637511  54.95  0.001681396    2.811    0.644
       390  -9.0888    108.4701     92.3652   2.9105445124e+02   6.0868569870e+00   0.02416771   0.01254776   6.45   0.00193263    2.889    0.654
       391  -8.0341    175.4384    102.2372   2.9033344348e+02   5.5840015502e+00  0.009205286  0.006476234 -80.64 0.0008281834    1.639    0.390
       392  -8.4311    159.8735    101.2716   2.9050888871e+02   5.6855374946e+00   0.01111311  0.008955535 -84.65 0.0004895239    1.374    0.272
       393  -9.2129     82.1725    100.1219   2.9140752620e+02   6.1488874494e+00   0.01724051   0.01178897  69.82 0.0008101347    1.881    0.468
       394  -9.2652     95.0487     96.9832   2.9123859283e+02   6.1108878084e+00   0.01559848   0.01069842 -77.42 0.0005745327    1.648    0.393
       395 -10.1310     63.8096     95.8852   2.9159633329e+02   6.3042033338e+00    0.0266139   0.01626414  73.19   0.00175178    2.436    0.589
       396  -8.8424     67.1628     87.0607   2.9150440208e+02   6.3873402134e+00   0.03213482   0.01486746   3.84  0.002047761    4.664    0.786
       397  -7.6442    183.5434     96.5294   2.9020484033e+02   5.6032021281e+00  0.006520723  0.006448898  76.54 7.426055e-05    1.032    0.031
       398  -8.5231    151.5753     95.3114   2.9056979284e+02   5.8028731368e+00   0.01559026  0.008967671 -20.85  0.001320506    2.589    0.614
       399  -8.5006    176.6264     93.4691   2.9026700048e+02   5.6788900886e+00   0.01313968  0.009566304  77.20  0.000922427    1.709    0.415
       400  -8.1583    164.6891     94.1336   2.9040999033e+02   5.7404670349e+00   0.01014248  0.008107171 -89.30 0.0003963055    1.418    0.295
       401  -9.5290    139.0355     92.0379   2.9069625233e+02   5.9135933829e+00   0.02092515   0.01394954 -82.31 0.0008729025    1.811    0.448
       402 -10.2979    123.8462     91.4300   2.9086961499e+02   6.0086755244e+00   0.02533968   0.02055327   3.60  0.001105866    1.342    0.255
       403  -8.9102     46.3997     92.7231   2.9178052087e+02   6.4414347579e+00   0.02110451  0.009461201  16.58  0.001654396    2.830    0.647
       404  -9.3464      5.2222     92.2948   2.9225849603e+02   6.6836966931e+00   0.01921452    0.0104255  51.15  0.001175807    2.195    0.544
       405  -8.0510    157.8563     91.6200   2.9047448851e+02   5.8092952044e+00   0.01064641  0.007847767 -70.73 0.0005288452    1.420    0.296
       406  -9.5971     34.6793     89.6307   2.9189878513e+02   6.5449589644e+00   0.02524739   0.01410473 -84.30  0.001565322    2.589    0.614
       407  -9.2446     23.0851     90.3438   2.9203835300e+02   6.6035004473e+00   0.01882315   0.01319245   6.79   0.00143188    1.644    0.392
       408  -8.1984    150.7069     89.1545   2.9054297882e+02   5.8793920667e+00   0.01027906  0.008303404 -89.36 0.0005056119    1.395    0.283
       409  -9.8784     86.2451     86.6343   2.9127926861e+02   6.2820037654e+00   0.02221572   0.01425918  67.61  0.001102801    2.097    0.523
       410  -8.8870     87.1605     80.8140   2.9123372561e+02   6.3443032205e+00   0.01770178   0.00895163   4.40  0.001330335    3.278    0.695
       411  -7.4365    187.7346     87.3291   2.9010082714e+02   5.6856436926e+00  0.006689316  0.005045358  68.73 0.0002968775    1.574    0.365
       412  -7.9999    164.3349     87.2213   2.9037263940e+02   5.8227647120e+00  0.009420286  0.006238978 -75.77 0.0005139901    1.702    0.412
       413  -9.8211     48.5992     84.5779   2.9170612687e+02   6.5233606744e+00   0.02693357   0.01529186  63.65   0.00166677    2.595    0.615
       414  -7.4711    179.3152     85.6819   2.9018895571e+02   5.7536621112e+00  0.006939413  0.004986955  62.70 0.0004755761    1.651    0.394
       415  -9.8107    104.9100     83.4541   2.9104255590e+02   6.2109490800e+00   0.02225019    0.0148929  78.93  0.001205575    2.013    0.503
       416  -8.8226    104.8806     77.3835   2.9100651210e+02   6.2816088489e+00    0.0129862  0.009091802  -6.13  0.001200887    1.764    0.433
       417  -8.2818    157.9170     84.0661   2.9042845863e+02   5.8966334379e+00   0.01011724  0.008687351  64.75 0.0003774082    1.268    0.211
       418  -9.2508    140.7623     82.7086   2.9062017769e+02   6.0118975747e+00   0.01620431   0.01051349 -68.97 0.0005778578    1.620    0.383
       419  -7.8784    185.2998     82.6762   2.9010123581e+02   5.7537863448e+00  0.006873909  0.005012587  64.39 0.0007026599    1.630    0.387
       420  -8.2398     36.3601     82.2923   2.9183527889e+02   6.6205117153e+00  0.007051779  0.004931493 -24.00 0.0007029169    1.697    0.411
       421  -9.7635     24.5402     80.1489   2.9196041463e+02   6.7135461514e+00   0.02704627   0.01533661 -86.53  0.001666305    2.613    0.617
       422  -9.1699      9.8097     81.1058   2.9213808702e+02   6.7872764027e+00   0.01656868  0.008797976  47.72 0.0009656975    2.117    0.528
       423  -8.4393    150.1899     80.4581   2.9049682694e+02   5.9833456553e+00   0.01384407  0.008908454 -72.48  0.001379994    1.701    0.412
       424  -9.0030    119.3987     80.1529   2.9085384581e+02   6.1653825809e+00   0.01678606   0.01092752 -84.79  0.001135698    1.935    0.483
       425  -9.0320     74.4175     80.2916   2.9137923767e+02   6.4240415338e+00   0.01685493   0.01126565 -81.87  0.001286914    1.793    0.442
       426  -8.4282    166.8304     79.7095   2.9029849033e+02   5.8954701926e+00   0.01170601  0.008263916 -52.08 0.0006263762    1.384    0.277
       427  -8.1078    184.0000     78.9321   2.9009388661e+02   5.8047861865e+00   0.01075317  0.003740405 -62.68 0.0006060502    2.854    0.650
       428  -9.2281     65.3825     78.1532   2.9147183928e+02   6.5010803162e+00   0.01717399   0.01228973  87.94   0.00139913    1.724    0.420
       429  -9.8493     63.2951     73.4709   2.9146815482e+02   6.5675137381e+00   0.01913168   0.01303137 -83.94  0.001354962    1.775    0.437
       430  -9.5261    128.0096     75.3349   2.9072457223e+02   6.1714265885e+00   0.01805447   0.01218122  76.69 0.0007541013    1.979    0.495
       431  -7.5758    157.2752     76.6430   2.9039138646e+02   5.9865214650e+00  0.006861937  0.005033135  68.87 0.0004159644    1.651    0.394
       432  -8.6348    140.3282     75.0645   2.9057937635e+02   6.1031521828e+00   0.01372668  0.009840084  86.11 0.0009641869    1.734    0.423
       433  -8.3087    163.3495     73.4402   2.9030140010e+02   5.9884385336e+00   0.01251907  0.008161264 -69.63 0.0007853478    1.622    0.384
       434  -9.7349     82.1447     72.4473   2.9124210252e+02   6.4704654617e+00   0.01970848   0.01368593  86.00  0.001110915    1.839    0.456
       435  -7.7764    151.4407     73.4807   2.9044038194e+02   6.0570793887e+00  0.006509364  0.006444207 -60.94 0.0001618878    1.016    0.016
       436  -8.6275    115.7849     73.0976   2.9085366900e+02   6.2682283639e+00   0.01008547  0.008907962  70.32 0.0005573048    1.227    0.185
       437  -9.2803     95.2152     71.2908   2.9108270852e+02   6.4082895676e+00   0.01658083    0.0110636 -86.20 0.0008866607    1.878    0.467
       438  -8.5435     42.4763     72.7681   2.9170690570e+02   6.6958544087e+00   0.01191408  0.006687506 -69.77 0.0004266089    1.939    0.484
       439  -7.8520    175.4868     72.5656   2.9015478515e+02   5.9281146057e+00  0.006544723  0.006400876 -21.83  3.17093e-05    1.019    0.019
       440  -8.9834    105.8072     71.7771   2.9096209436e+02   6.3413387772e+00   0.01271394  0.009143409 -83.43 0.0006930078    1.621    0.383
       441  -9.4884     51.3554     69.5372   2.9158393329e+02   6.6821372220e+00   0.02284195   0.01343532 -88.07  0.001715968    2.464    0.594
       442  -8.5690     28.3926     70.8436   2.9185978486e+02   6.7994205388e+00   0.01164029  0.008643658 -31.83  0.001033494    1.468    0.319
       443  -8.4006     31.8215     68.3686   2.9180494684e+02   6.8083974720e+00   0.01413515   0.01059977 -20.50  0.001063356    1.536    0.349
       444  -9.1000     16.7941     70.4919   2.9199308669e+02   6.8703368121e+00   0.01458317  0.009855194 -79.39 0.0009524966    1.717    0.417
       445  -8.8410    147.2030     68.5663   2.9046026313e+02   6.1387030699e+00   0.01372908   0.01003921  67.84 0.0008260351    1.653    0.395
       446  -9.2066    138.6945     66.0369   2.9054424192e+02   6.2174102338e+00   0.01645454   0.01036303 -85.85   0.00128948    2.082    0.520
       447  -9.0899    121.6561     65.7003   2.9074084305e+02   6.3200862805e+00     0.020208   0.01166148 -65.18  0.001335347    1.767    0.434
       448  -8.5583     84.7662     64.4339   2.9116349394e+02   6.5483462078e+00    0.0179731  0.008379656 -21.96  0.001021372    5.786    0.827
       449  -8.8077     64.1625     63.8660   2.9140050094e+02   6.6740338016e+00   0.02280269   0.01146331 -25.09  0.001673577    3.472    0.712
       450  -8.6346     37.4686     64.4658   2.9171566475e+02   6.8211539646e+00   0.01461358  0.008873013  64.00 0.0009275534    2.258    0.557
       451  -8.1042    156.9916     69.9410   2.9035446093e+02   6.0659509822e+00   0.01072746  0.007679267  64.50 0.0004162535    1.682    0.405
       452  -8.2455    192.1755     64.0864   2.8990953259e+02   5.9295292890e+00   0.01007189  0.008428192 -29.93 0.0004154632    1.257    0.204
       453  -8.9634    109.9773     63.7207   2.9086514834e+02   6.4107192852e+00   0.01206407  0.009694661 -76.96 0.0005616833    1.329    0.247
       454  -8.1182    158.1187     61.8578   2.9029279625e+02   6.1532120209e+00  0.009099416  0.007519922 -31.90  0.000372133    1.269    0.212
       455  -7.9140     51.3624     62.3117   2.9154058321e+02   6.7659970258e+00  0.007176666  0.004896095 -25.45 0.0007040787    1.752    0.429
       456  -9.6038     97.7557     60.1436   2.9098623894e+02   6.5230004966e+00   0.02153848   0.01469053 -54.47  0.001695641    1.425    0.298
       457  -9.6126     73.3678     59.5854   2.9126742759e+02   6.6705391343e+00   0.01965285   0.01278218 -84.56  0.001099883    1.932    0.483
       458  -7.9503    164.5036     59.9455   2.9020692349e+02   6.1383337443e+00  0.009884001  0.006490922 -62.79 0.0004501188    1.516    0.341
       459  -8.1830     88.9060     59.6149   2.9108630606e+02   6.5803457587e+00     0.010844  0.008014937 -71.47 0.0005615574    1.423    0.297
       460  -8.3333    146.9776     59.2515   2.9040697076e+02   6.2481103746e+00  0.009101248   0.00885456  19.80 0.0005281775    1.033    0.032
       461  -9.8487     23.5093     56.7305   2.9183234387e+02   6.9914516949e+00    0.0251947   0.01514777  78.54  0.002155818    2.584    0.613
       462  -8.9781    130.5310     57.5862   2.9058868093e+02   6.3628229676e+00   0.01316765  0.006531508 -63.69 0.0006895715    2.031    0.508
       463  -9.4458      7.3736     57.2449   2.9202385214e+02   7.0784176386e+00   0.01603405   0.01169729  82.13  0.001068655    1.696    0.410
       464  -9.3002    119.1531     55.4719   2.9070865521e+02   6.4533081640e+00   0.02264732   0.01204999 -74.18  0.001550839    2.273    0.560
       465  -9.5255     54.3774     55.6556   2.9146551909e+02   6.8258701876e+00    0.0178258   0.01234488 -89.61  0.001142561    1.804    0.446
       466  -8.0816    139.8862     56.1843   2.9047120775e+02   6.3248414682e+00   0.01016109  0.008651808  68.68 0.0005095194    1.295    0.228
       467  -8.6019     44.0770     55.5661   2.9158522821e+02   6.8863647056e+00   0.01244621  0.009223795 -87.75 0.0007407593    1.589    0.371
       468  -8.6307    105.8989     53.3513   2.9085050925e+02   6.5546960971e+00   0.01231418    0.0092132  88.46 0.0007540578    1.593    0.372
       469  -9.4673     92.3458     50.4685   2.9099132293e+02   6.6666107638e+00   0.02074623   0.01179896 -79.75  0.001289884    2.287    0.563
       470  -8.3295     75.1158     51.6743   2.9119960715e+02   6.7522712314e+00   0.01425484  0.008030973  -9.74  0.001143941    2.924    0.658
       471  -9.5291    247.0521     50.5896   2.8918993079e+02   5.7667030947e+00   0.01301399   0.01082855 -16.91 0.0008032537    1.313    0.239
       472  -8.4925    129.9619     49.3181   2.9054568233e+02   6.4620697456e+00   0.01263902  0.009553306 -17.51 0.0004458808    1.533    0.348
       473  -7.9977    145.1461     49.1526   2.9036767381e+02   6.3759165653e+00  0.009108659   0.00771431  75.53 0.0005522771    1.317    0.241
       474  -8.9104    120.9604     47.3727   2.9063896693e+02   6.5368239555e+00   0.01392534  0.009477832 -62.89  0.000560968    1.464    0.317
       475  -8.4626    112.1964     46.9626   2.9073871814e+02   6.5923643696e+00   0.01020801  0.008656883  70.79  0.000542298    1.308    0.236
       476  -8.9798     82.0966     46.5824   2.9108760709e+02   6.7710065587e+00   0.01312014   0.01079785 -78.47  0.000661869    1.298    0.229
       477  -8.4127     45.1001     44.7598   2.9150854694e+02   7.0059078158e+00   0.01124542  0.008878613 -82.07 0.0006248003    1.399    0.285
       478  -9.1694     16.5899     44.5173   2.9184004407e+02   7.1731101464e+00   0.01527137     0.010232 -83.62  0.001102112    1.818    0.450
       479  -8.5450    133.1329     43.5578   2.9047412168e+02   6.5105163008e+00   0.01276836  0.009856552  66.91 0.0007964536    1.505    0.335
       480  -8.8294     58.2558     42.7997   2.9134320053e+02   6.9527052042e+00   0.01486661   0.01005468  84.76 0.0009375124    1.946    0.486
       481  -7.9798    101.6732     43.3152   2.9083958274e+02   6.6956357341e+00  0.006987972  0.004961793  61.62 0.0007043992    1.671    0.402
       482  -8.5371     92.8601     42.6997   2.9093871598e+02   6.7537946436e+00   0.01073708  0.008329106  -8.11  0.001054607    1.477    0.323
       483  -9.2796     69.6156     41.5913   2.9120334533e+02   6.9010954494e+00   0.01867132   0.01265939  87.60  0.001183415    1.910    0.477
       484  -9.5956      5.2423     42.1791   2.9195859842e+02   7.2655963871e+00   0.01799851   0.01159676 -89.67  0.001391995    2.067    0.516
       485  -8.8085    105.8143     40.9798   2.9077725566e+02   6.6987546046e+00    0.0144532  0.009041559 -74.04 0.0007950767    1.800    0.445
       486  -7.8563    140.4396     41.5044   2.9037660072e+02   6.4919549320e+00  0.006515599  0.006437018 -55.15 0.0001239675    1.013    0.013
       487  -8.5238     36.8350     40.9459   2.9158220793e+02   7.0978642665e+00   0.01216809  0.009159984  84.62 0.0008214737    1.596    0.374
       488  -8.7092     95.3387     37.8934   2.9088095331e+02   6.7952212115e+00   0.01240067  0.009560727  78.11 0.0009440499    1.543    0.352
       489  -8.0952     80.5350     36.9931   2.9104831272e+02   6.8913227406e+00  0.009902781  0.006517293 -64.70 0.0003932895    1.534    0.348
       490  -9.4530     26.1426     35.5964   2.9167504025e+02   7.2216087560e+00   0.01655404   0.01212304  87.98 0.0008257849    1.656    0.396
       491  -7.5609    133.4956     36.4788   2.9042737476e+02   6.5905362960e+00  0.006527105   0.00646534  68.75 9.061587e-06    1.031    0.030
       492  -7.8334    125.5981     35.5649   2.9051398121e+02   6.6469365734e+00  0.006568629  0.006247701 -35.63 9.061679e-05    1.047    0.045
       493  -8.6707    111.7470     34.6762   2.9067020323e+02   6.7375255267e+00   0.01290642  0.009048301 -77.75 0.0006802254    1.606    0.377
       494  -8.8187    119.4607     33.0996   2.9057075753e+02   6.7111139245e+00    0.0142007  0.006818406 -70.81 0.0007616373    2.434    0.589
       495  -8.0557     88.4123     34.2651   2.9094000670e+02   6.8774062611e+00  0.009226498   0.00645327 -78.66 0.0009448304    1.624    0.384
       496  -8.9990     48.4033     33.2193   2.9140080818e+02   7.1207821251e+00   0.01394374   0.01113567 -71.82 0.0009901912    1.302    0.232
       497  -8.5815     60.7103     32.7096   2.9125404658e+02   7.0556240132e+00   0.01210123  0.009672547  61.63 0.0004699509    1.396    0.284
       498  -8.6908     72.0123     31.2636   2.9111342389e+02   7.0070866357e+00   0.01172305  0.008999082  74.26 0.0006011333    1.550    0.355
       499  -8.9621     12.9005     30.5224   2.9179934055e+02   7.3567950739e+00   0.01467763  0.009916696 -78.95   0.00106243    1.711    0.416
       500  -8.1389     41.7457     30.0113   2.9145932799e+02   7.1964338000e+00  0.009418116  0.008362317 -59.94 0.0004071315    1.117    0.104
       501  -8.9542    143.0115     28.7618   2.9027005702e+02   6.6248364113e+00  0.009288756  0.008506124  18.49 0.0004059184    1.104    0.094
       502  -7.8877    101.5231     29.4759   2.9075826357e+02   6.8570752946e+00  0.006578748   0.00640087  65.10 0.0008090744    1.058    0.054
       503  -8.8883     81.4379     27.4698   2.9098063015e+02   6.9965970279e+00   0.01459541   0.01085573  84.71 0.0008279902    1.631    0.387
       504  -8.8056      3.5107     27.8446   2.9189301451e+02   7.4419346581e+00   0.01293977  0.009953645  61.99 0.0008244513    1.481    0.325
       505  -8.9447     91.7700     26.2800   2.9085289285e+02   6.9506159315e+00   0.01491271   0.01009153  86.23 0.0007443411    1.933    0.483
       506  -8.0317    104.4449     22.9258   2.9068483774e+02   6.9161335184e+00  0.009950552  0.006460337 -63.23 0.0004976582    1.539    0.350
       507  -8.1027     34.9353     23.4428   2.9149950112e+02   7.3119406065e+00   0.01013224   0.00462345  47.82 0.0008078223    2.593    0.614
       508  -8.8587     63.6146     21.1553   2.9115082516e+02   7.1729003502e+00   0.01432764   0.01039793  77.72 0.0007941737    1.720    0.419
       509  -8.9693     48.4031     21.7961   2.9133231605e+02   7.2533272402e+00   0.01225514   0.01113409 -88.50  0.000657593    1.165    0.142
       510  -8.0172     19.6091     21.7420   2.9166835898e+02   7.4200334354e+00  0.009016264   0.00639952 -77.75 0.0004480481    1.577    0.366
       511  -8.3115    120.6147     20.8212   2.9048354016e+02   6.8468409573e+00  0.009436898  0.006386077 -78.81 0.0009450429    1.707    0.414
       512  -8.8925     74.0441     19.4593   2.9101887045e+02   7.1322865751e+00   0.01478707   0.01011969  83.86 0.0008533318    1.909    0.476
       513  -8.1138     87.9617     17.9197   2.9084715052e+02   7.0696329471e+00   0.01037324  0.007708636  65.36 0.0004808643    1.590    0.371
       514  -8.0267     38.8118     18.3893   2.9142391761e+02   7.3482070603e+00  0.009068267  0.008371115 -86.43 0.0005312157    1.135    0.119
       515  -7.9893    112.6480     16.8156   2.9055241881e+02   6.9394723113e+00  0.009022366  0.006286204 -76.35 0.0003875981    1.599    0.375
       516  -8.0446     29.9998     16.0276   2.9151270473e+02   7.4264337353e+00   0.01060919  0.007685663  64.20 0.0006450679    1.648    0.393
       517  -8.1859      7.4186     15.3111   2.9177227511e+02   7.5648622151e+00  0.009276781  0.006445732 -79.89 0.0009444047    1.658    0.397
       518  -7.7023     17.1142     14.1570   2.9165205377e+02   7.5224064129e+00  0.009164371  0.007619312  60.49 0.0004850864    1.314    0.239
       519  -8.7846    218.7902    247.7358   2.9070061683e+02   3.6428397484e+00   0.01920092  0.009576014 -72.05  0.001372157    2.378    0.579
       520  -8.1244    191.4171    249.2727   2.9102776351e+02   3.7835753061e+00  0.009223859  0.006420291 -81.60 0.0009347993    1.679    0.404
       521  -9.0923    176.0541    247.5927   2.9119625048e+02   3.8920505298e+00   0.02043618   0.01280219  68.30   0.00130927    2.218    0.549
       522  -8.3116    113.2594    248.6464   2.9193260144e+02   4.2430165628e+00   0.01202911  0.008121639 -80.56 0.0007304687    1.739    0.425
       523  -9.1627    104.0330    247.2131   2.9203137407e+02   4.3129801301e+00   0.02122867   0.01161975 -85.06   0.00174546    2.756    0.637
       524  -9.0220    243.0289    246.9392   2.9041442786e+02   3.5115861618e+00   0.02087814  0.009099121 -59.06  0.001635742    2.181    0.541
       525  -9.2191    232.9493    246.6578   2.9052976009e+02   3.5732884978e+00   0.02124484  0.009440557 -60.61  0.001480926    2.174    0.540
       526 -10.0541    224.0431    244.3835   2.9061957702e+02   3.6513207719e+00   0.02874006   0.01431486 -75.70  0.002360719    2.633    0.620
       527  -8.4328    156.1029    248.0719   2.9143100679e+02   4.0019583992e+00    0.0106752  0.007750493  68.37 0.0005849914    1.675    0.403
       528  -8.5397    131.9813    247.8038   2.9170985745e+02   4.1445951329e+00   0.01163174  0.009319361 -67.33 0.0005844843    1.267    0.210
       529  -9.1836    147.1212    246.3523   2.9152516334e+02   4.0739030990e+00   0.01683826  0.009486044  56.08  0.001493587    2.279    0.561
