#   1 NUMBER                 Running object number                                     
#   2 MAG_AUTO               Kron-like elliptical aperture magnitude                    [mag]
#   3 X_IMAGE                Object position along x                                    [pixel]
#   4 Y_IMAGE                Object position along y                                    [pixel]
#   5 X_WORLD                Barycenter position along world x axis                     [deg]
#   6 Y_WORLD                Barycenter position along world y axis                     [deg]
#   7 A_WORLD                Profile RMS along major axis (world units)                 [deg]
#   8 B_WORLD                Profile RMS along minor axis (world units)                 [deg]
#   9 THETA_WORLD            Position angle (CCW/world-x)                               [deg]
#  10 FWHM_WORLD             FWHM assuming a gaussian core                              [deg]
#  11 ELONGATION             A_IMAGE/B_IMAGE                                           
#  12 ELLIPTICITY            1 - B_IMAGE/A_IMAGE                                       
         1 -11.0433    187.8930     49.2352   6.7988107529e+01   3.1693106640e+01     2.413348     1.126053 -50.01  0.008364857    2.960    0.662
         2 -11.2244    183.1535     33.3299   6.3699420271e+01   3.4893640858e+01    0.7624724    0.5066684 -88.11   0.00061047    2.030    0.507
         3 -11.7659    231.1378     22.8027   5.4249951687e+01   2.3587466098e+01     1.044105     0.803878  35.39   0.00493671    1.376    0.273
         4 -12.1705    221.0036     12.5301   5.2396944149e+01   2.7121608535e+01     1.569146    0.9207815 -62.71  0.007017154    2.049    0.512
         5 -12.2864    246.8072      6.2278   4.8338890376e+01   2.1308988717e+01     1.349301    0.9065761   6.15  0.007009059    1.757    0.431
         6 -12.0380    233.6222      3.6226   4.8730760607e+01   2.4733273248e+01      1.29061    0.8823136  67.10   0.00474955    1.454    0.312
         7 -10.2076    119.1121      9.7707   6.7093057896e+01   5.3888366033e+01     0.679207    0.4061003  34.73  0.003125741    1.651    0.394
         8  -7.5012    172.4843      2.9804   5.5059015141e+01   4.0794344168e+01    0.2086423   0.09929068 -44.04 0.0007108186    2.385    0.581
         9  -7.9300    181.7116      6.4055   5.5008906077e+01   3.8026804324e+01    0.2835689    0.1413277  75.00  0.001138363    2.117    0.528
        10  -7.8423    193.2966      2.6195   5.2380253414e+01   3.5245835800e+01    0.1553471   0.09863465 -53.18 0.0003309046    1.759    0.432
        11  -7.7379    185.3386      1.7028   5.3006362564e+01   3.7449660995e+01    0.1502079    0.1038539 -60.48 0.0004404102    1.657    0.397
        12  -7.9970    156.9906    204.0112   1.0890507999e+02   1.4675395817e+01    0.1706608    0.1229891  64.66 0.0003393918    1.583    0.368
        13  -8.3295    193.5176    195.9848   1.0137145584e+02   9.5280624537e+00    0.1427435    0.1056034 -69.36 0.0008088375    2.493    0.599
        14  -7.9560    100.9532    175.9974   1.1563555114e+02   2.7881227193e+01    0.1639228    0.1353969  63.63            0    1.037    0.035
        15  -7.2327     32.4518    173.4390   1.2866852380e+02   3.6774262288e+01    0.1026741   0.07936111  76.27 0.0008053973    1.022    0.022
        16  -7.1804    174.1996    168.9709   1.0032748456e+02   1.6596009315e+01     0.149035     0.103011 -38.57 0.0004908156    1.673    0.402
        17  -9.1341    248.2499    163.1011   8.6380701079e+01   3.5660448521e+00     0.270609    0.1570691  46.33 0.0004915711    1.678    0.404
        18  -9.2775    104.1403    160.7021   1.1292566079e+02   3.0115581368e+01    0.2002786    0.1821989  74.45 0.0002279068    1.057    0.054
        19  -9.2272    248.6759    158.2164   8.5343045739e+01   4.0115505603e+00    0.2282266    0.1869495  20.18 0.0003133325    1.072    0.067
        20  -8.2575    170.1037    156.3776   9.8809462041e+01   1.9256781175e+01    0.1960838    0.1704457   7.92 0.0005389483    1.232    0.188
        21  -9.1902    248.8459    153.1718   8.4294171631e+01   4.5273662377e+00    0.2511933    0.1652403  30.22 0.0002851978    1.308    0.236
        22 -10.2337    216.9060    151.5811   8.9233162079e+01   1.0772877843e+01    0.2504148     0.220523  34.04 0.0004503902    1.152    0.132
        23  -7.8903     97.3040    147.3495   1.1239158197e+02   3.3649192588e+01    0.1170575   0.09816318 -19.28 0.0007040832    1.699    0.411
        24  -8.8665    102.9232    145.3523   1.1084067262e+02   3.3159484205e+01    0.2033359    0.1729714 -57.21 0.0003465608    1.247    0.198
        25  -7.2187    146.3519    138.7237   1.0019437267e+02   2.6742018868e+01    0.1354421    0.1033595  74.58 0.0003930061    1.642    0.391
        26  -8.2592    243.5030    136.4670   8.1604206736e+01   7.4235372310e+00    0.2290147    0.1090771 -36.56  0.001035257    2.335    0.572
        27  -8.7579    235.8186    133.6725   8.2221418985e+01   9.2694067789e+00     0.251122    0.1815498  17.32  0.000384449    1.299    0.230
        28  -8.1137    164.1308    133.6802   9.5433151906e+01   2.4077859519e+01    0.2133055    0.1855171 -50.49 0.0002702139    1.295    0.228
        29  -8.2848    222.2689    135.3662   8.4853504444e+01   1.1788732999e+01    0.2145465    0.1672955  20.69 0.0005597796    1.163    0.140
        30  -7.5926    168.5210    129.4120   9.3603159152e+01   2.3880180066e+01    0.1408829    0.1267993  32.30 5.376287e-05    1.028    0.027
        31  -7.6992     27.5059    127.4172   1.2567040415e+02   4.6088835970e+01    0.1097396   0.08805842  88.21 0.0001355484    1.019    0.019
        32  -7.3399     28.8052    123.1512   1.2490463895e+02   4.6842390538e+01    0.1415587    0.1129241 -61.77 0.0003328802    1.292    0.226
        33  -9.0464    185.9213    120.0171   8.7971268943e+01   2.1675536964e+01    0.3211895    0.2116614 -41.53  0.001556927    1.662    0.398
        34  -8.2120      7.3987    115.8698   1.2929141195e+02   5.0023998256e+01    0.1458197    0.1071042  77.16 0.0005373571    1.193    0.162
        35  -7.6948    227.2353    114.7747   7.9282273324e+01   1.3428289839e+01    0.2259821    0.1112921 -14.68 0.0008958947    2.484    0.597
        36  -8.8413    190.8477    110.0609   8.4604231271e+01   2.2120362211e+01    0.2062157    0.1977232 -75.62            0    1.252    0.201
        37  -7.8868    226.5445    108.4827   7.7876873603e+01   1.4398900095e+01    0.1407647    0.1275541   8.31 3.835619e-05    1.045    0.043
        38  -8.4126    134.7281    106.3461   9.5633736046e+01   3.4919386466e+01    0.2574279     0.168581 -53.58  0.001042244    1.686    0.407
        39  -9.2623    141.5431     99.7204   9.2381977714e+01   3.4739504155e+01    0.3352378    0.2505246  -6.62  0.001363709    1.746    0.427
        40  -8.2180    188.3391    100.3061   8.2604553283e+01   2.4187451724e+01    0.1569158    0.1082795  20.17 0.0007041547    1.679    0.404
        41  -9.4257    151.0254     88.5276   8.7207218018e+01   3.4676597766e+01    0.5196741    0.3857225 -72.65  0.002153028    1.938    0.484
        42  -9.4172    153.6074     85.8014   8.5863057290e+01   3.4565147465e+01    0.5317901    0.3403032 -60.85  0.001928686    2.265    0.558
        43  -8.4399    138.5151     88.2660   9.0031782733e+01   3.7470319186e+01    0.2985478    0.2445285 -16.27  0.001100376    1.336    0.251
        44  -9.1820    176.1750     87.3053   8.1500087858e+01   2.9064684896e+01    0.2548491    0.2434525   3.15 0.0003091178    1.035    0.034
        45  -9.7714    232.2458     78.3068   6.9305546540e+01   1.6998419750e+01    0.3001286    0.2527888 -10.24 0.0002733654    1.114    0.102
        46 -10.0133    165.4636     65.8902   7.7397103918e+01   3.5006639363e+01    0.4653844    0.3688222   9.77 0.0008918926    1.382    0.276
        47 -11.5358    166.5908     73.4808   7.9472311918e+01   3.3549311700e+01     0.945858    0.7534018  69.81  0.003187624    1.460    0.315
        48  -9.6614    162.1312     76.9357   8.1436791976e+01   3.4064480554e+01    0.5417396    0.3751105 -74.64  0.002240372    2.378    0.579
        49  -9.9898    161.7923     61.8413   7.6890655494e+01   3.6528515578e+01    0.4308405    0.3411328 -10.99 0.0008447377    1.322    0.244
        50  -9.0791    158.4527     59.7454   7.6923621062e+01   3.7668662663e+01    0.3576353    0.2584334 -12.37 0.0009799437    1.511    0.338
        51  -9.7607    146.3570     75.7514   8.4582322381e+01   3.7941683733e+01    0.5207393    0.3646106 -68.66  0.001282686    2.141    0.533
        52  -8.4941    184.7900     77.9463   7.7167835026e+01   2.8437478346e+01    0.2841663    0.1782041  37.47 0.0009225906    1.638    0.389
        53  -8.9663    236.5421     74.1008   6.7578291214e+01   1.6526882432e+01    0.2760182    0.1924856  43.32 0.0009424046    1.425    0.298
        54  -8.1713    118.8190     70.6529   8.9811622224e+01   4.4832323746e+01    0.2259184    0.1845392 -26.72  0.000380598    1.225    0.184
        55  -9.4399    233.9770     67.1702   6.6099029481e+01   1.7966050026e+01    0.3395342    0.2069227  56.21  0.001599768    1.679    0.405
        56 -10.5645    175.3334     60.6175   7.3801139321e+01   3.3338399698e+01     0.493532    0.3609228 -44.87  0.001307012    1.490    0.329
        57 -10.1946    185.8667     61.0300   7.1971368516e+01   3.0622078833e+01    0.4642327    0.4105424  18.55  0.001260695    1.111    0.100
        58 -11.7070    180.7836     56.7846   7.1590284157e+01   3.2502392358e+01     1.012099    0.6485846 -35.07  0.002482906    1.567    0.362
        59  -8.8929    173.2574     65.3844   7.5673832866e+01   3.3157854675e+01    0.2122518    0.1475115  67.92 0.0007467011    1.675    0.403
        60  -9.3745    200.1434     52.9199   6.7102028115e+01   2.8072340924e+01    0.6894118    0.1878896 -44.54  0.001677979    5.755    0.826
        61  -7.6939    103.7866    249.2099   1.2242232994e+02   1.6550503811e+01    0.1210561   0.07283962 -50.06 0.0008794084    2.493    0.599
        62  -9.5751    187.5038     43.4979   6.6253713304e+01   3.2524418906e+01     0.404556    0.3303868  72.86 0.0009287088    1.334    0.250
        63 -10.2494    189.0451     39.4371   6.4720174486e+01   3.2620777560e+01    0.4170255    0.3840995  54.57  0.000622921    1.088    0.081
        64 -10.5352    181.5033     37.5083   6.5327340284e+01   3.4830625221e+01     0.657461    0.4129924  88.20 0.0005903511    2.265    0.558
        65 -11.9360    243.0356    240.9028   1.0016332663e+02  -2.7517687040e+00    0.2160577    0.1570054  26.98  0.000394565    1.098    0.089
        66 -10.3913    130.9035     48.1136   7.9261675476e+01   4.6044556957e+01    0.2555858    0.2348837  -8.06 0.0002651044    1.040    0.039
        67  -9.4700    227.5231     46.9426   6.1427242377e+01   2.1907789127e+01    0.3961552    0.2582935 -13.70  0.001393327    1.563    0.360
        68  -8.3005    142.0548     44.3500   7.5320472511e+01   4.3974974555e+01    0.2039028    0.1892421  43.91  0.001105626    1.095    0.087
        69  -9.3592    207.3497     42.1882   6.2801400193e+01   2.7539003521e+01    0.2823275    0.2404543  15.97 0.0004844673    1.196    0.164
        70 -10.3852    216.8933     34.0489   5.9109428534e+01   2.6013610802e+01    0.6103029    0.3929519  19.64  0.001590821    1.860    0.462
        71 -10.6275    200.0960     35.0097   6.1666016516e+01   3.0247725110e+01    0.6503922     0.408777 -78.18  0.001025945    2.296    0.565
        72  -8.0201      7.9474    236.0221   1.3586469712e+02   2.8961061603e+01    0.1273954   0.08537598  66.82 0.0004185488    1.043    0.042
        73  -7.0934    226.3193    235.6850   1.0193484841e+02   1.3488034412e-01   0.09511667   0.07550697  52.17 0.0007039183    1.654    0.395
        74  -7.3173    120.6913    227.6510   1.1784976153e+02   1.7052831607e+01   0.09642176   0.07720004  20.83 0.0007044094    1.709    0.415
        75 -12.1369     35.5805    214.4321   1.3074766183e+02   2.9560144776e+01    0.8768869    0.4777412  64.12  0.002524676    1.414    0.293
        76  -9.4542    202.8806     23.1581   5.7640529082e+01   3.0797527482e+01    0.3632839    0.2859539 -75.42  0.001202894    1.455    0.313
        77 -10.1871    226.0902     29.5180   5.6692687859e+01   2.4168229734e+01    0.4188386    0.3108751 -16.66  0.001020651    1.334    0.251
        78  -8.7759    242.0834     25.9927   5.3995886612e+01   2.0595577873e+01    0.2272806    0.1527758  30.06 0.0009370032    1.697    0.411
        79  -9.3550    149.6239     50.3519   7.5720836553e+01   4.1248610374e+01    0.3547218    0.2403151  19.48  0.001561814    1.778    0.438
        80  -7.8720    128.6659     22.6767   7.0236195780e+01   5.0131747133e+01    0.1591363    0.1023677  24.70 0.0007050656    1.709    0.415
        81  -7.6853    142.5261     16.4964   6.4898409587e+01   4.7402058786e+01    0.1483517    0.1355351  25.53 0.0008100867    1.010    0.010
        82  -8.4840    199.2950     23.2972   5.8150417623e+01   3.1727375260e+01    0.2368128     0.181921  33.43 0.0001682849    1.337    0.252
        83 -10.3955    208.8634     27.2696   5.8124292862e+01   2.8807107008e+01    0.3775656    0.3125016  54.90 0.0005436045    1.189    0.159
        84  -7.4071    171.8392     14.1925   5.9030647046e+01   3.9955419810e+01    0.2055108    0.1597851  28.44 0.0004868288    1.299    0.230
        85 -10.3250     26.0531    206.3521   1.3184641857e+02   3.1786989090e+01    0.3604293     0.281671 -59.59   0.00141191    1.825    0.452
        86  -9.9799    155.4570    218.6547   1.1105669777e+02   1.3006182795e+01    0.2004496    0.1611503  44.68 0.0003825669    1.050    0.048
        87  -9.6280    123.9988    206.0129   1.1497224595e+02   1.9609766439e+01    0.1611221     0.127285  53.16            0    1.011    0.011
        88 -12.0737     52.2988    193.5980   1.2655467448e+02   3.1154287704e+01      1.13216    0.7794846  68.48  0.007391463    1.160    0.138
