#   1 NUMBER                 Running object number                                     
#   2 MAG_AUTO               Kron-like elliptical aperture magnitude                    [mag]
#   3 X_IMAGE                Object position along x                                    [pixel]
#   4 Y_IMAGE                Object position along y                                    [pixel]
#   5 X_WORLD                Barycenter position along world x axis                     [deg]
#   6 Y_WORLD                Barycenter position along world y axis                     [deg]
#   7 A_WORLD                Profile RMS along major axis (world units)                 [deg]
#   8 B_WORLD                Profile RMS along minor axis (world units)                 [deg]
#   9 THETA_WORLD            Position angle (CCW/world-x)                               [deg]
#  10 FWHM_WORLD             FWHM assuming a gaussian core                              [deg]
#  11 ELONGATION             A_IMAGE/B_IMAGE                                           
#  12 ELLIPTICITY            1 - B_IMAGE/A_IMAGE                                       
         1 -12.0083     42.4988     20.4878   8.5343602698e+01   6.7395897565e+01    0.5933303     0.302283  34.06  0.003189352    2.103    0.524
         2 -12.5262    216.2556     14.6391   4.3090095781e+01   2.8944110348e+01    0.7211947    0.5752029  25.98  0.002567946    1.656    0.396
         3 -11.1000     65.3242     10.4440   7.1249458679e+01   6.5304260954e+01    0.3371432    0.2012639 -16.75  0.001330506    1.609    0.379
         4 -12.6243     43.7541      9.3030   7.9327972927e+01   6.8821917392e+01    0.3469528     0.305504 -36.64  0.002423086    1.528    0.346
         5 -13.2181    189.4364      8.4338   4.4242861132e+01   3.6402259400e+01     1.009658    0.4433444 -88.43  0.003653375    3.110    0.678
         6 -12.1687     57.2154      7.1216   7.2631042191e+01   6.7056060927e+01    0.6178602    0.4958145 -51.17  0.003215318    1.919    0.479
         7  -9.9268    109.4777      8.4983   5.7384979737e+01   5.6521615785e+01    0.2157373    0.1301459  73.64 0.0007242482    2.059    0.514
         8 -11.8089    166.0215      1.9478   4.5123410319e+01   4.3065621099e+01    0.5973856    0.1849476  66.94  0.002187697    2.696    0.629
         9 -10.9242     96.3386    225.4158   1.1487491641e+02   1.6200761816e+01     0.353388    0.1352225  52.51  0.001618604    2.325    0.570
        10 -10.6603     15.1736    249.8229   1.3049414632e+02   2.2194364028e+01    0.1246366    0.1011874  79.14   0.00107999    1.365    0.267
        11  -9.7411      6.0656    226.5394   1.3090210479e+02   2.7190085003e+01    0.1419064   0.07916813  48.73 0.0006038428    1.540    0.351
        12 -11.0868    231.5562    223.5242   8.9361559638e+01  -5.8563853732e+00    0.2546616    0.1007962  39.99  0.001216246    2.188    0.543
        13 -10.1855    149.3272    223.6611   1.0453732905e+02   7.9097779239e+00     0.128925   0.08948234  67.89 0.0007051652    1.731    0.422
        14  -9.5683     36.4970    222.5107   1.2556050487e+02   2.4726779140e+01    0.1140265   0.08022433  71.10 0.0008103238    1.036    0.035
        15 -10.7806    226.4812    221.0104   8.9820608002e+01  -4.7437615144e+00    0.1694885    0.1143051 -27.94  0.001032582    1.592    0.372
        16 -12.0967    238.8466    214.4315   8.6534260137e+01  -5.8795333152e+00    0.6050383    0.3373204 -43.03   0.00322544    2.402    0.584
        17 -11.5705    223.7637    213.2995   8.8973724890e+01  -3.3086417936e+00    0.3530607    0.1447001  32.86  0.001572864    2.353    0.575
        18 -10.8678    115.9268    209.3792   1.0918350352e+02   1.6065365942e+01    0.2896694    0.1678877 -71.53  0.001468382    2.108    0.526
        19  -9.8924     85.6663    209.3438   1.1522647885e+02   2.0823109407e+01    0.1355578   0.07875581  68.98 0.0007050311    1.761    0.432
        20 -10.4699     56.4806    205.5080   1.2057151602e+02   2.5615836355e+01     0.230169    0.1263669  69.83  0.001039237    1.708    0.415
        21 -10.1638     98.6756    205.3370   1.1216018956e+02   1.9626198476e+01    0.1368293   0.08449233  69.90 0.0007051187    1.718    0.418
        22 -10.9575     49.0429    202.0252   1.2171090126e+02   2.7250539199e+01    0.3327081    0.1622571  87.46   0.00171185    2.143    0.533
        23 -10.6267     41.6764    201.1088   1.2305930330e+02   2.8317567164e+01    0.2508435    0.1671316 -67.87  0.001004048    1.541    0.351
        24 -10.3698      2.8965    199.7388   1.3015887192e+02   3.2577686468e+01    0.2277225   0.09935767  53.89  0.001392862    1.854    0.461
        25 -12.4808    160.5390    192.1320   9.7421802868e+01   1.1339515177e+01    0.7350007    0.5136862  69.14  0.003157679    1.872    0.466
        26  -9.3898    133.3257    195.6748   1.0366587557e+02   1.5681143895e+01    0.1403589   0.09780751  71.83   0.00070491    1.692    0.409
        27 -10.3894     66.4819    194.4872   1.1750926678e+02   2.6558301467e+01    0.2982687    0.1438874  68.41   0.00137587    2.395    0.582
        28 -10.6134     60.5342    192.0030   1.1847574307e+02   2.7871673589e+01    0.2679172    0.1966529 -86.19  0.001148677    1.202    0.168
        29  -9.3221    217.6537    188.3304   8.5493788802e+01   1.2805680638e+00     0.124645    0.1087204  85.13 0.0007049889    1.759    0.431
        30 -10.1906    109.8531    186.5849   1.0730679373e+02   2.1594092017e+01     0.270686    0.1613673  76.55  0.001202619    2.313    0.568
        31 -10.3976     34.1618    187.0017   1.2338913630e+02   3.2097283350e+01    0.2113939    0.1022832  75.93  0.001085117    2.067    0.516
        32 -10.8338    224.1615    184.1416   8.3483343939e+01   7.3596551737e-01    0.1692175    0.1647891  54.87 0.0008531742    1.343    0.256
        33 -10.3394    183.5355    181.5145   9.0779104148e+01   8.8259710355e+00    0.2368544    0.1388039 -40.10 0.0009724451    1.840    0.456
        34  -9.6620    138.3139    179.6506   9.9978471418e+01   1.7921733817e+01    0.1462712    0.1060777  77.88  0.000704669    1.723    0.420
        35  -9.7942    191.6869    178.3508   8.8527464059e+01   7.7866575762e+00     0.136443    0.1130494  88.16 0.0007046049    1.725    0.420
        36 -10.2080    106.1922    175.7686   1.0648356864e+02   2.4504515556e+01    0.2402578    0.1337523  73.74 0.0009490176    2.765    0.638
        37  -9.7750     12.4073    176.2161   1.2694425441e+02   3.6557629409e+01    0.1682214   0.08302195  88.20 0.0009495918    1.697    0.411
        38 -10.6468     38.4849    174.5064   1.2138015268e+02   3.4316736765e+01    0.1927325    0.1114082  39.48 0.0008198629    1.812    0.448
        39 -11.0429     34.3449    173.6764   1.2218775055e+02   3.4950123226e+01    0.2701288    0.1351299  65.65  0.001410056    1.969    0.492
        40 -11.7411     45.3339    171.4233   1.1958523398e+02   3.4219985753e+01    0.5194187    0.2630529  87.59  0.002545234    2.097    0.523
        41 -11.4189     55.6507    168.1594   1.1692085562e+02   3.3702605406e+01    0.4632607    0.2388265  88.62  0.002158214    2.227    0.551
        42 -10.8694    121.5499    169.0187   1.0187537385e+02   2.3251920967e+01    0.2923698    0.1847005 -76.62   0.00130593    2.055    0.513
        43  -9.5470     19.3245    166.6412   1.2478080914e+02   3.7996729538e+01    0.1291159   0.06778904  70.66 0.0007043831    1.777    0.437
        44 -10.4676     80.0287    164.4146   1.1079819789e+02   3.1207619578e+01    0.4145627    0.1937683  74.77  0.001250933    5.064    0.803
        45  -9.7535     69.6685    163.3395   1.1307746911e+02   3.2943326033e+01    0.1434727    0.0889999  73.23 0.0007051729    1.743    0.426
        46 -11.1151     22.3487    159.6023   1.2351188518e+02   3.9274152410e+01    0.3054176    0.1878206  54.69 0.0009959076    1.560    0.359
        47 -11.6696    106.2220    158.0584   1.0354095141e+02   2.8413537501e+01    0.5576019    0.3441313  75.37  0.002391087    2.242    0.554
        48 -10.8582    167.8423    157.6429   8.9251189922e+01   1.6455609130e+01    0.3866539    0.2479948  63.72  0.001451731    2.017    0.504
        49 -11.4184    119.4497    157.2036   1.0022433881e+02   2.6221027406e+01    0.5066916    0.2826212  48.18  0.002239321    1.747    0.428
        50 -10.7236    218.4502    156.2198   7.8729072515e+01   6.2490193090e+00    0.3457901    0.1312046 -39.21  0.001294294    2.604    0.616
        51 -10.1306     81.9454    154.7954   1.0887648200e+02   3.3126605758e+01     0.239696     0.138304  64.59  0.001081368    2.032    0.508
        52 -10.0625     68.0232    154.5176   1.1222856148e+02   3.5202218017e+01     0.197112   0.09186789  58.12 0.0008102015    2.546    0.607
        53  -9.8792     23.4972    153.5125   1.2268051892e+02   4.0536395049e+01    0.1228226   0.09420531  88.70 -3.910087e-05    1.027    0.026
        54 -11.5961    237.0091    151.1483   7.4294184836e+01   3.4405776793e+00     0.326593    0.1714851  60.92  0.001276872    3.155    0.683
        55  -9.8915    189.9858    151.1712   8.3162963626e+01   1.3022915169e+01    0.2417722    0.1782442  78.21  0.001080785    2.033    0.508
        56 -10.9753    107.5874    145.9765   1.0096893457e+02   3.0925415686e+01    0.5727921    0.3110238  71.87  0.001939151    3.538    0.717
        57 -10.6832     55.9183    145.8586   1.1397051364e+02   3.8808195826e+01    0.3916761    0.1851048  67.64  0.001531291    3.157    0.683
        58  -9.8247     38.9926    147.4991   1.1836492483e+02   4.0372897502e+01    0.1809521   0.08051987  56.62 0.0008102084    2.513    0.602
        59 -10.2308    148.4865    144.9893   9.0863001282e+01   2.3120861341e+01    0.4071743    0.2447077 -87.76  0.001208411    4.510    0.778
        60 -10.0333    182.4595    142.4941   8.2754539138e+01   1.6295537061e+01    0.2679662    0.1446874  57.84  0.000914416    2.261    0.558
        61 -10.1126     22.6137    137.9861   1.2128192545e+02   4.4167029008e+01      0.33125    0.1415009  75.09  0.001347015    3.311    0.698
        62 -11.7670     83.2205    130.5529   1.0427908303e+02   3.8633492791e+01    0.6751374    0.3398894 -72.79  0.002622195    2.548    0.608
        63 -12.1098     99.2865    128.0811   9.9461124242e+01   3.6559982462e+01     1.053893    0.6137884  83.28  0.003604761    3.554    0.719
        64  -9.7292     73.4680    129.9738   1.0680077048e+02   4.0232090322e+01    0.2006608    0.1141394 -86.63 0.0008091906    2.495    0.599
        65 -11.3733     14.4948    122.2103   1.2156381160e+02   4.8475666345e+01    0.6708494    0.2835502 -57.18  0.003414216    2.001    0.500
        66 -10.2288    118.8088    126.6671   9.4002882300e+01   3.3255569227e+01    0.4739934    0.2368927  67.50  0.001241431    5.416    0.815
        67 -10.4246     59.6241    124.9438   1.0967900639e+02   4.3308206469e+01    0.4315706    0.2180751  77.49  0.001465135    4.132    0.758
        68 -11.1184     43.8922    123.7110   1.1381634731e+02   4.5446878567e+01    0.5991639    0.3038039  84.30  0.002443535    2.973    0.664
        69 -11.3454     27.3535    121.1689   1.1797703539e+02   4.7667694210e+01    0.6863009    0.2920817  84.08  0.002422174    4.252    0.765
        70 -11.9605    193.3924    118.5743   7.4692463186e+01   1.8417324915e+01    0.6027016     0.503402 -82.94   0.00198225    1.488    0.328
        71 -11.4597    140.9836    117.5379   8.6145575101e+01   3.0670025975e+01    0.4147489    0.3142388 -52.29  0.001945666    1.330    0.248
        72 -10.3693      2.4949    116.6228   1.2411751674e+02   5.0578715236e+01    0.3234925    0.1255126  81.99  0.001307615    3.529    0.717
        73  -9.9161     70.8411    120.2301   1.0566075608e+02   4.2931300208e+01    0.2424974     0.139777  76.02 0.0009520436    2.858    0.650
        74 -11.6340     15.5829    110.9968   1.1986841038e+02   5.0990428655e+01     0.722584    0.3632322  81.23  0.003481657    2.443    0.591
        75 -10.7378     78.9752    112.8435   1.0178638537e+02   4.3492718956e+01    0.4144738    0.2424752 -86.08   0.00158594    2.903    0.656
        76 -12.7794    159.5920    109.9256   7.9698461664e+01   2.8051302190e+01     1.141212    0.6819679 -68.69  0.003935407    2.917    0.657
        77 -10.7446    122.7225    113.2368   8.9710011854e+01   3.5511575274e+01    0.3660704    0.2176313  66.33   0.00136795    2.517    0.603
        78 -10.5322     91.7688    111.1105   9.7707325347e+01   4.1837067389e+01    0.4524205    0.1897481 -61.98  0.001546974    2.922    0.658
        79 -11.1681    174.5104    110.9587   7.6642486480e+01   2.4324695533e+01    0.4371941    0.3207303 -45.43  0.001151958    1.362    0.266
        80 -13.0855    150.3880    110.1487   8.1922540943e+01   3.0137809262e+01    0.7966175    0.4488495  61.78  0.002979584    2.273    0.560
        81 -13.2368    142.1056    105.0936   8.2576536528e+01   3.3093312048e+01    0.8312562    0.5788372  53.36  0.003713392    1.492    0.330
        82 -12.2332    127.5757    100.8278   8.5119774982e+01   3.7224344812e+01    0.6981498    0.4120998 -63.25  0.002653281    2.311    0.567
        83 -10.5393    108.5415    112.9950   9.3465532608e+01   3.8376850142e+01    0.5662744    0.2604659 -65.71   0.00169381    3.909    0.744
        84 -13.1370    112.5591    100.6703   8.9148997228e+01   4.0380382881e+01     1.551165    0.5630949  52.23  0.004730107    3.657    0.727
        85 -10.8791     82.4381    100.7705   9.7927079588e+01   4.5779736420e+01    0.2634704    0.2510096 -60.83 0.0005780456    1.045    0.043
        86 -10.9641     63.0084     95.7023   1.0268648196e+02   4.9792761353e+01    0.4040175     0.194431 -75.11  0.001354445    3.838    0.739
        87 -12.8930    170.3755     91.1305   7.2081580661e+01   2.9180106852e+01    0.4875663    0.4297321 -55.58 0.0008707838    1.163    0.140
        88 -10.8270     34.3756     88.7573   1.1039525350e+02   5.4609935920e+01    0.5334399    0.2005984 -70.13  0.002073453    2.931    0.659
        89 -10.5350      4.5354     91.1012   1.2038973862e+02   5.6262971462e+01     0.292682    0.1270575 -89.49  0.001298922    2.872    0.652
        90 -10.6365     20.3562     98.7470   1.1667577726e+02   5.3474050254e+01    0.5194722    0.2201751 -89.20  0.001892847    4.050    0.753
        91 -11.6342     42.2649     88.0710   1.0764353254e+02   5.3997712364e+01    0.4272178    0.2655212 -20.74  0.001509749    2.276    0.561
        92 -11.0465     46.5078     83.1509   1.0508257890e+02   5.4669131597e+01    0.6247609    0.3478589  72.18  0.002281769    4.341    0.770
        93 -11.3379     87.5592     87.4250   9.2809732069e+01   4.7959849419e+01    0.4590526    0.3099409  65.27  0.002066962    2.115    0.527
        94 -10.9633    104.8909     83.7698   8.6496413101e+01   4.5573303929e+01    0.3690439    0.2964845  83.28  0.001346525    1.647    0.393
        95 -11.9394     44.9317    101.5498   1.0960986572e+02   5.0584538913e+01    0.6758565    0.3775366  86.18  0.002860941    2.861    0.650
        96 -10.8853     24.3149     80.5557   1.1208734075e+02   5.7334750337e+01    0.3920392    0.1940594 -83.65  0.001684909    2.947    0.661
        97 -10.1511      9.2983     80.6581   1.1720589429e+02   5.8341401493e+01    0.1167072   0.08075476  80.65 0.0005440021    1.668    0.400
        98  -9.7656      2.0179     77.9296   1.1919419155e+02   5.9348399658e+01    0.1980468   0.09887802 -47.16  0.001128777    1.734    0.423
        99 -11.0414     82.2609     73.3082   9.0291596576e+01   5.1897215905e+01    0.5095466    0.3418288  89.65  0.002007298    3.185    0.686
       100 -10.8908     62.3202     70.5064   9.6185677084e+01   5.5518534600e+01    0.2852981    0.1125969 -46.82  0.001158863    2.188    0.543
       101 -10.0307    116.4437     73.3510   7.9904995205e+01   4.5324516639e+01     0.332363    0.2313068  88.89  0.001327445    2.531    0.605
       102 -11.9149    223.3589     70.6893   5.6936038333e+01   1.9602389860e+01    0.3063747    0.2872815 -84.34 0.0006198708    1.086    0.079
       103  -9.7911     95.0000     71.9919   8.5807572995e+01   4.9913521892e+01    0.2470294   0.07904086 -44.19 0.0008024607    2.943    0.660
       104 -10.7672     51.9648     71.1588   1.0004069881e+02   5.6705131059e+01     0.287526    0.1843357 -62.40 0.0009326034    1.589    0.371
       105 -11.0406      9.5013     57.2791   1.1243172396e+02   6.3439350622e+01    0.6693202    0.3953156  60.74  0.003579441    2.812    0.644
       106 -10.6432     39.3587     53.0362   9.9335102547e+01   6.1914403155e+01    0.3018808    0.2094929 -31.74 0.0008762687    1.310    0.237
       107 -11.9259     20.5543     50.9756   1.0634256587e+02   6.4022331924e+01    0.7460299    0.3982785 -70.16  0.003793103    2.248    0.555
       108 -13.5061     30.5397     59.9194   1.0486448763e+02   6.1342015471e+01     1.160917    0.8081583  36.81  0.002733676    1.776    0.437
       109 -12.0788    240.1542     64.9234   5.3188803858e+01   1.6544152590e+01     0.474572    0.2102564  70.29  0.001839896    2.818    0.645
       110  -9.9102    100.6610     61.3146   8.0473534566e+01   5.0905312891e+01    0.1440616    0.1178518 -80.53 0.0007047443    1.699    0.411
       111 -10.4346     73.3753     59.1008   8.8625113188e+01   5.6226024498e+01     0.245709    0.2172526 -65.47  0.001272532    1.364    0.267
       112 -10.0965    119.4866     56.9666   7.3530942148e+01   4.7683965381e+01    0.2112381    0.1224849 -56.67 0.0008089225    2.446    0.591
       113 -11.4026     19.4330     59.5708   1.0909730785e+02   6.2307302461e+01    0.3025762    0.2052947 -42.79 0.0007855045    1.232    0.188
       114 -10.3324    195.9344     67.9159   6.0493896266e+01   2.6833770830e+01    0.3984796    0.1952144  49.83  0.001545886    2.099    0.524
       115 -10.2867    162.2520     53.3960   6.2323493262e+01   3.7819728338e+01    0.2831404    0.1960842  70.12  0.001274889    1.560    0.359
       116 -11.9758    149.0716     52.2183   6.4685736567e+01   4.1364771954e+01    0.3522955    0.2981143  52.64 0.0003896238    1.156    0.135
       117 -11.0679    156.7008     44.6487   6.0586084610e+01   4.0561728421e+01    0.3416642    0.2640965 -77.48 0.0005745361    1.556    0.357
       118 -11.8324     71.6634     42.4923   8.3108102311e+01   5.9564686964e+01    0.6042768    0.3250554  51.87  0.002700925    2.564    0.610
       119 -11.4164      7.6564     43.2286   1.0962009319e+02   6.6450399876e+01    0.4737402    0.2594939  40.00  0.002732496    2.576    0.612
       120 -12.2449     40.7855     38.1893   9.3549338442e+01   6.4619608947e+01    0.5471528    0.3542365  12.60  0.002082505    1.759    0.432
       121 -11.9073    120.4241     34.5652   6.5091341771e+01   5.0953764421e+01    0.3650087    0.3040298 -59.77 0.0009154943    1.454    0.312
       122 -11.3750    139.8069     37.8821   6.1786541321e+01   4.5805321332e+01    0.3321699    0.2484227  47.57 0.0006709191    1.279    0.218
       123 -10.3252     50.2606     34.3532   8.8074632123e+01   6.4133959695e+01    0.2676024    0.1669441  33.58  0.001497505    1.756    0.430
       124 -10.2002     73.7886     32.6411   7.8325080156e+01   6.0817075182e+01    0.3315279    0.2062912  64.81  0.001426213    3.165    0.684
       125 -10.9815    107.1868     30.0416   6.6781071408e+01   5.4577626100e+01     0.474367    0.3331335 -83.06  0.001695832    2.534    0.605
       126 -10.6155    102.2312     30.1663   6.8209148693e+01   5.5640127310e+01    0.4813172    0.2820746 -43.79  0.002231049    1.971    0.493
       127 -12.5162    204.4410     21.9888   4.6318980433e+01   3.1079005387e+01    0.6143716    0.3379732 -78.56  0.002607842    2.230    0.552
       128 -11.3346    220.6643    249.1049   9.5286632129e+01  -7.1740322535e+00    0.3448506    0.1315532  39.27  0.001754999    2.081    0.519
       129 -10.4097     50.9148     22.0410   8.2451641469e+01   6.6025519508e+01    0.1854047    0.1522211 -11.66 0.0002981109    1.020    0.020
       130 -11.1172    239.8642     20.5840   4.2354241787e+01   2.2570557263e+01    0.2666581    0.2180793  83.25 0.0005985859    1.196    0.164
       131  -9.5595    188.0271    248.4609   1.0084662234e+02  -2.0699644480e+00    0.1738323   0.08255154  26.03 0.0008092138    2.580    0.612
       132 -10.6151    223.1714     16.3507   4.2854875458e+01   2.7049460422e+01    0.3217563    0.2021419  89.28  0.001635188    1.586    0.369
       133  -9.9797     88.8689     18.1536   6.7038253020e+01   5.9962549505e+01    0.1937826    0.1853089 -61.78  0.001222195    1.360    0.265
       134  -9.8932     46.6872     16.6593   8.1709448430e+01   6.7405664972e+01    0.2173871    0.1422352 -20.37 0.0008482324    1.344    0.256
       135 -12.1415     22.2207    239.1869   1.2890510157e+02   2.3277611755e+01    0.5295616     0.177683  68.64  0.002656931    2.902    0.655
       136 -10.5198     33.0013    242.1831   1.2732997780e+02   2.1563501489e+01    0.1858471   0.07290091  59.59  0.001067792    1.979    0.495
       137 -10.0527      8.1555    240.8365   1.3118655921e+02   2.4444087486e+01    0.1260549    0.1004702  83.02 0.0008138496    1.343    0.255
       138  -9.6894      2.5048    240.4803   1.3203677766e+02   2.5059797611e+01    0.1029887   0.06566829  70.39 0.0002098544    1.030    0.029
       139 -10.5807     12.8886    227.4028   1.2983419675e+02   2.6359937491e+01    0.2025953    0.1163852  73.68 0.0005830356    1.271    0.213
