#   1 NUMBER                 Running object number                                     
#   2 MAG_AUTO               Kron-like elliptical aperture magnitude                    [mag]
#   3 X_IMAGE                Object position along x                                    [pixel]
#   4 Y_IMAGE                Object position along y                                    [pixel]
#   5 X_WORLD                Barycenter position along world x axis                     [deg]
#   6 Y_WORLD                Barycenter position along world y axis                     [deg]
#   7 A_WORLD                Profile RMS along major axis (world units)                 [deg]
#   8 B_WORLD                Profile RMS along minor axis (world units)                 [deg]
#   9 THETA_WORLD            Position angle (CCW/world-x)                               [deg]
#  10 FWHM_WORLD             FWHM assuming a gaussian core                              [deg]
#  11 ELONGATION             A_IMAGE/B_IMAGE                                           
#  12 ELLIPTICITY            1 - B_IMAGE/A_IMAGE                                       
         1 -13.5636    221.5060      8.0904   3.5639705143e+01   2.9271259367e+01     1.265775     1.045915  48.55  0.005663246    1.494    0.331
         2 -14.2287    195.1141     38.5527   4.6100982177e+01   3.1926810606e+01     2.204126     1.491177  17.08   0.01017503    2.345    0.573
         3 -10.1672     79.7351     15.0259   6.2042469095e+01   6.1874229416e+01    0.3097864    0.1852734  62.14  0.001196527    2.195    0.544
         4 -11.5420    248.7120    247.4344   8.3329397218e+01  -1.1270208091e+01    0.5267367    0.2054117 -30.76  0.002765664    2.557    0.609
         5 -10.0942     59.5644    220.3630   1.1666154879e+02   2.1128901707e+01    0.2737179    0.2033015  16.32  0.001636363    1.990    0.498
         6  99.0000     50.9668    218.8811   1.1825584760e+02   2.2495876347e+01    0.5706552    0.2089223  58.45  0.002440974    2.931    0.659
         7 -12.0190     49.0186    248.7322   1.2085110948e+02   1.6972882427e+01    0.1877421    0.1349465  87.67 0.0005404772    1.291    0.226
         8 -10.4992     27.1485    214.9221   1.2263565657e+02   2.5996064840e+01    0.2395032    0.1654206  77.58  0.001074639    1.164    0.141
         9 -11.3949    162.2946    212.2529   9.3956349451e+01   6.8860107684e+00    0.6450565    0.2291563  33.50  0.002355573    2.947    0.661
        10 -10.2360    184.4736    212.0226   8.9340668172e+01   3.1629392366e+00    0.2161087    0.1640291  31.99 0.0006853524    1.178    0.151
        11  -9.8047     56.4573    209.4852   1.1630721656e+02   2.3778696310e+01    0.3317128    0.1690239  86.59  0.001101372    2.276    0.561
        12 -10.1202     28.8815    209.7680   1.2194167436e+02   2.6884830503e+01    0.1681109     0.118799  66.76 0.0004561369    1.153    0.132
        13  -9.9310     42.6103    208.8299   1.1910945155e+02   2.5575046941e+01    0.2333774    0.1221583  62.16 0.0003240267    1.776    0.437
        14 -11.0829     66.0125    207.0356   1.1404894913e+02   2.3075630085e+01    0.2425075    0.1805986  79.09 0.0003124076    1.233    0.189
        15 -11.2891     64.5910    203.0752   1.1394355356e+02   2.4114117761e+01    0.2288222    0.1771148  68.32 0.0004434031    1.132    0.117
        16  -9.0099     35.5259    208.6066   1.2052915678e+02   2.6416565706e+01    0.1253528   0.08736028  68.23 0.0002408293    1.191    0.161
        17  -9.0644     93.3291    205.7442   1.0796709620e+02   1.9495059660e+01    0.2113315    0.1758308  44.13 0.0003774086    1.159    0.137
        18 -18.0642     15.5442    242.5300   1.2631222843e+02   2.1799869299e+01     6.752219     6.227237 -64.05   0.05474208    1.634    0.388
        19 -11.0896    193.5040    204.5145   8.6189548858e+01   2.8933851892e+00    0.4795026    0.1721921  30.87  0.001672123    3.367    0.703
        20  -9.1255    167.8858    231.6792   9.5856576080e+01   2.6627177166e+00    0.1880098    0.1630085  -7.91 0.0004370859    1.237    0.192
        21 -11.6328    141.0702    198.4921   9.6272593555e+01   1.3167373752e+01    0.4984481    0.2688666 -49.14  0.002282269    2.001    0.500
        22 -11.5930     52.3226    199.7049   1.1625527863e+02   2.6395652803e+01    0.2287943    0.1681273  69.78 0.0005072786    1.192    0.161
        23 -12.2914     54.0015    196.9645   1.1562148039e+02   2.6793963041e+01    0.4543905    0.2707191 -48.12  0.001481522    2.141    0.533
        24 -10.9268    192.9865    194.8662   8.4508521509e+01   4.6301493679e+00    0.8462865    0.4369482 -59.76  0.002922263    4.353    0.770
        25 -11.8071    126.5739    192.7858   9.8604458672e+01   1.6858995702e+01    0.4879757    0.2805834 -44.85  0.002253722    1.937    0.484
        26 -11.7145    134.5893    198.7277   9.7755442743e+01   1.4247234358e+01    0.3501211    0.3047756 -31.45  0.001999309    1.300    0.231
        27 -11.4859    132.9316    194.3308   9.7410515826e+01   1.5434374076e+01    0.3096679    0.2899162  55.23  0.001095607    1.041    0.039
        28  -9.5166     38.6911    199.4501   1.1913717108e+02   2.8033675827e+01    0.1476903    0.1036387  51.47 0.0004219985    1.307    0.235
        29  -8.8862    186.8061    186.6005   8.4195187296e+01   7.2081343985e+00    0.2280599    0.1891364 -88.96  0.000908048    1.841    0.457
        30  -9.3948     81.7618    194.5259   1.0914008772e+02   2.3629361944e+01    0.3191729     0.194473  60.90  0.001602152    1.690    0.408
        31 -11.2135    149.6577    188.2961   9.2587674198e+01   1.3687231976e+01    0.5498697    0.3669588 -75.71  0.002416136    2.369    0.578
        32 -10.8091     62.5617    250.5402   1.1854818556e+02   1.4983691008e+01    0.1992412   0.09938843  46.13  0.000572978    1.577    0.366
        33  -9.1934     92.7804    185.2400   1.0532159307e+02   2.4066075059e+01    0.2557853    0.1626911  48.90  0.001277628    1.500    0.333
        34  -9.5566     58.1682    228.1951   1.1761161295e+02   1.9736454823e+01     0.149454    0.1043009  64.75 0.0002512766    1.197    0.164
        35 -10.6700    143.1983    179.6389   9.2477434849e+01   1.6663782495e+01    0.3137593    0.1972274 -48.68  0.001124628    1.661    0.398
        36 -10.0500    187.9587    176.2722   8.1895516598e+01   8.9075528649e+00     0.344787    0.3295004 -75.47  0.001682306    1.289    0.224
        37  -9.4882    149.0390    176.5091   9.0534342302e+01   1.6234439242e+01    0.2354328    0.1988305 -63.89  0.000390697    1.326    0.246
        38 -10.2263    146.6543    172.7557   9.0361116022e+01   1.7478772812e+01    0.3300253    0.2428332 -70.14  0.001123326    1.720    0.419
        39  -9.8011     55.0777    173.9660   1.1284870282e+02   3.1920921045e+01    0.2883068    0.1925953  63.22  0.001045381    1.482    0.325
        40  -9.6627     84.0700    173.5588   1.0570807693e+02   2.8083053748e+01    0.2091224    0.1755095 -72.07 0.0003876231    1.144    0.126
        41 -10.1717     46.0511    172.8946   1.1488963616e+02   3.3237352559e+01    0.3443961    0.2909417  39.65  0.001208621    1.325    0.245
        42  -9.9353    185.4698    169.7643   8.1075404553e+01   1.0616008121e+01    0.2375638    0.2157505 -38.45 0.0007445762    1.156    0.135
        43  -9.8235    240.0104    169.2104   7.0432284938e+01   8.1959515180e-01    0.1674635    0.1045817  38.08 0.0005599266    1.697    0.411
        44  -8.8526    193.9484    171.6651   7.9700020878e+01   8.6405981566e+00    0.2027784    0.1784735  27.11 0.0006932032    1.111    0.100
        45 -10.2580    137.7758    169.4793   9.1821937931e+01   1.9863202868e+01    0.3491371    0.2618221  29.27 0.0009980748    1.400    0.286
        46 -11.7370     94.3981    151.1419   9.9293593464e+01   3.1835538793e+01    0.7079284    0.5831596 -26.42  0.003679682    1.469    0.319
        47 -10.8016    133.8580    145.4961   8.7803476088e+01   2.6007248242e+01     1.280236    0.3317338 -54.72  0.002961343    5.857    0.829
        48  -9.2599    174.9953    149.0367   7.8821608522e+01   1.6830553226e+01    0.2368283      0.19188 -83.96 0.0007108748    1.704    0.413
        49  -8.5824    109.7016    147.9773   9.4602278153e+01   2.9983131289e+01    0.2056545    0.1848937 -64.79   0.00026922    1.092    0.085
        50  -8.8761    112.5686    150.7389   9.4408797316e+01   2.8813478911e+01    0.2069246    0.1438877 -66.25 0.0005456685    1.559    0.358
        51 -10.8098    106.2160    137.5406   9.3348701772e+01   3.3104064831e+01    0.5669074    0.3751495 -31.80  0.002460826    1.872    0.466
        52 -10.5069    105.9349    130.8449   9.1944271946e+01   3.4761527493e+01     0.411342    0.3212672 -63.12   0.00116936    1.303    0.233
        53 -11.6553     94.1324    137.2970   9.6643593527e+01   3.5245769062e+01    0.2904453    0.2597235 -35.70 0.0003493272    1.189    0.159
        54 -19.1871      5.7307    109.8696   1.1818255194e+02   5.1883200784e+01     16.77439    0.7973436 -71.80   0.02899502   14.909    0.933
        55 -10.2319    135.8050    129.4869   8.3582001117e+01   2.9263699192e+01    0.6138309    0.1227418 -49.86   0.00136361    5.801    0.828
        56 -10.3884    113.8947    129.0271   8.9317702491e+01   3.3721942781e+01      0.33831    0.3054844 -12.83 0.0009381545    1.225    0.184
        57  -8.6221     98.4648    130.2218   9.3907679786e+01   3.6231328724e+01    0.1946237    0.1425293 -68.73 0.0004476068    1.468    0.319
        58  -9.5474    160.9675    128.4505   7.7128058593e+01   2.4128029576e+01    0.3107514     0.220638 -58.08  0.001368346    1.605    0.377
        59 -10.9797    119.8958    123.3852   8.6313487271e+01   3.3885043953e+01    0.5854427    0.3121941 -31.78  0.002092157    2.553    0.608
        60 -10.3478    101.3787    124.7654   9.1837112543e+01   3.7035740723e+01    0.2958706    0.2384465 -28.55 0.0004888378    1.380    0.275
        61  -9.4528    109.6175    118.1390   8.7884027501e+01   3.7097482369e+01     0.237936    0.2065527  53.65 0.0003296623    1.226    0.184
        62 -10.0261    231.2963    113.7878   5.9646881131e+01   1.1792119704e+01    0.3032461    0.2573516 -29.62 0.0007679117    1.076    0.071
        63  -9.5568    167.6526    112.7736   7.1580965938e+01   2.5914744589e+01    0.3130805    0.2374287 -70.15  0.001394893    1.690    0.408
        64  -9.9234    135.0000    112.5620   7.9480204071e+01   3.3226606149e+01    0.4256475    0.1129722 -43.83  0.001161211    3.707    0.730
        65  -9.6062    134.6206    102.7622   7.6908359405e+01   3.5440923527e+01    0.3545389    0.1993714 -42.10   0.00141993    1.745    0.427
        66 -11.5616    117.8264    109.2810   8.3269218008e+01   3.7538096433e+01     0.727495    0.5416279  78.87  0.003058307    1.923    0.480
        67  -9.5007    205.2944    110.1794   6.3239107995e+01   1.7931341717e+01    0.2997008    0.2217932  49.51 0.0008621943    1.440    0.306
        68  -9.5561     64.3734     99.8207   9.7319202667e+01   4.8836458899e+01    0.2344082    0.1952543  44.25 0.0008414137    1.355    0.262
        69 -11.5261     52.2390     91.0097   9.9309400535e+01   5.2436958369e+01    0.4318301    0.2138034 -50.78  0.001961235    1.715    0.417
        70  -9.3594     65.7096     70.6419   8.8750083054e+01   5.5207461232e+01    0.2326074    0.1893291 -17.39  0.000496136    1.203    0.169
        71 -11.7511    169.9174     61.0041   5.6537793449e+01   3.4908170675e+01    0.6545558    0.5305491 -61.35  0.003347073    1.320    0.242
        72 -10.8539     71.9230    245.9137   1.1646265959e+02   1.4610595475e+01    0.3870009    0.1636857 -70.47  0.001992522    2.621    0.618
        73 -12.6140    179.2568     52.8341   5.2485206926e+01   3.3844215184e+01    0.7344056    0.6688746 -25.22 0.0008693876    1.173    0.148
        74  -8.1318     84.2154    245.6625   1.1412676125e+02   1.3003898310e+01    0.1137451   0.07459102  70.95            0    1.520    0.342
        75  -9.6300    189.7751     14.9290   4.0437627081e+01   3.6025068267e+01    0.1955962    0.1739915  50.28 0.0007330279    1.245    0.197
