#   1 NUMBER                 Running object number                                     
#   2 MAG_AUTO               Kron-like elliptical aperture magnitude                    [mag]
#   3 X_IMAGE                Object position along x                                    [pixel]
#   4 Y_IMAGE                Object position along y                                    [pixel]
#   5 X_WORLD                Barycenter position along world x axis                     [deg]
#   6 Y_WORLD                Barycenter position along world y axis                     [deg]
#   7 A_WORLD                Profile RMS along major axis (world units)                 [deg]
#   8 B_WORLD                Profile RMS along minor axis (world units)                 [deg]
#   9 THETA_WORLD            Position angle (CCW/world-x)                               [deg]
#  10 FWHM_WORLD             FWHM assuming a gaussian core                              [deg]
#  11 ELONGATION             A_IMAGE/B_IMAGE                                           
#  12 ELLIPTICITY            1 - B_IMAGE/A_IMAGE                                       
         1 -14.0160     55.9015    147.3228   1.0289009917e+02   3.8259272893e+01     5.385111     1.156831 -61.56   0.01579755    3.839    0.740
         2 -15.2498     68.7459    144.3709   9.8524461978e+01   3.7342509037e+01     5.458742     2.262425  58.51  0.006012345    6.448    0.845
         3 -14.0047    200.4731     42.9486   4.0035750512e+01   3.0160512362e+01     1.067131    0.9991299 -59.74  0.003031249    1.143    0.125
         4 -14.5251    210.5942     33.2690   3.6597418110e+01   2.9137525123e+01     1.268072    0.9078044 -16.61  0.001688634    1.942    0.485
         5 -12.0167      2.2308     23.1204   9.4014524143e+01   7.1238675840e+01    0.5841419   0.07513652 -53.25  0.001811363    6.179    0.838
         6 -12.1078      2.6345      3.9782   8.5095749593e+01   7.4232048375e+01     0.751632    0.1749853 -41.99  0.003267836    3.515    0.716
         7 -13.8024    236.1204      7.1983   2.8889361055e+01   2.6744119950e+01    0.8192904    0.6244994 -73.91   0.00453554    1.026    0.025
         8 -10.4059     60.4775      7.5222   5.7743749585e+01   6.5894360029e+01    0.1256854   0.09881724  23.88 9.542464e-06    1.014    0.013
         9 -11.2142     43.9653      6.5042   6.3862489077e+01   6.8840289793e+01    0.1805907    0.1005881  38.40 0.0006571342    1.576    0.366
        10 -12.5483    193.9798    196.8405   7.6796458862e+01   3.6344086519e+00     1.671498     0.775097 -46.17  0.007041991    2.291    0.564
        11 -15.1122     40.7537    194.6447   1.1304762866e+02   2.8142218555e+01     4.707165     1.869952  70.17   0.01004035    4.545    0.780
        12 -14.3334     20.1027    220.6063   1.1973669008e+02   2.4400581796e+01    0.7169939    0.5354247  67.61  0.002571751    1.092    0.084
        13 -17.8774     16.0993    241.1754   1.2174538141e+02   2.0510692470e+01     7.498621     2.462638  24.49   0.02795161    4.648    0.785
        14 -10.6232     58.9623    196.3310   1.0882789052e+02   2.5568528966e+01    0.2226528     0.180438 -70.99  0.000346315    1.201    0.167
        15 -13.6398     54.6912    185.5148   1.0861437491e+02   2.8719784641e+01     0.863727    0.7826314 -75.16  0.004105621    1.099    0.090
        16  -8.8531    224.2607    206.6655   7.2653504681e+01  -2.7638496293e+00    0.1135257    0.1023498 -50.02 0.0002578885    1.576    0.366
        17  -9.7242     82.3182    194.9406   1.0287139067e+02   2.2711692919e+01    0.2437903    0.1887374  14.28   0.00106532    1.572    0.364
        18  -9.9351     20.9417    195.2766   1.1773469215e+02   3.0036264984e+01    0.2410717    0.1584856  46.96  0.001367749    1.451    0.311
        19 -11.3428    149.7964    191.7840   8.5687798985e+01   1.2276144997e+01    0.5824834    0.3883722 -83.46  0.002275736    2.967    0.663
        20 -10.7104    146.5816    185.8037   8.5326096166e+01   1.4141315279e+01    0.2955334    0.2754742  12.76 0.0007055069    1.026    0.026
        21  -9.0576     66.4837    193.5311   1.0663758400e+02   2.5259921134e+01    0.1397176    0.1231143  72.97 0.0002256653    1.046    0.044
        22 -11.5740    118.3131    190.5260   9.3141371086e+01   1.8043494908e+01    0.4465491    0.2574661 -77.64  0.001657778    2.947    0.661
        23  -9.9891    108.3117    190.3425   9.5624753269e+01   1.9756804921e+01    0.1496141    0.1138741 -19.10 0.0004860459    1.701    0.412
        24 -10.3550     85.2031    185.9777   1.0084681591e+02   2.4438369223e+01    0.3626791    0.3076797 -85.15  0.001579981    1.193    0.162
        25 -10.1670     82.5072    182.4309   1.0101322654e+02   2.5705374673e+01    0.2614139    0.2260733 -31.87 0.0007100767    1.337    0.252
        26  -9.9883     79.4743    181.5120   1.0166918602e+02   2.6376627666e+01    0.3486515    0.2603539 -84.38   0.00150585    1.428    0.300
        27 -10.6893     64.9093    179.1283   1.0515247719e+02   2.8994136258e+01     0.334019     0.284829 -77.24  0.000893025    1.106    0.096
        28  -9.1100     75.9793    184.4815   1.0301400282e+02   2.6149683995e+01    0.1950108    0.1043339  56.16 0.0004010628    2.154    0.536
        29 -11.0856     99.4360    180.8997   9.6337982896e+01   2.3453569393e+01    0.2728262    0.2653766 -32.24 0.0006043134    1.093    0.085
        30  -9.4402     88.4611    178.4701   9.8827842210e+01   2.5780567492e+01    0.2261541    0.1876435 -77.98 8.234286e-05    1.231    0.188
        31 -10.6482     91.1639    176.1985   9.7738133119e+01   2.5921118923e+01    0.3887252    0.2381765 -82.32  0.001604322    2.195    0.544
        32 -10.8122     47.7639    177.3194   1.0940293947e+02   3.1574839597e+01    0.2553226    0.1750504 -71.87 0.0007285737    1.338    0.253
        33 -11.7932     41.3286    176.7787   1.1100540244e+02   3.2434390406e+01    0.5783044    0.3709297 -31.25  0.002795912    2.223    0.550
        34 -12.8411    240.0238    175.5337   6.3766657668e+01   7.4902208496e-02    0.5584623    0.3407154  30.14  0.002972044    1.810    0.448
        35 -11.1733    186.5110    174.4665   7.3894621198e+01   9.2362390752e+00    0.3808269    0.3618007 -65.05   0.00129177    1.283    0.221
        36 -15.6766      9.4972    208.0738   1.2114215289e+02   2.8163452336e+01     1.783894     1.086477 -60.95  0.007887837    1.729    0.422
        37 -13.7410     69.6269    153.4062   9.9876098551e+01   3.4890106827e+01    0.7524506    0.4676521 -54.98  0.001265859    1.505    0.336
        38  -9.2621    250.6673    237.2885   7.3333998399e+01  -1.0703256773e+01   0.09715793   0.08959876   6.13 0.0001937623    1.626    0.385
        39 -12.3370     68.6164    171.2522   1.0303205048e+02   3.0471024481e+01    0.4915855    0.3015447 -36.20  0.001612757    2.104    0.525
        40  -9.3014     84.2917    173.6871   9.9168204222e+01   2.7602416679e+01       0.1505    0.1095122  71.29 0.0002227222    1.591    0.371
        41  -9.8357     34.9292    171.9447   1.1211874349e+02   3.4317678729e+01    0.2046829    0.1728079  89.85 0.0004665306    1.041    0.040
        42 -11.8900    240.2761    169.3917   6.2491738404e+01   1.0758594567e+00    0.2607329    0.2010794  -7.60 0.0006760351    1.268    0.211
        43  -9.7728    192.9390    169.5179   7.1489524948e+01   9.0507787586e+00    0.2117163     0.142497  37.28 0.0007348868    1.536    0.349
        44  -9.7634    110.9009    168.0431   9.0992551102e+01   2.4654911896e+01    0.2379253    0.2042305  78.76 0.0005409032    1.315    0.239
        45  -9.8924     80.4981    167.4932   9.9184166386e+01   2.9726674416e+01    0.1465531    0.1397005 -84.75 7.198461e-05    1.003    0.003
        46 -12.2487    203.7597    200.2180   7.5436069588e+01   1.4397009188e+00    0.5572049    0.2492684  26.27  0.002236313    2.631    0.620
        47 -12.3450     88.6310    151.6733   9.4033206945e+01   3.2488700634e+01    0.7414786    0.5024363 -22.70  0.002747116    2.033    0.508
        48 -11.4993    133.8327    144.8978   7.9954009890e+01   2.5945200137e+01     1.314238     0.346835 -54.32  0.003001251    5.631    0.822
        49  -9.7473    111.8265    149.9780   8.7077474378e+01   2.8927966511e+01    0.2992702    0.1982057  63.61 0.0009621564    2.045    0.511
        50 -10.1643    174.8586    149.1216   7.0916173340e+01   1.6701717252e+01    0.2304469    0.2128868 -72.60 0.0006018421    1.255    0.203
        51 -10.7970     38.0832    146.0157   1.0797230892e+02   4.0592078595e+01      0.36618    0.1736529  36.34  0.001620746    2.207    0.547
        52 -10.9082    102.2539    138.2395   8.7238655899e+01   3.3568986797e+01    0.5907751    0.3675594 -20.08  0.002185349    2.565    0.610
        53 -11.0557    105.9683    131.0266   8.4480135667e+01   3.4676551200e+01    0.4471683    0.3287777 -55.03   0.00148863    1.357    0.263
        54 -12.4035     89.7430    137.5727   9.0812808713e+01   3.5889373017e+01    0.2921935    0.2602302 -40.58 0.0003485834    1.107    0.097
        55 -12.5307     44.4575    131.1626   1.0368637187e+02   4.3754444513e+01    0.6286243    0.3383623 -78.49  0.002649582    2.135    0.532
        56 -11.3972    135.2483    128.2840   7.5585883226e+01   2.9533748298e+01    0.5685493    0.3782235 -47.75  0.002080618    1.486    0.327
        57  -9.7662    160.9913    127.9771   6.9062441736e+01   2.4128136918e+01    0.2551924    0.2007392 -82.00  0.001143985    1.723    0.420
        58 -12.3479     39.5353    125.4726   1.0428376781e+02   4.5726892100e+01    0.4919699    0.2719456 -51.10  0.001694528    1.600    0.375
        59 -11.0487     98.8351    124.8251   8.5128585137e+01   3.7500191389e+01    0.3269089    0.2644104   1.16  0.001318568    1.459    0.315
        60 -10.9712    117.2070    123.8851   7.9458689080e+01   3.4241860433e+01    0.3760157    0.2353167  23.27   0.00108754    2.021    0.505
        61  -9.1287    163.4977    121.4737   6.6849734890e+01   2.4975952622e+01     0.155723    0.1507834 -43.80 0.0001187786    1.031    0.030
        62  -9.8337     86.7799    120.3257   8.7792762957e+01   4.0701053490e+01    0.2861546    0.2247029  68.15   0.00134502    1.609    0.379
        63 -12.3880     33.3345    118.6932   1.0514685216e+02   4.8048898194e+01    0.4426214    0.2756477 -37.43  0.001626174    1.659    0.397
        64 -10.0531    107.8533    118.2134   8.0750446824e+01   3.7417067701e+01    0.2156307    0.2108581  65.09 0.0002707441    1.093    0.085
        65 -12.2598     72.9591    166.7155   1.0114012645e+02   3.1016942081e+01    0.5061731    0.3410871 -63.73 0.0008996798    1.418    0.295
        66 -10.6802    231.3117    113.8296   5.2171889559e+01   1.2350560014e+01    0.2879916    0.2234316 -44.57 0.0007450529    1.125    0.111
        67 -10.3977    111.6330    129.0273   8.2342117853e+01   3.4097284753e+01    0.3444672    0.2571228  -0.41 0.0008858919    1.775    0.437
        68 -12.0705     34.1660    109.4506   1.0316529583e+02   5.0295659876e+01    0.3673336    0.2959133  88.23  0.001897575    1.414    0.293
        69  -9.9169    205.5400    110.1901   5.5551461691e+01   1.8140168260e+01     0.241923    0.2081854  52.60 0.0006752174    1.269    0.212
        70 -10.9070    115.9983    109.1601   7.5943750078e+01   3.7904148626e+01    0.4324056    0.3136369  38.24  0.001971526    1.403    0.287
        71 -11.9011     41.4782    103.6993   9.9385560604e+01   5.1002925871e+01    0.4251823      0.28746  40.58   0.00173204    1.711    0.416
        72 -11.1912     32.5787     99.6846   1.0177527335e+02   5.2848932990e+01    0.4218398    0.1914957  37.46  0.001457919    2.545    0.607
        73 -12.9051     81.3373    158.4724   9.7395144252e+01   3.1891513550e+01     1.093878    0.6590714  67.40  0.004357701    2.378    0.579
        74  -9.6669     15.2202     89.5475   1.0625283463e+02   5.6627775045e+01    0.2224793    0.1188634  24.84  0.001127065    2.142    0.533
        75  -9.6879     74.9491     85.1360   8.2319364206e+01   5.0903604176e+01    0.2069284    0.1975426  67.27 0.0004872842    1.269    0.212
        76  -9.2072     32.2878     85.6694   9.8740557102e+01   5.6218474072e+01    0.1266297    0.1041156  78.80  0.000252654    1.620    0.383
        77  -9.8836    159.0114     83.2853   5.7662826743e+01   3.3589969319e+01    0.2104983    0.1980889  61.58 0.0004897813    1.062    0.059
        78  -9.8405    150.9848     82.9292   5.9339901339e+01   3.5541442995e+01    0.2265307    0.2131328 -82.66 0.0004460967    1.111    0.100
        79 -10.0711    111.7195     81.5512   6.9149808446e+01   4.4685030799e+01    0.3399534      0.24489  76.93  0.001143512    2.175    0.540
        80  -9.7781     70.0078     81.8416   8.3118400760e+01   5.2408469086e+01    0.2031056    0.1914111  61.32 0.0004837364    1.305    0.233
        81 -10.7331     13.5171     60.0349   1.0018840753e+02   6.3397784649e+01    0.2317081    0.1889364 -41.96 0.0004149799    1.077    0.072
        82 -13.6007    190.0884     50.8235   4.3372141160e+01   3.1472323533e+01    0.9578533    0.7110934  48.04  0.001255422    1.500    0.333
        83 -11.7468    122.4526    199.2128   9.3580537563e+01   1.5383904421e+01    0.3691518    0.2932658 -74.86   0.00149677    1.484    0.326
        84 -12.0947    111.9028    196.8634   9.5786033152e+01   1.7662029348e+01    0.6267589    0.3772722   0.29  0.002223881    3.491    0.714
        85  -9.9213     31.6244    204.4200   1.1605706764e+02   2.6839482809e+01    0.2907097    0.1456516  64.66   0.00140016    2.047    0.511
        86 -10.3917    187.9886     31.2714   3.8715460852e+01   3.4530255618e+01    0.1892486    0.1575687  81.57 0.0005787868    1.088    0.081
        87 -11.3517      4.5851     30.1188   9.5320785031e+01   6.9854441217e+01    0.3278045    0.1756391   9.26  0.001167092    1.879    0.468
        88 -11.3691    184.2089    212.4893   8.1767777941e+01   2.3653878564e+00    0.2547697    0.1912144 -35.72   0.00122817    1.355    0.262
        89  -9.8650    198.0768     23.4830   3.5652412960e+01   3.3121204036e+01    0.2106776    0.1795027 -12.06 0.0006839072    1.563    0.360
        90  -9.8598    189.6923     14.9807   3.4502566604e+01   3.5975129084e+01    0.1740564    0.1500624 -67.01 0.0006472738    1.111    0.100
        91  -8.7390     68.0000    199.0234   1.0694133544e+02   2.3748760322e+01    0.2156222   0.07484281 -65.62 0.0004948906    2.864    0.651
        92 -16.1375      3.2179    189.1630   1.2129518627e+02   3.3007449534e+01     10.79244          nan -71.67   0.02570897    6.964    0.856
        93  -9.8534     88.6776    209.9463   1.0333428984e+02   1.8309176135e+01    0.1904286    0.1684195 -79.56 0.0005251143    1.158    0.137
