#   1 NUMBER                 Running object number                                     
#   2 MAG_AUTO               Kron-like elliptical aperture magnitude                    [mag]
#   3 X_IMAGE                Object position along x                                    [pixel]
#   4 Y_IMAGE                Object position along y                                    [pixel]
#   5 X_WORLD                Barycenter position along world x axis                     [deg]
#   6 Y_WORLD                Barycenter position along world y axis                     [deg]
#   7 A_WORLD                Profile RMS along major axis (world units)                 [deg]
#   8 B_WORLD                Profile RMS along minor axis (world units)                 [deg]
#   9 THETA_WORLD            Position angle (CCW/world-x)                               [deg]
#  10 FWHM_WORLD             FWHM assuming a gaussian core                              [deg]
#  11 ELONGATION             A_IMAGE/B_IMAGE                                           
#  12 ELLIPTICITY            1 - B_IMAGE/A_IMAGE                                       
         1 -12.9911    194.2641     40.9448   4.4575147514e+01   3.2211340829e+01     1.240719    0.9401271  26.86    0.0054153    1.774    0.436
         2 -11.3419    217.6348     10.8780   3.4615272854e+01   3.0310684310e+01    0.6094806    0.3107516 -35.72  0.003081125    1.893    0.472
         3 -11.2374    223.6882     12.4683   3.4465709251e+01   2.8794899962e+01     0.507451    0.3801449  42.68  0.003096482    1.788    0.441
         4 -11.2184    222.7222      6.3529   3.3182476847e+01   2.9650700934e+01    0.5635979    0.3660898 -85.24  0.003382391    1.387    0.279
         5 -10.7207     49.6376      5.5485   6.6005115761e+01   6.8491504183e+01    0.4462869    0.1127522 -35.35  0.001679733    4.317    0.768
         6 -10.9587     59.1688      5.8471   6.2347820663e+01   6.6850210124e+01    0.3925824    0.2064871 -15.04  0.002073915    1.990    0.498
         7  -9.8286     71.9096    215.6536   1.1168074574e+02   2.0591892663e+01    0.1851194    0.1483705  53.55  0.001156842    1.103    0.093
         8 -19.5128     11.1323    146.2898   1.1908161024e+02   4.3148604430e+01     19.53297     3.013958 -75.54   0.05147572    6.429    0.844
         9 -11.6959    110.8742    203.2929   1.0142838235e+02   1.7490001974e+01    0.4918406    0.3170205  90.00  0.002172251    2.219    0.549
        10 -10.6110     63.5169    201.6719   1.1205878296e+02   2.4725603023e+01    0.3594792    0.2284776 -63.36 0.0003076546    1.575    0.365
        11 -10.3803     67.6492    196.5491   1.1054797094e+02   2.5334945407e+01    0.5972164    0.2276723 -67.75  0.002467162    2.627    0.619
        12 -11.4206    121.7134    197.6058   9.8064494249e+01   1.6928093064e+01    0.4782494    0.3186257 -84.96  0.002200026    2.170    0.539
        13  -9.9684     32.8490    196.4923   1.1838600914e+02   2.9458670388e+01    0.2296459     0.156454  80.70 0.0005749092    1.287    0.223
        14 -10.8455    114.9639    193.9564   9.9073183914e+01   1.8835946228e+01    0.4269623    0.1666634 -42.62  0.001482598    3.452    0.710
        15  -8.4489    191.7117    192.3303   8.1569594801e+01   5.7153111300e+00    0.1277101    0.1137648  87.90 0.0002940058    1.620    0.383
        16  -9.7084     82.8598    194.3412   1.0672474299e+02   2.3733384541e+01     0.238289    0.1743365 -83.73  0.001294909    1.414    0.293
        17 -10.0793     75.3698    248.4073   1.1406405316e+02   1.3674494524e+01    0.4942952    0.1826568 -57.58  0.002360709    3.080    0.675
        18  -8.5095     92.3135    184.2922   1.0305122640e+02   2.4626698109e+01    0.1336598    0.1101756 -20.39 0.0002138565    1.593    0.372
        19 -10.0616     99.1013    180.9548   1.0086717639e+02   2.4339003698e+01    0.2124822    0.2038213  75.87  0.000624327    1.034    0.033
        20  -9.7915    186.7027    174.8971   7.9156354114e+01   9.8574945661e+00     0.338341    0.2665503 -37.34  0.001081588    1.265    0.209
        21  -8.2957    148.6753    175.3131   8.7775303318e+01   1.6923077424e+01    0.1485277     0.117527  75.39  0.000704124    1.662    0.398
        22  -9.8019     84.0567    173.9816   1.0356449783e+02   2.8292749732e+01    0.2144972    0.1984468  86.33 0.0004849109    1.011    0.011
        23 -10.7428     54.1316    173.1057   1.1101569071e+02   3.2517842137e+01    0.4184392    0.2396735  83.17 0.0009148288    2.043    0.511
        24 -10.4479    103.4817    171.2899   9.8171807378e+01   2.5885973954e+01    0.3205679    0.2101911  61.70  0.001456862    1.790    0.441
        25 -11.3470     46.5749    173.1449   1.1290190927e+02   3.3387065162e+01    0.3704545    0.3350629  68.21  0.001937521    1.112    0.101
        26 -10.2235     71.8895    244.4224   1.1439629589e+02   1.4867755272e+01    0.3650435    0.2067369 -72.86  0.002125193    1.915    0.478
        27  -9.3412     89.3701    211.3724   1.0737006335e+02   1.9058574921e+01    0.2225387    0.1936524  58.54 0.0004966674    1.018    0.018
        28 -10.8791     67.9404    160.2435   1.0567952947e+02   3.3899364569e+01    0.2784244    0.2218642 -48.27 0.0009437805    1.325    0.245
        29  -9.8279     88.0879    157.3181   9.9777906544e+01   3.1711764604e+01    0.2643026    0.2205432 -58.13 0.0003485745    1.165    0.141
        30 -10.9800    134.6670    210.1063   9.7063668078e+01   1.2197436834e+01    0.2787482    0.2555493 -57.94  0.001697349    1.207    0.172
        31 -10.6320     94.0524    151.0392   9.7003689662e+01   3.2302708215e+01     0.582959    0.4226073 -23.40  0.001181919    1.850    0.459
        32  -9.9685    133.8720    145.2647   8.5132904946e+01   2.6472389423e+01    0.4936489    0.1052802 -50.81  0.001183864    5.111    0.804
        33  -9.5708    106.5736    136.9017   9.0615575010e+01   3.3608137704e+01    0.4529992    0.2417009 -25.76  0.001391496    3.890    0.743
        34  -9.8914    106.3035    131.0563   8.9376790692e+01   3.5064585272e+01     0.404824    0.3335458 -74.73  0.001429899    1.347    0.258
        35 -10.5203     94.3908    136.6129   9.4015099664e+01   3.5784138588e+01    0.2866189    0.2532667 -39.29 0.0007393669    1.155    0.135
        36 -10.1616    114.0965    128.7949   8.6644900130e+01   3.4159874916e+01    0.2853569    0.2289848 -32.87  0.001093206    1.316    0.240
        37 -11.0783    104.5366    209.5787   1.0374429392e+02   1.7159472855e+01    0.4029588    0.1758636 -52.73  0.001740789    2.462    0.594
        38  -9.2840    101.2840    124.5489   8.9312618269e+01   3.7529377126e+01    0.2793798    0.2287353 -30.72 0.0004302655    1.301    0.232
        39  -9.3700     70.9173    210.6615   1.1137223280e+02   2.1787956204e+01    0.2386379    0.1549043  74.15  0.001291466    1.603    0.376
        40  -8.7088    109.6943    118.0017   8.5259966642e+01   3.7537497714e+01    0.2202906    0.1909961 -48.67 0.0004147166    1.120    0.107
        41  -8.8928    231.1391    113.9100   5.7134765243e+01   1.2477408598e+01    0.2140633    0.1804534 -55.31 0.0009138354    1.223    0.182
        42 -11.0946     58.9133    110.6829   9.9370197554e+01   4.7373655638e+01     0.465678    0.1928857 -43.62  0.001779712    2.458    0.593
        43 -10.5731    118.1044    110.2905   8.0838770112e+01   3.7667435515e+01    0.5033066     0.250282  45.13  0.001920315    2.086    0.521
        44  -8.0610    205.6748    110.2949   6.0579906931e+01   1.8397424567e+01    0.1475185    0.1140183 -72.18 0.0003441807    1.623    0.384
        45 -10.3208    107.7713    204.0206   1.0224428443e+02   1.7828238331e+01    0.1899257    0.1756788  82.82  0.000734771    1.091    0.083
        46 -11.4147    178.8904     54.2025   5.0511182860e+01   3.4095109365e+01    0.4496454     0.363627 -31.04  0.001189795    1.298    0.229
        47  -9.8073    133.5390    249.3634   1.0268218552e+02   5.2298259935e+00    0.3229388    0.1458577  31.26  0.001520441    2.112    0.526
        48 -11.9598    199.1685     35.6118   4.2549584894e+01   3.1728610937e+01    0.5965056    0.5329472 -61.90  0.001591903    1.068    0.064
        49  -9.9873     94.1731    247.8218   1.1034250760e+02   1.1228417988e+01    0.1533982    0.1426702  17.10  0.001085927    1.344    0.256
        50  -9.0274     83.3865    244.2116   1.1212397114e+02   1.3375382189e+01    0.1597253    0.1063162 -88.68 0.0008960478    1.682    0.405
        51  -8.9950     73.0312    236.3410   1.1345737218e+02   1.6255998193e+01    0.1689893    0.1325903  51.54  0.000352797    1.087    0.080
        52 -10.4969    140.1275    221.7097   9.7613115863e+01   9.0721866521e+00    0.2276789    0.1547107  49.52  0.001218839    1.446    0.308
