#   1 NUMBER                 Running object number                                     
#   2 MAG_AUTO               Kron-like elliptical aperture magnitude                    [mag]
#   3 X_IMAGE                Object position along x                                    [pixel]
#   4 Y_IMAGE                Object position along y                                    [pixel]
#   5 X_WORLD                Barycenter position along world x axis                     [deg]
#   6 Y_WORLD                Barycenter position along world y axis                     [deg]
#   7 A_WORLD                Profile RMS along major axis (world units)                 [deg]
#   8 B_WORLD                Profile RMS along minor axis (world units)                 [deg]
#   9 THETA_WORLD            Position angle (CCW/world-x)                               [deg]
#  10 FWHM_WORLD             FWHM assuming a gaussian core                              [deg]
#  11 ELONGATION             A_IMAGE/B_IMAGE                                           
#  12 ELLIPTICITY            1 - B_IMAGE/A_IMAGE                                       
         1 -15.2001    242.8688    133.7465   1.6862374282e+01   8.7853878712e+00     4.705575    0.5193696 -40.87   0.01109707    9.107    0.890
         2 -14.2611    248.5816    124.7457   1.4371033617e+01   9.2080575284e+00     3.409643    0.3448037 -38.14  0.009405985    6.519    0.847
         3 -14.4377    248.8040     68.0632   2.7787511445e+00   1.6838392661e+01     4.077816     0.639345 -31.25   0.01065942    7.291    0.863
         4 -15.9211    246.7934     21.0535   3.5303701615e+02   2.2823478979e+01     6.741454     1.797889 -25.93   0.02429768    4.649    0.785
         5 -12.9847     12.1492     24.1978   5.6024522948e+01   7.4558988742e+01    0.7162815    0.2870819 -36.31  0.002955221    2.649    0.622
         6 -11.2560     19.8603     14.6295   4.4294443217e+01   7.5664238608e+01    0.3538989    0.1775524 -30.96  0.001614065    2.263    0.558
         7 -12.0370     10.3219      2.3556   4.4767003557e+01   7.9012198545e+01    0.5309735    0.2493735  17.69  0.002480912    2.399    0.583
         8 -12.9112      6.4443     11.5894   5.4957081654e+01   7.7654448042e+01       0.7922    0.4106703 -35.95  0.004077349    1.801    0.445
         9 -11.7796     13.3856     12.9454   4.8998054783e+01   7.6736787643e+01    0.2977776    0.2002409 -23.28  0.001208397    1.463    0.316
        10 -12.1223     15.4749      7.4499   4.3410998563e+01   7.7509536090e+01    0.4743128    0.2787028 -14.53  0.002351466    2.126    0.530
        11 -12.1594     25.0285      7.8985   3.5446942496e+01   7.6095495847e+01    0.3324611    0.2287177  -5.25  0.001584155    1.652    0.395
        12 -10.2952     33.4920      8.4729   2.9646113252e+01   7.4591814304e+01    0.1321273    0.1140189  14.62 0.0002782281    1.033    0.032
        13 -10.7640     41.3764      2.6343   2.0504268674e+01   7.3842044108e+01    0.2826369    0.1646616  23.24  0.001346952    2.061    0.515
        14 -11.9469     24.3498      2.2894   3.1653909242e+01   7.7053711106e+01    0.5388984    0.1499131  38.86  0.001965012    3.463    0.711
        15 -11.5616    191.0753    233.9759   4.2674267330e+01   1.6316771021e+00    0.3436822    0.1491353 -35.29  0.001871804    2.401    0.583
        16 -10.9448    250.0957    200.9646   2.7860902315e+01  -9.2506011241e-01    0.3568226    0.1307865 -34.97  0.001926271    2.363    0.577
        17 -11.9628    246.4909    193.2474   2.7123516691e+01   4.0447138978e-01    0.6101708    0.2761746 -44.98  0.003072624    3.194    0.687
        18 -12.0515    233.4677    245.8921   3.7159728242e+01  -4.3082004857e+00    0.5123447    0.2134844 -25.84  0.003111638    2.235    0.553
        19 -11.9789    247.9578    215.5816   3.0485529223e+01  -2.4030619930e+00     0.594009    0.2229814 -29.43   0.00308413    2.294    0.564
        20 -12.0971    242.4001    247.2227   3.5962868785e+01  -5.2914637500e+00    0.4782627    0.2537038 -18.12  0.002503589    1.576    0.365
        21 -12.1633    240.9977    238.5209   3.4951224144e+01  -4.2479159889e+00    0.6624821    0.2948024  -8.34  0.003535726    2.852    0.649
        22 -12.3238    247.3221    226.3997   3.2222546007e+01  -3.5492734013e+00    0.6756179    0.3087809 -17.49  0.004042814    2.107    0.525
        23 -11.4688    248.9098    248.4400   3.5151595336e+01  -6.0076206772e+00    0.3984364    0.1729016 -29.58  0.002657603    2.050    0.512
        24 -11.7751    246.7750    240.4413   3.4349211362e+01  -4.9973150684e+00    0.3694206    0.2035746 -24.24  0.002681161    1.536    0.349
        25 -11.5590    249.6779    233.5999   3.2932307692e+01  -4.5518597982e+00    0.3756673    0.1745916 -29.50  0.001915862    1.868    0.465
        26 -11.4208    224.9874    249.0155   3.8941212304e+01  -3.8155426672e+00    0.3361945    0.2257673   3.28  0.002445138    1.056    0.053
        27 -11.9676    225.3344    241.9311   3.7902913217e+01  -3.0737495342e+00    0.4638019    0.2057368 -28.73  0.002854144    2.107    0.525
        28 -12.2013    210.7489    248.0035   4.1156751709e+01  -2.2586554113e+00    0.4151011    0.2532334  -8.49  0.002761964    1.447    0.309
        29 -11.0242    166.4195    249.8922   4.9401110620e+01   2.4393371214e+00    0.2454026    0.1217642  15.62  0.001330958    1.985    0.496
        30 -10.3226     50.3559    250.2069   7.3650510133e+01   1.6167672393e+01    0.2942152   0.08686367  34.25  0.001370485    2.222    0.550
        31 -11.4542     36.3133    248.5423   7.6574172332e+01   1.7932774226e+01    0.4720687      0.17546  46.81  0.002469833    1.938    0.484
        32 -14.9734      4.4181    132.6799   7.9136678349e+01   4.7147817358e+01      3.30513    0.5307906 -85.73  0.007607691    7.394    0.865
        33 -11.3165    216.3200    232.0491   3.7974970362e+01  -9.8703550339e-01    0.3434359    0.1791002 -28.10  0.002171818    1.795    0.443
        34 -12.8067     26.0367    228.8114   7.7964607738e+01   2.2676456645e+01     0.537419    0.2586056  76.23  0.002856021    2.177    0.541
        35 -12.9101     12.4020    229.2678   8.1048641105e+01   2.3866552153e+01    0.9086595    0.3024189  64.63  0.004170094    2.786    0.641
        36 -10.7651    229.1592    227.2119   3.5155701281e+01  -1.7918996912e+00    0.2600712    0.1221795 -27.80  0.001583448    1.920    0.479
        37 -10.2768    223.5321    225.7583   3.5850473250e+01  -1.0177584754e+00    0.1958211   0.08747054 -29.23  0.001128889    2.073    0.518
        38 -10.8794    207.8031    224.7635   3.8355324169e+01   8.6812389370e-01    0.2726155    0.1394718 -28.56  0.001618276    1.877    0.467
        39 -10.1614    198.8501    226.1741   4.0143891023e+01   1.7335467458e+00    0.1649489    0.1100136  -2.05  0.001079596    1.330    0.248
        40 -10.5615    216.8592    222.1373   3.6412623498e+01   1.6348405699e-01    0.2971862    0.1279216 -30.05   0.00163761    2.213    0.548
        41 -11.3405    227.5285    219.5401   3.4258976369e+01  -7.0564810551e-01    0.3028445    0.1607943 -21.82  0.001721524    1.692    0.409
        42 -10.0131    202.4810    217.0315   3.8119851679e+01   2.5092928216e+00    0.1671118    0.1013906 -31.37  0.001037205    1.605    0.377
        43 -11.6511    240.4988    209.0305   3.0582494751e+01  -8.5383017013e-01    0.4324275    0.2316495 -45.82  0.002414973    2.944    0.660
        44 -10.9423    233.1559    211.9413   3.2180912252e+01  -4.0257573511e-01    0.3521143    0.1608551 -23.26  0.001979987    2.080    0.519
        45 -14.0633      4.4298    193.7772   8.1810547503e+01   3.2052932469e+01     1.116747    0.6321484  87.67  0.006221011    1.671    0.401
        46 -11.0827    213.8831    210.5159   3.5115433367e+01   1.9977368603e+00    0.3227155    0.1246674 -28.99  0.001551839    2.671    0.626
        47 -10.4363    225.5840    207.5953   3.2701968551e+01   9.9524932165e-01    0.3006079    0.0942013 -37.00  0.001404653    2.981    0.665
        48 -11.0352    242.8551    200.4417   2.8845913148e+01  -7.2807889912e-02    0.3338129    0.1510858 -25.49  0.001747014    1.949    0.487
        49 -10.0173    228.5654    199.3049   3.0873641638e+01   1.7095697786e+00    0.2060561   0.09522495 -37.59  0.001138127    2.082    0.520
        50 -11.1935    237.2736    197.5452   2.9218685216e+01   9.1701158510e-01     0.329681    0.1216755 -30.83  0.001669381    2.405    0.584
        51 -12.1917      3.2281    180.6650   8.1683091054e+01   3.5170939907e+01    0.7122384    0.2719182  66.61  0.003123121    2.378    0.579
        52 -10.5114    246.9223    206.4310   2.9203631277e+01  -1.2338231877e+00    0.3249483    0.1351084 -36.18   0.00154084    2.225    0.550
        53 -10.3353    236.9947    187.0463   2.7498681343e+01   2.2940577393e+00    0.2349297    0.1316923 -30.10  0.001450324    1.509    0.337
        54 -10.8437    249.6602    184.8001   2.5246957595e+01   1.0930051786e+00    0.3132184    0.1498313 -31.34  0.001513532    1.713    0.416
        55 -11.3394    242.0041    179.8808   2.5513831014e+01   2.6219896744e+00    0.4001035    0.1455289 -36.06  0.002000619    2.357    0.576
        56 -13.4542     11.6352    216.8380   8.0820998352e+01   2.6446836682e+01     1.240361    0.2035844  47.75  0.004760999    3.324    0.699
        57 -11.6016    245.9840    168.4115   2.2918818105e+01   3.6354397596e+00    0.2660804    0.1380197 -32.24   0.00152818    1.577    0.366
        58 -12.1763     20.0338    248.9914   8.0034437917e+01   1.9447252395e+01    0.6490899    0.1952467  34.76  0.003259367    2.120    0.528
        59 -11.8836    192.3668    246.0517   4.4096286402e+01  -4.3570638689e-02    0.4494754    0.2386092 -22.63  0.002749696    1.987    0.497
        60 -11.9310    176.8511    244.6381   4.6756689244e+01   1.9082041406e+00    0.3620276    0.1898721  -5.25  0.001856969    2.636    0.621
        61 -12.1585     29.7195    241.1374   7.7672032634e+01   1.9949007496e+01    0.4377786    0.2456187  63.96   0.00242593    1.629    0.386
        62 -11.1031    201.9730    241.0167   4.1709651599e+01  -4.9504865820e-01    0.2492049    0.1362838 -24.30  0.001578274    1.798    0.444
        63 -11.8687    235.2726    146.8616   2.0451986903e+01   8.0228633837e+00    0.3405296    0.1720589 -41.11  0.001427066    1.826    0.452
        64 -12.7946     15.7212    240.5585   8.0677112111e+01   2.1396945442e+01    0.7512801    0.2421238  40.49  0.003264506    1.973    0.493
        65 -11.8985     11.9870    249.0465   8.1709265357e+01   2.0179234705e+01      0.50562     0.183005  36.45  0.002041783    1.818    0.450
        66 -13.5757     12.2238    205.3017   8.0271292917e+01   2.8845295484e+01    0.7498564    0.3617142  58.97  0.003947019    1.727    0.421
        67 -11.8586    234.8725    135.0721   1.8205057954e+01   9.7734704217e+00    0.3000411    0.1402829 -42.40  0.001337319    1.971    0.493
        68 -14.7665      4.5037    170.6974   8.0959380955e+01   3.7461572124e+01     2.609419     0.716951  67.40  0.008846289    3.872    0.742
        69 -12.6208      3.3989    243.6399   8.3358433479e+01   2.1919864496e+01    0.6222414    0.2981677  65.92  0.003769769    1.771    0.435
        70 -11.2899      9.0032     69.7750   7.0845652681e+01   6.3725778170e+01    0.3627997    0.1227108 -56.08   0.00141244    2.405    0.584
        71 -12.3292      2.9287     67.3526   7.3819672412e+01   6.4645232066e+01    0.4241814    0.1843247 -72.63    0.0018491    2.000    0.500
        72 -12.0578      6.8603     63.2527   7.0947989099e+01   6.5530411525e+01    0.3517205    0.1919718 -53.01  0.001706719    1.608    0.378
        73 -12.5909      3.3382     50.7655   7.0803446692e+01   6.8860398820e+01    0.5805429    0.2800555 -60.37   0.00276265    1.733    0.423
        74 -12.3005      6.2572    236.4623   8.2590888562e+01   2.3017032386e+01    0.5476281     0.257561  53.13  0.003239837    1.565    0.361
        75 -12.1513      2.2634     40.6818   6.9372314737e+01   7.1382784942e+01    0.4796991    0.1934934 -70.40   0.00209091    2.239    0.553
        76 -10.3061    237.8699    158.3111   2.2242743590e+01   6.0524208890e+00    0.2118602     0.132238 -35.79  0.001285142    1.410    0.291
        77 -11.1217     18.8699     30.9261   5.3639054410e+01   7.2476107815e+01    0.3090548    0.1607116 -27.35  0.001359352    2.284    0.562
        78 -11.8445      1.4927     25.4856   6.5732593230e+01   7.4979056174e+01    0.5079862    0.1117333 -68.65  0.001692515    4.181    0.761
        79 -11.4371    214.4073    240.1449   3.9454421247e+01  -1.7378618632e+00    0.2319009    0.1338603 -18.58  0.001275159    1.585    0.369
        80 -11.2364     26.1888     16.1667   4.0164514470e+01   7.4524553995e+01    0.2819585    0.1363352 -27.63  0.001155639    2.782    0.641
        81 -12.0505      4.6974    228.5130   8.2732951318e+01   2.4689855960e+01    0.5642617    0.2307664  54.26  0.002438755    1.818    0.450
        82 -11.1651    219.9278    239.1895   3.8399728691e+01  -2.2084878025e+00    0.1842635    0.1268159 -17.12  0.001322847    1.279    0.218
        83 -11.6742    238.5957    218.9259   3.2417653420e+01  -1.8195350746e+00    0.4508784    0.2018348 -32.94  0.002723036    2.014    0.504
        84 -11.6728    230.7545    235.4114   3.6103613575e+01  -2.8948962535e+00    0.3714052    0.2233173 -21.65  0.002046544    1.431    0.301
        85 -11.6973    236.0965    228.5401   3.4255663695e+01  -2.6645062702e+00    0.4185234    0.2131374 -25.61  0.002209139    1.704    0.413
        86 -11.5775      2.1831    221.0861   8.3111717928e+01   2.6385104981e+01    0.4492152    0.1986455  74.75  0.001865955    2.083    0.520
        87 -11.4790      3.8041    250.1366   8.3411315161e+01   2.0705723834e+01    0.3479684    0.1180976  30.11  0.001837309    2.143    0.533
        88 -12.2633      2.1955    211.2760   8.2863947348e+01   2.8413050389e+01    0.8139277    0.2447308  85.62  0.003387155    3.425    0.708
        89 -11.6096    205.2147    234.0431   4.0161991911e+01  -1.7052556613e-03    0.3502355    0.1803237 -29.41  0.002147814    1.898    0.473
