#   1 NUMBER                 Running object number                                     
#   2 MAG_AUTO               Kron-like elliptical aperture magnitude                    [mag]
#   3 X_IMAGE                Object position along x                                    [pixel]
#   4 Y_IMAGE                Object position along y                                    [pixel]
#   5 X_WORLD                Barycenter position along world x axis                     [deg]
#   6 Y_WORLD                Barycenter position along world y axis                     [deg]
#   7 A_WORLD                Profile RMS along major axis (world units)                 [deg]
#   8 B_WORLD                Profile RMS along minor axis (world units)                 [deg]
#   9 THETA_WORLD            Position angle (CCW/world-x)                               [deg]
#  10 FWHM_WORLD             FWHM assuming a gaussian core                              [deg]
#  11 ELONGATION             A_IMAGE/B_IMAGE                                           
#  12 ELLIPTICITY            1 - B_IMAGE/A_IMAGE                                       
         1 -14.9841    172.9194     53.8557   5.2796195003e+01   3.5017998973e+01     1.264167     1.068593  13.85   0.00414193    1.396    0.284
         2 -15.6600    196.1431     23.3933   4.0947041982e+01   3.3267098952e+01     2.350137     1.348717  60.39  0.009447953    1.646    0.392
         3 -14.2121    179.1470    219.4090   9.0654910414e+01   2.7887218260e+00    0.5533488    0.4249336  42.80  0.002036357    1.326    0.246
         4 -14.9804    189.4907    244.8548   9.2637513480e+01  -2.7317217761e+00     1.656802    0.8153984  36.96  0.008694224    1.706    0.414
         5 -10.9876    114.9506    249.8994   1.0792710790e+02   7.7965563777e+00    0.1478637    0.1363489 -25.14 0.0008221847    1.393    0.282
         6 -18.4656     71.4292    211.6821   1.1269527076e+02   2.1267400379e+01     8.679533      5.88919 -56.40   0.04573511    1.637    0.389
         7 -13.1916    153.7837    210.9288   9.4592318453e+01   8.5325066348e+00    0.7136769    0.3543103 -40.12  0.003020142    2.319    0.569
         8 -14.0426    159.2734    222.6186   9.5288310759e+01   5.5265061933e+00    0.7324569    0.6418741 -56.87  0.003645392    1.399    0.285
         9 -11.7042    149.1998    227.7064   9.8156736026e+01   6.2935402522e+00    0.4150196     0.263476  52.25  0.001635737    1.692    0.409
        10 -12.7509    147.5596    221.7864   9.7622885965e+01   7.6032509465e+00    0.4691252    0.3416789  23.60  0.001399886    1.364    0.267
        11 -12.0701    147.4426    208.2882   9.5540649070e+01   1.0108363168e+01     0.363939    0.2314164 -54.62  0.001827529    1.832    0.454
        12 -10.8836    144.2144    208.8376   9.6335635413e+01   1.0554519596e+01    0.2598905    0.2002329 -40.22  0.001446842    1.442    0.307
        13 -14.5776    175.8448    232.9384   9.3498115386e+01   1.1470601919e+00     2.121847    0.5769437 -51.95  0.005799175    8.218    0.878
        14 -19.0985     49.4700     88.0331   9.8693902206e+01   5.3274890284e+01     17.58669    0.9542676 -57.22   0.02617611   16.657    0.940
        15 -11.8178    182.4227    203.3319   8.7180355666e+01   4.9677291850e+00    0.2690897     0.218968 -34.63 0.0008786503    1.308    0.235
        16 -12.1136    204.7831    199.5078   8.1903932029e+01   1.8017654629e+00    0.3593199    0.1594133  35.91  0.001556108    2.133    0.531
        17 -11.5159     13.3465    191.6593   1.2324602691e+02   3.2110001438e+01    0.1105443    0.0885921  85.91 0.0007669925    1.056    0.053
        18 -13.6477    167.0425    224.9250   9.4037437988e+01   3.8596706387e+00    0.6719173    0.2679663  34.90  0.002846417    2.249    0.555
        19 -13.5649    156.3596    174.7821   8.7484357169e+01   1.5162889305e+01    0.6951599    0.3763838 -43.19  0.002963532    1.911    0.477
        20 -10.7073     24.4321    181.6100   1.2009638503e+02   3.3326984030e+01    0.1217911    0.1176416  -1.05  0.000708718    1.407    0.290
        21 -10.2876      6.6104    174.9362   1.2351075834e+02   3.6379598089e+01    0.2609396     0.137664  33.64  0.001512032    2.047    0.511
        22 -11.7396    120.7438    230.0662   1.0441034369e+02   1.0403120109e+01    0.5014873    0.1915972 -43.65  0.001991568    3.659    0.727
        23 -14.4876    232.0639    167.4004   7.0238959180e+01   2.4778772667e+00     1.107535    0.7542788 -13.42  0.005787024    1.497    0.332
        24 -14.5397    245.5234    163.9416   6.7157006755e+01   7.7729721181e-01     1.336818    0.7151003 -24.65  0.005794779    1.834    0.455
        25 -11.5481     11.5206    173.4040   1.2231104287e+02   3.6331521602e+01    0.1347969   0.09585714 -75.05 0.0006761954    1.209    0.173
        26 -11.7072    187.7521    169.5210   7.9412520567e+01   1.0196551205e+01    0.4784986     0.234052 -44.79  0.001594684    2.126    0.530
        27 -10.3155    136.1790    230.8691   1.0130940001e+02   7.8312133101e+00    0.1628088    0.1424657   5.21 0.0003965103    1.285    0.222
        28 -15.0479    185.6133    215.3165   8.8638827840e+01   2.3957209210e+00     1.134994    0.6054704 -42.28  0.005546379    2.066    0.516
        29 -11.3918     24.1111    166.1936   1.1878174399e+02   3.6908273803e+01    0.1757087      0.14221 -57.63 0.0006800485    1.321    0.243
        30 -10.1733    165.2786    161.3458   8.2637271187e+01   1.6211990508e+01    0.1548055    0.1160593  -7.26 0.0003797243    1.634    0.388
        31 -11.6869     28.4387    158.0900   1.1690244716e+02   3.8425493182e+01    0.2961751    0.2829515 -73.67  0.001714328    1.207    0.172
        32 -11.6533    155.5065    150.9648   8.2642936131e+01   2.0368591470e+01     0.275095    0.2603876  62.99 0.0004130449    1.156    0.135
        33 -11.7678     23.0167    156.1081   1.1804777472e+02   3.9384546019e+01    0.1880598    0.1681898  57.52 0.0006016074    1.222    0.181
        34 -12.5476    105.2878    228.2741   1.0740598118e+02   1.3099997140e+01    0.3448822    0.2341572  53.19  0.001141614    1.337    0.252
        35 -12.1876    149.6886    144.5733   8.2597945861e+01   2.2945172697e+01    0.3762035    0.3029856 -78.95  0.001096043    1.623    0.384
        36 -10.8679     20.1919    145.6486   1.1765956637e+02   4.2120326643e+01    0.1908254    0.1167716  -3.27 0.0009728678    2.590    0.614
        37  -7.5745     29.5276    142.4574   1.1480755074e+02   4.2090919616e+01    0.3665976    0.1987824 -21.53  0.001560651    3.379    0.704
        38 -10.7570     35.3402    141.1745   1.1305708533e+02   4.1862133917e+01    0.2132077    0.1882877  27.20  0.001351682    1.342    0.255
        39 -10.8314     24.3150    140.6248   1.1599112254e+02   4.2989539159e+01    0.1402354    0.1228962 -10.50 0.0004148529    1.460    0.315
        40 -11.6329    160.1707    127.8935   7.6053146535e+01   2.4330644131e+01    0.3711472    0.2967556  69.72  0.001727573    1.560    0.359
        41 -10.4451      6.3833    125.0984   1.1912767008e+02   4.8025403135e+01    0.1633424    0.1192584 -72.70 0.0005234144    1.082    0.076
        42 -11.2026     18.9368    129.0357   1.1605689234e+02   4.6223572045e+01    0.1886746      0.15211 -59.82 0.0005528805    1.138    0.122
        43 -11.2197     27.5119    118.3323   1.1204962943e+02   4.8145308441e+01    0.2341973    0.2033387 -64.25  0.000729035    1.047    0.045
        44 -10.0541    183.4868    116.4763   6.7932127229e+01   2.1498143552e+01    0.1549187    0.1466385 -12.65 0.0001560273    1.034    0.033
        45 -12.2786     98.8912    226.8593   1.0857185067e+02   1.4322541151e+01    0.3557402    0.2537031  41.71  0.001649504    1.232    0.188
        46 -11.1591    167.3342    112.3129   7.0382800400e+01   2.5967401482e+01    0.3222131    0.2584029 -79.19 0.0009497172    1.642    0.391
        47 -11.2897    205.5023    110.2590   6.2026863973e+01   1.7792753745e+01     0.268662    0.2612901 -14.17 0.0005641816    1.046    0.044
        48 -13.2376    112.7411    227.4338   1.0574845784e+02   1.2127138055e+01     0.455897    0.2944922 -40.73  0.002128138    2.007    0.502
        49 -11.0212     14.6359    109.5322   1.1470975534e+02   5.1225768839e+01    0.2742169    0.1314942   9.32  0.001138719    2.854    0.650
        50 -10.3411     25.2911    108.6232   1.1120020795e+02   5.0677086306e+01    0.1504255    0.1214619 -12.19 0.0003417735    1.475    0.322
        51 -10.8824     24.2162    104.9885   1.1094037614e+02   5.1634773928e+01    0.2033336    0.1858947 -30.80   0.00080614    1.204    0.169
        52 -10.2259    127.3168     94.2925   7.5364431539e+01   3.8665921332e+01    0.1583837    0.1223788   3.86 0.0003508736    1.600    0.375
        53 -11.9363      9.2589     93.7507   1.1405686714e+02   5.5290683205e+01    0.2668361    0.1988807 -15.31  0.001058907    1.575    0.365
        54 -10.9085     22.5870     93.2472   1.0939350643e+02   5.4548768381e+01     0.195675   0.09173211 -54.57 0.0009483134    1.661    0.398
        55 -11.5114    110.2383    222.9771   1.0571768435e+02   1.3359250796e+01    0.2117238     0.178171 -66.24 0.0003933357    1.325    0.245
        56 -11.3770    185.3929     84.9932   5.9239299574e+01   2.6929650211e+01    0.3006878    0.2332585  54.88 0.0009960887    1.321    0.243
        57 -11.7645    161.0177     84.5023   6.4125458324e+01   3.2840112584e+01    0.3737068    0.2594931  71.29  0.001346027    1.821    0.451
        58 -11.0097    149.1818     85.1352   6.7042466544e+01   3.5527662271e+01    0.2367975    0.2123791   2.95 0.0005502751    1.186    0.157
        59 -13.0916      2.8071     76.9493   1.1350315306e+02   5.9482693066e+01    0.5371147   0.09443755 -61.86  0.002018714    3.176    0.685
        60 -14.2013    159.8732     66.5572   5.9089641577e+01   3.6252054072e+01    0.9617845    0.6811526  28.87 0.0009354127    1.681    0.405
        61 -11.4242    101.6224    241.2054   1.0960934642e+02   1.1255549253e+01    0.1847625    0.1283378 -70.82  0.001124922    1.669    0.401
        62 -13.2798    178.6118     45.9217   4.9541651882e+01   3.4738372172e+01    0.4447521    0.4277856 -59.67  0.000862669    1.056    0.053
        63 -10.9060    129.9658    228.0397   1.0221986271e+02   9.3237699527e+00     0.308182    0.1715604  21.32  0.001385386    2.427    0.588
        64 -13.5485    188.5978    206.1761   8.6414876440e+01   3.4219229623e+00    0.5002671    0.3881205   4.62  0.002024709    1.279    0.218
        65 -13.0600     13.5341     59.8600   1.0559755806e+02   6.2679233188e+01    0.3064274    0.2291113 -40.51 0.0006568037    1.068    0.064
        66 -11.8895     20.7485     57.4368   1.0188048857e+02   6.2703757270e+01    0.2660791    0.1212671  13.57  0.001288106    2.589    0.614
        67 -12.2065     15.5326     49.0035   1.0176134694e+02   6.4812073099e+01    0.3326671    0.1703275   6.10    0.0013619    2.272    0.560
        68 -11.6171     13.4868     36.9898   9.8928523751e+01   6.7312778255e+01     0.269043    0.1574839   6.24  0.001058777    1.827    0.453
        69 -13.0658    168.2070    237.0189   9.5647651775e+01   1.7141144878e+00    0.4581892    0.2586309 -31.60  0.000598252    2.201    0.546
        70 -11.0683     71.2057     32.8366   7.1797146781e+01   6.0894311831e+01    0.1857572     0.169784   6.01 0.0004994497    1.169    0.144
