#   1 NUMBER                 Running object number                                     
#   2 MAG_AUTO               Kron-like elliptical aperture magnitude                    [mag]
#   3 X_IMAGE                Object position along x                                    [pixel]
#   4 Y_IMAGE                Object position along y                                    [pixel]
#   5 X_WORLD                Barycenter position along world x axis                     [deg]
#   6 Y_WORLD                Barycenter position along world y axis                     [deg]
#   7 A_WORLD                Profile RMS along major axis (world units)                 [deg]
#   8 B_WORLD                Profile RMS along minor axis (world units)                 [deg]
#   9 THETA_WORLD            Position angle (CCW/world-x)                               [deg]
#  10 FWHM_WORLD             FWHM assuming a gaussian core                              [deg]
#  11 ELONGATION             A_IMAGE/B_IMAGE                                           
#  12 ELLIPTICITY            1 - B_IMAGE/A_IMAGE                                       
         1 -14.4394    223.5652      5.8685   3.6264321667e+01   2.8695628935e+01     2.412733     1.464968  50.36  0.009903813    1.983    0.496
         2 -14.0542    193.2714     40.0883   4.8339008680e+01   3.1899002436e+01     1.215754     1.001507 -49.28  0.003343125    1.173    0.148
         3 -14.2516    200.8702     31.8576   4.5089702269e+01   3.1099396626e+01     1.130159     1.040244  13.24  0.001409935    1.318    0.241
         4 -10.7605    189.6678     14.8448   4.1827552736e+01   3.5829901435e+01    0.2493452    0.2077329 -88.77 0.0007349176    1.104    0.094
         5 -12.7213     60.0013      3.4013   6.4500797546e+01   6.6583751304e+01     0.872062    0.2178132  44.81  0.003405387    3.373    0.704
         6 -13.9808    181.4246     50.0452   5.2974751364e+01   3.3455756637e+01     1.874814     1.307229  21.40   0.00083624    2.010    0.502
         7 -11.0381     59.4744    230.9830   1.1861711503e+02   1.9099915131e+01    0.2015883     0.154453  80.28 0.0005592273    1.129    0.115
         8 -19.3324     14.0333    156.4921   1.2163108039e+02   4.0127701500e+01     18.88906      5.58747 -79.66   0.07296814    3.219    0.689
         9 -10.1231     58.3440    208.6363   1.1687165717e+02   2.3713685864e+01     0.894484    0.4314542  66.72  0.004303495    2.277    0.561
        10 -11.7718     65.6447    204.7969   1.1499543885e+02   2.3570392901e+01    0.4210038    0.2178649 -62.82  0.001182132    1.919    0.479
        11  -8.1924     69.9289    199.3404   1.1351055629e+02   2.4158856199e+01    0.2958508    0.1894781 -53.41  0.001424318    1.786    0.440
        12 -12.0514     26.9860    214.1802   1.2342976293e+02   2.6229994368e+01    0.3633534    0.2217629 -71.99  0.002312423    1.556    0.357
        13 -10.8049     42.3775    208.8221   1.2007753275e+02   2.5620902158e+01    0.2587028    0.1417753  65.67 0.0004465859    1.659    0.397
        14 -10.5730     35.6998    208.6212   1.2136872806e+02   2.6423082243e+01    0.1498808   0.09517742  62.91   0.00041629    1.320    0.242
        15 -12.0529     34.7899    228.4135   1.2294817968e+02   2.2556634481e+01    0.1968912    0.1401278  67.44 0.0004229551    1.070    0.066
        16 -10.1985     96.4954    202.0287   1.0813273927e+02   1.9721695610e+01     0.188292    0.1599949 -88.73  0.001153116    1.146    0.127
        17 -11.3972     26.8754    203.6886   1.2271921197e+02   2.8407562451e+01    0.3584305    0.1205626  52.51  0.001389356    2.609    0.617
        18 -10.3463     77.3964    226.1406   1.1477205425e+02   1.7650773684e+01     0.223764    0.1414796  82.82  0.001019406    1.660    0.397
        19 -10.7111     38.8984    199.6094   1.2000703814e+02   2.7966706376e+01    0.2080147    0.1426722  80.69 0.0005019017    1.229    0.186
        20 -11.8089    134.1400    196.7555   9.9176223057e+01   1.4588085000e+01    0.3036826    0.2306594 -63.49 0.0008791265    1.462    0.316
        21  -9.6696     44.7409    197.8282   1.1865365577e+02   2.7678469733e+01    0.1987865    0.1774952  82.86  0.001067025    1.189    0.159
        22 -12.3510    128.1512    194.4239   1.0011358593e+02   1.6103190181e+01    0.4761945    0.2784963 -71.84  0.001791166    2.394    0.582
        23  -9.9022     81.9918    194.6997   1.1035336470e+02   2.3464161479e+01     0.245274    0.1947748  78.86 0.0009116911    1.167    0.143
        24 -16.1795     70.5225    146.5061   1.0615313235e+02   3.6330617350e+01     12.75909     6.117137  79.90   0.03045439    7.880    0.873
        25  -9.3260     77.7922    192.5576   1.1101168917e+02   2.4538260825e+01    0.1805657    0.1037312  53.94 0.0004533915    1.655    0.396
        26 -13.5329     63.2027    186.2393   1.1349147751e+02   2.7946053409e+01      0.80393    0.6633251 -48.54  0.004183881    1.489    0.329
        27 -10.9097     50.3569    224.6953   1.1981740813e+02   2.1456114078e+01    0.2098132     0.126578  80.67 0.0007793732    1.531    0.347
        28 -11.0782    150.8471    188.0260   9.4040822912e+01   1.3337699441e+01    0.2545865     0.198031 -43.99  0.001361506    1.368    0.269
        29 -10.5042     74.0556    188.5704   1.1134890453e+02   2.5949523548e+01    0.2530264    0.1649271  77.02 0.0006770476    1.618    0.382
        30 -10.1877     94.5116    187.1359   1.0654617312e+02   2.3235201971e+01    0.2261157    0.1914535  42.87 0.0004253257    1.208    0.172
        31 -11.3417     98.9665    181.2220   1.0465257473e+02   2.3845139237e+01    0.4485018    0.3218364 -30.87  0.002081426    1.987    0.497
        32 -10.8920    151.2935    195.1269   9.5191218968e+01   1.1863870461e+01    0.2863169    0.1911136  44.74  0.001450942    1.402    0.287
        33 -11.5193    150.8511    179.5876   9.2491749739e+01   1.5037347828e+01    0.4510184    0.3014397 -74.76  0.001973071    2.278    0.561
        34 -12.2327    144.6376    179.6548   9.3894355523e+01   1.6186129201e+01     0.489882    0.3695512 -70.45  0.001943455    1.605    0.377
        35 -10.2370    188.9886    178.0094   8.4009019675e+01   8.1100812387e+00     0.318072    0.2678695  83.49    0.0013203    1.695    0.410
        36 -10.8812    187.8600    173.1998   8.3260351888e+01   9.2132579559e+00    0.4274502    0.2765649 -63.24  0.001834204    2.419    0.587
        37 -10.9271     46.5955    173.0287   1.1575093468e+02   3.3027579004e+01    0.4285985    0.3188233  77.82  0.001614484    1.207    0.172
        38 -10.5860     54.3722    173.4486   1.1399841968e+02   3.1999331453e+01    0.2668788    0.1946197  67.02 0.0006232451    1.291    0.225
        39 -11.4394    139.6966    171.8707   9.3557953539e+01   1.8753732423e+01    0.4482596    0.3084452  56.52  0.001340734    1.580    0.367
        40 -11.3038    131.3855    172.1700   9.5542967316e+01   2.0239115764e+01    0.5619542     0.207871  39.97  0.002004021    2.646    0.622
        41 -10.7203    230.4774    167.4435   7.3826792633e+01   2.3145621156e+00    0.2555968    0.1164034 -45.49  0.001041846    2.497    0.599
        42 -11.2752     57.2576    166.0976   1.1240199913e+02   3.3364595169e+01    0.4314004    0.2339282 -47.07  0.002030003    2.194    0.544
        43  -9.8592     61.4055    219.9687   1.1730668742e+02   2.1004915901e+01    0.1635923    0.1545117 -54.11 0.0006980996    1.468    0.319
        44 -12.2483     93.3902    152.5916   1.0124941828e+02   3.1404211106e+01    0.6689284    0.5060471 -21.74  0.003259019    1.865    0.464
        45 -10.8360    187.8018    152.2879   7.8765316079e+01   1.3218655484e+01    0.2893571    0.2026678 -61.87  0.001197659    1.903    0.474
        46 -11.5925    133.8840    145.5728   8.9553346366e+01   2.5701421967e+01     1.244584     0.333829 -54.72  0.003034502    5.325    0.812
        47 -11.0795    174.2380    148.9723   8.0909696086e+01   1.6680719626e+01    0.3775657    0.3141734 -60.68  0.001271687    1.363    0.266
        48  -8.9092    112.4976    150.5076   9.5960451370e+01   2.8619147328e+01    0.1490526    0.1408469 -88.37 0.0008104925    1.027    0.026
        49 -10.7024    143.9009    146.2540   8.7263423321e+01   2.3536802769e+01    0.3624352      0.22205 -62.90  0.001464815    2.052    0.513
        50 -11.2041    105.5775    138.3936   9.5256661033e+01   3.2731650461e+01    0.5727028    0.3364452 -37.58  0.002375534    2.026    0.506
        51 -12.4456     93.4659    138.3610   9.8496180095e+01   3.4821886551e+01      0.28299    0.2585777 -45.49 0.0004919021    1.138    0.121
        52 -11.0768    105.9290    130.7762   9.3496629203e+01   3.4487364883e+01    0.3745108    0.3193231 -67.43  0.001226929    1.166    0.142
        53 -11.3060    136.1088    128.0011   8.4914090383e+01   2.9233871434e+01    0.7300763    0.2254333 -50.64  0.002107426    3.492    0.714
        54 -10.0334    135.2378    120.1175   8.3164110898e+01   3.1190258314e+01    0.3685343    0.1419251 -45.87  0.001221714    2.524    0.604
        55 -10.8813    113.7491    129.4171   9.1077320478e+01   3.3361883356e+01    0.3482966     0.304725  -6.76 0.0007695601    1.355    0.262
        56  -9.0189     98.6812    130.2743   9.5365979724e+01   3.5891624939e+01    0.1489143    0.1147504  77.51 0.0003455484    1.569    0.363
        57 -10.1393    160.5421    127.7057   7.8927171780e+01   2.4057959333e+01    0.3180675    0.2695873 -70.14  0.001549972    1.355    0.262
        58 -11.1474    101.1262    125.3749   9.3588190900e+01   3.6638659762e+01    0.3040331    0.2507596 -22.51 0.0008714937    1.431    0.301
        59 -11.4460    120.2270    122.7004   8.7736908984e+01   3.3677540793e+01    0.6105762    0.4099902 -13.15  0.002375257    2.477    0.596
        60 -10.1083    109.2526    118.7354   8.9747648817e+01   3.6725279209e+01    0.2363071    0.2160114 -79.94 0.0003215035    1.148    0.129
        61  -9.9237    167.8201    112.8037   7.3443081341e+01   2.5541686502e+01    0.4026183    0.2679404 -78.86  0.001364051    2.647    0.622
        62 -10.5625    134.5599    104.7865   7.9259564603e+01   3.4720583821e+01    0.5766349    0.1503084 -44.52  0.001575796    3.722    0.731
        63 -11.8247    118.3707    110.2615   8.5061371046e+01   3.6905236523e+01    0.6392971    0.4786738  58.89   0.00260126    1.531    0.347
        64 -10.3742    205.2440    110.2009   6.5180459058e+01   1.7532159967e+01    0.3413039    0.2409969  37.77  0.001245208    1.577    0.366
        65 -11.1635     66.5198    104.3201   9.8941023919e+01   4.7181199147e+01    0.3755033    0.2806192  37.87  0.001993782    1.493    0.330
        66 -10.3402     63.4202     99.9054   9.8882573222e+01   4.8652478297e+01    0.3319046    0.2027818  26.88  0.001587981    1.922    0.480
        67 -11.0712     40.4539    224.4674   1.2164422485e+02   2.2678766980e+01    0.2332266    0.1288478  71.85 0.0008898693    1.614    0.381
        68  -9.4871    156.2050     81.8136   6.7349118678e+01   3.4396566851e+01    0.2125518    0.1841251   6.71 0.0004270463    1.312    0.238
        69  -9.7333    184.2229     77.1176   6.0244273444e+01   2.8429118180e+01    0.2277969    0.2107864   1.74 0.0006039204    1.190    0.160
        70 -10.9936     55.1337    222.7862   1.1875866167e+02   2.1242108581e+01    0.2242842    0.1204704  55.41  0.001026912    1.576    0.366
        71  -9.8571     64.6871     70.1173   9.0235819248e+01   5.5188188885e+01    0.2018946     0.188881  31.79 0.0002245646    1.229    0.186
        72 -11.9165    248.6351    249.3092   8.5759624592e+01  -1.1653395419e+01    0.5067413    0.2374384  33.08  0.002970963    1.817    0.450
        73 -10.5178    158.5075    235.7670   1.0004135817e+02   3.4838414902e+00    0.2418642    0.1538251  37.79  0.001340843    1.322    0.244
        74  -9.2197    168.8237    234.7637   9.7909745280e+01   1.9831387523e+00    0.1550792    0.1293332  49.74 0.0003665698    1.253    0.202
        75 -11.5548    153.4454     56.4214   6.0124829417e+01   3.9476352754e+01    0.3816675    0.2831811 -77.33 0.0007630058    1.747    0.428
        76 -10.9000     56.3434    217.8554   1.1810557584e+02   2.2075144434e+01    0.2653525    0.1477749  77.95 0.0007250241    1.829    0.453
        77 -10.2329     48.7900    217.6072   1.1954694655e+02   2.3058129912e+01    0.2351356    0.1345049  25.32  0.001212079    2.514    0.602
        78  -9.3267    168.2552    248.0554   9.9888155079e+01   9.1820865947e-02    0.1509646    0.1324345  31.87 0.0001914485    1.096    0.087
        79 -10.4972     74.2696     12.9756   6.4199395766e+01   6.2988607863e+01    0.3485475    0.1803017  63.77  0.001465498    3.262    0.693
        80 -13.6181     53.0382    199.3443   1.1707312861e+02   2.6352524250e+01    0.3916084    0.3341062 -58.19  0.001313807    1.429    0.300
