#   1 NUMBER                 Running object number                                     
#   2 MAG_AUTO               Kron-like elliptical aperture magnitude                    [mag]
#   3 X_IMAGE                Object position along x                                    [pixel]
#   4 Y_IMAGE                Object position along y                                    [pixel]
#   5 X_WORLD                Barycenter position along world x axis                     [deg]
#   6 Y_WORLD                Barycenter position along world y axis                     [deg]
#   7 A_WORLD                Profile RMS along major axis (world units)                 [deg]
#   8 B_WORLD                Profile RMS along minor axis (world units)                 [deg]
#   9 THETA_WORLD            Position angle (CCW/world-x)                               [deg]
#  10 FWHM_WORLD             FWHM assuming a gaussian core                              [deg]
#  11 ELONGATION             A_IMAGE/B_IMAGE                                           
#  12 ELLIPTICITY            1 - B_IMAGE/A_IMAGE                                       
         1 -14.9200    247.4844     38.2769   3.5878408119e+02   2.0450608648e+01     1.772533    0.4750351 -34.55  0.007422706    3.238    0.691
         2 -11.6945     62.7869     52.2456   3.9044088709e+01   6.0397044899e+01    0.5859181    0.1912279 -46.76  0.001988895    3.273    0.694
         3 -11.2190    161.1132    241.2458   5.1709549392e+01   2.3084945610e+00    0.2067338    0.1687651  76.24  0.001250129    2.200    0.546
         4 -10.6409    153.7643    241.0367   5.3215311062e+01   3.3177628459e+00     0.145558    0.1042513 -42.81 0.0008894316    1.657    0.397
         5 -10.8339    194.4079    239.2293   4.4815797541e+01  -1.6325090641e+00    0.1420941    0.1095474 -41.71 0.0009475764    1.684    0.406
         6 -10.3782    129.3229    237.6803   5.8072157774e+01   7.2085964648e+00    0.1281301   0.08817663  51.67 0.0005123226    1.673    0.402
         7 -11.4645    187.9842    232.2147   4.5013454902e+01   1.6910886791e-01    0.1472927    0.1420673 -49.08  0.001051469    1.602    0.376
         8 -10.3631    190.6690    227.3073   4.3751169597e+01   5.4731507457e-01    0.1089567   0.09284536  45.32 0.0005811903    1.663    0.399
         9 -10.3276    126.6781    227.3218   5.7346586994e+01   9.4188530305e+00    0.1325589   0.09247439  53.82 0.0007045639    1.675    0.403
        10 -10.7534    198.4768    214.9875   4.0315894194e+01   1.3725067541e+00    0.1452658    0.1111324 -64.89 0.0007916196    2.458    0.593
        11 -11.0197     92.4926    212.5266   6.3667342458e+01   1.7283673936e+01    0.2599551    0.1389396 -62.64  0.001213499    2.174    0.540
        12 -10.6937     76.8127    213.0050   6.7654914465e+01   1.9378763921e+01    0.2283984    0.1376468  66.97   0.00108331    1.987    0.497
        13 -11.3473     85.7221    208.5078   6.4896715796e+01   1.9110985881e+01    0.2738983    0.1710265 -88.83  0.001286176    2.179    0.541
        14 -11.8536     98.7007    204.9840   6.1160324268e+01   1.7977762329e+01    0.3711731    0.2026197 -79.25  0.001518043    2.902    0.655
        15 -11.0081    197.4997    204.1330   3.8710976506e+01   3.1818639246e+00    0.1927702    0.1706492  30.94 0.0009301321    1.357    0.263
        16 -11.8539    184.3090    203.2670   4.1152094573e+01   5.1940324830e+00     0.258272    0.2093972  48.86  0.001548521    1.615    0.381
        17 -11.5215    123.9886    197.7931   5.3793886329e+01   1.5576411103e+01    0.3642307    0.2160131 -61.99  0.001675502    2.112    0.527
        18 -12.4461     88.5808    197.1377   6.2753277610e+01   2.1208501661e+01    0.4554278    0.2496676 -74.58  0.001967607    2.368    0.578
        19 -10.4295    216.1534    195.2061   3.3757028635e+01   2.0193195123e+00    0.1528437    0.1431223 -20.99 0.0009587773    1.360    0.265
        20 -11.0080     13.0000    194.9934   8.2575733320e+01   3.0844090508e+01    0.2058419   0.06718595 -80.32 0.0008095147    2.992    0.666
        21 -11.5082    246.3411    193.1599   2.8442912315e+01  -1.4830477071e+00    0.2817382    0.2287469 -70.79  0.001746717    2.707    0.631
        22 -11.2250    224.9805    193.0000   3.1851828573e+01   1.1846999397e+00    0.2894035    0.1592048 -42.64  0.001594628    1.889    0.471
        23 -10.9239    184.6432    194.1815   3.9527019674e+01   6.6740493534e+00    0.1885875    0.1113558 -31.22 0.0009543946    1.710    0.415
        24 -11.3279    102.5029    192.5422   5.8465567281e+01   2.0114466135e+01    0.2441968    0.1452447 -76.34  0.001039774    2.370    0.578
        25 -12.0713     77.3131    191.8883   6.5095246739e+01   2.4053142593e+01    0.3872581    0.1884099 -59.74  0.001665143    2.196    0.545
        26 -11.4881     95.5591    188.2843   5.9688365407e+01   2.2159582650e+01    0.2596571    0.1485168 -67.86  0.001133735    2.086    0.521
        27 -10.7907     20.2425    189.2461   8.0347693528e+01   3.1536290525e+01    0.2119799   0.09344699  83.38 0.0008946382    2.445    0.591
        28 -11.1040    111.9779    197.2422   5.6713370794e+01   1.7598986620e+01    0.2823254    0.1815791  82.27  0.001186332    2.660    0.624
        29 -11.7705    120.4916    185.3280   5.2689541756e+01   1.8791333108e+01    0.5487944     0.205608 -61.71   0.00176185    3.953    0.747
        30 -11.6425     94.0648    182.2120   5.9204071376e+01   2.3797715376e+01    0.4992375    0.1986396 -44.85  0.001741365    3.162    0.684
        31 -11.1897    250.0000    183.0212   2.6157783235e+01  -5.1953576724e-01    0.1879871   0.05358749 -37.71 0.0008016363    2.937    0.660
        32 -10.8441     83.3157    181.6589   6.2094553988e+01   2.5586101374e+01    0.1572066    0.1031557  61.76 0.0007048158    1.707    0.414
        33 -11.1999    147.2325    179.2534   4.5041196713e+01   1.5528549713e+01    0.2164597    0.1212544 -60.19 0.0008901558    2.424    0.587
        34 -11.6553     59.2438    175.3346   6.8135018235e+01   3.0550609245e+01    0.3243254    0.2034224 -64.43  0.001546319    1.647    0.393
        35 -11.4129    129.5635    187.6390   5.0788117221e+01   1.6786046575e+01    0.3576427    0.2812194 -78.66  0.001835071    1.696    0.410
        36 -11.5728      2.2817    171.4795   8.4205402876e+01   3.7369397637e+01    0.3442918    0.1014117 -89.95  0.001208793    3.543    0.718
        37 -11.1208    150.1039    169.1580   4.2479958478e+01   1.7092882941e+01    0.3950633    0.1931042 -50.88  0.001606583    2.232    0.552
        38 -11.0580    120.5998    169.7521   4.9977109917e+01   2.2229240506e+01    0.2775962    0.1428789 -49.37  0.001129576    2.052    0.513
        39 -11.2466     54.8107    168.1322   6.8566599850e+01   3.2942797381e+01    0.3737465    0.1940153 -84.42  0.001507126    2.328    0.571
        40 -10.6014     87.9910    167.0163   5.8565758235e+01   2.8406375465e+01    0.1836791    0.1755496  88.76 0.0008648296    1.087    0.080
        41 -11.7422    212.9149    162.1817   2.8292589537e+01   7.7361950506e+00    0.3321687    0.1771188 -41.52  0.001666825    1.747    0.428
        42 -10.3617    132.3282    163.6666   4.5791140076e+01   2.1482523072e+01    0.1535624    0.1177668  71.27 0.0007051803    1.719    0.418
        43 -10.8914      2.3356    161.6611   8.3667203523e+01   3.9803887974e+01    0.1473638   0.07702957  57.52 0.0007051419    1.753    0.429
        44 -10.8585     91.6659    158.5311   5.6067895718e+01   2.9896700118e+01    0.2718634    0.1445435 -59.84  0.001092664    1.992    0.498
        45 -10.4876     91.3227    151.6462   5.4938804196e+01   3.1666256609e+01     0.165819    0.1153855  67.76 0.0007046985    1.758    0.431
        46 -11.0224    249.4894    150.5145   2.0420993053e+01   4.2070214334e+00    0.1189674   0.09492669 -26.97 0.0002218372    1.004    0.004
        47 -10.9248    199.3326    148.1770   2.7931041637e+01   1.2358291352e+01    0.3511572    0.1064319 -48.35  0.001103502    4.101    0.756
        48 -11.4209    189.4218    147.6915   2.9687063446e+01   1.4190107107e+01    0.2721911    0.1261386 -45.48  0.001140112    2.129    0.530
        49 -11.2197     38.0000    145.0208   7.1011147802e+01   4.0969538335e+01    0.2415973   0.07895592 -70.98 0.0008079354    2.981    0.665
        50 -11.9214    194.5748    143.3067   2.7801441352e+01   1.4064456340e+01    0.2722292    0.1235477 -44.66   0.00114397    2.124    0.529
        51 -11.3667    106.2127    143.9718   4.9013843833e+01   3.0904681652e+01    0.3000475    0.1570096  64.03   0.00089929    3.707    0.730
        52 -11.1134     54.4389    143.7373   6.5352371830e+01   3.9330262184e+01    0.2926783    0.1477323 -74.62  0.001145992    2.178    0.541
        53 -12.2869      2.2372    139.3607   8.2314533910e+01   4.5498501672e+01    0.5488642   0.09580743 -78.65  0.001555013    4.929    0.797
        54 -10.3625     49.0000    137.9692   6.6316425036e+01   4.1555282362e+01    0.2471137   0.08235084 -67.36 0.0008057748    2.966    0.663
        55 -11.3315     21.7944    135.1246   7.5357447326e+01   4.5177696029e+01    0.4953803    0.1876692 -84.94  0.001743873    3.027    0.670
        56 -10.4974    207.3320    136.6693   2.4154963229e+01   1.2975904300e+01    0.1316928    0.1032818 -70.84 0.0007052028    1.722    0.419
        57 -12.8168    187.9237    135.0987   2.7309153175e+01   1.6786441172e+01    0.3592851    0.1860362 -50.13  0.001537585    2.069    0.517
        58 -10.5508     69.0387    135.7705   5.9122045530e+01   3.9352819395e+01    0.2096412    0.1960443  43.52  0.000379085    1.048    0.046
        59 -12.1393    179.6802    132.5088   2.8347011292e+01   1.8854093399e+01    0.4265775     0.237839 -51.67  0.001852233    1.951    0.488
        60 -11.2826    143.9941    131.5158   3.6040608961e+01   2.6275535291e+01    0.3059133    0.2238192 -65.34  0.001392772    1.646    0.392
        61 -13.1910    192.7574    129.3921   2.5171517496e+01   1.6918173576e+01    0.3720768    0.2854032 -35.79  0.001733333    1.221    0.181
        62 -12.8411    169.2460    128.7523   2.9642994073e+01   2.1658027440e+01    0.4701376    0.2786279 -48.39  0.002092728    1.703    0.413
        63 -11.7728     11.7338    126.8789   7.8040606057e+01   4.8140711465e+01    0.5756515    0.1725547 -81.52  0.001902348    3.479    0.713
        64 -11.2200     98.0000    126.4838   4.7736712456e+01   3.6735519604e+01    0.3468259   0.09087787 -53.85 0.0009343047    3.931    0.746
        65 -13.3967    180.5519    124.1589   2.6309059964e+01   2.0265650639e+01    0.4528404    0.3033812 -53.00  0.002184307    1.572    0.364
        66 -12.0086    188.4195    123.1676   2.4595170035e+01   1.8890209171e+01    0.3319775    0.1172429 -48.12  0.001139684    3.037    0.671
        67 -12.1553    153.0644    129.1006   3.3311382288e+01   2.4909904476e+01    0.4421299     0.278246 -58.14  0.001892466    1.866    0.464
        68 -11.4307     57.8708    121.8628   6.0421233980e+01   4.4649637393e+01    0.4472901    0.1872745 -75.73  0.001357878    3.664    0.727
        69 -12.7744    172.5810    121.1208   2.7199715203e+01   2.2467434024e+01    0.4137694    0.2686896 -38.10  0.001928243    1.518    0.341
        70 -11.4992     41.5799    117.8565   6.5760519214e+01   4.7802849883e+01    0.3516007    0.1463505 -79.25  0.001147343    3.267    0.694
        71 -11.7683    130.2296    115.7498   3.5780296316e+01   3.2643859426e+01    0.4814489    0.2100527 -43.23  0.001698966    2.389    0.581
        72 -12.6251    185.9858    115.2969   2.3262613859e+01   2.0818889422e+01    0.3481168    0.2022713 -40.72  0.001607721    1.619    0.382
        73 -11.5322      1.8224    115.4021   8.0585282777e+01   5.1753537154e+01    0.2680019   0.09358298 -82.07  0.001008298    2.704    0.630
        74 -11.7723     77.9081    109.3412   5.0443524792e+01   4.4701533388e+01    0.6755766    0.2431906 -61.65  0.002008896    3.517    0.716
        75 -11.5813    122.2572    109.4356   3.6343757821e+01   3.5779360287e+01    0.4305386    0.2767977 -26.85   0.00170708    2.130    0.530
        76 -11.2222    108.5785    113.2640   4.1302836167e+01   3.7816814703e+01    0.3077343    0.1570781 -54.86  0.001139304    2.124    0.529
        77 -10.6462     13.4965    107.0032   7.5153855226e+01   5.3256720763e+01    0.2173559   0.07560216 -51.40 0.0008106884    2.614    0.617
        78 -12.5031    128.6606    100.8418   3.2329758750e+01   3.6231559548e+01    0.5664685    0.3151174 -52.69  0.002242402    1.947    0.486
        79 -11.1192     43.3205     99.9839   6.1674947143e+01   5.2292045145e+01    0.2401107    0.1189431  88.40 0.0007049928    4.315    0.768
        80 -12.1135     94.6025     94.5208   4.0751926018e+01   4.5073080689e+01    0.6411362    0.2993242 -47.61   0.00236294    2.203    0.546
        81 -12.4374    124.6935     88.2164   2.9877796855e+01   3.9780287246e+01     0.763083    0.4143987 -33.53  0.002918092    2.240    0.554
        82 -12.0686     34.7406     86.6089   6.2480211897e+01   5.6696639279e+01    0.8525274    0.2710381 -60.00  0.003004819    2.774    0.640
        83 -11.7916      4.2591     89.4484   7.6799883693e+01   5.8344100666e+01     0.464137    0.2043132 -75.90  0.002024757    2.087    0.521
        84 -12.4603     86.4745     84.2508   4.0562159075e+01   4.9064081425e+01    0.8563107    0.3663267 -51.77  0.003029739    2.514    0.602
        85 -11.7542     47.5633     82.9888   5.5837989555e+01   5.6031068328e+01    0.5421235    0.3086565  79.19  0.001761824    4.079    0.755
        86 -11.1807     74.2134     78.9277   4.3500664223e+01   5.2654068422e+01    0.4504594    0.1810721 -56.69   0.00148411    3.068    0.674
        87 -11.5133     23.7853     76.8993   6.5459543730e+01   6.0196586675e+01    0.6210613    0.1289195 -62.04  0.001941076    3.750    0.733
        88 -11.6430    167.5072     77.0238   1.7231367309e+01   3.1740395772e+01    0.2262263    0.1389084 -40.65   0.00103537    1.598    0.374
        89 -12.4645    127.8318     74.9320   2.5150121827e+01   4.1646196921e+01    0.4423867    0.2068551 -50.86   0.00161242    2.435    0.589
        90 -12.4775     82.3628     72.5516   3.8376167118e+01   5.2449232242e+01    0.5914298     0.310261 -62.76  0.002068662    3.006    0.667
        91 -12.1914     62.5126     71.2432   4.5847708568e+01   5.6480536473e+01    0.6034779     0.149746 -52.38  0.001701763    4.278    0.766
        92 -14.6867    237.2108     68.1838   5.6859598120e+00   1.8387480876e+01    0.9411753    0.6904908 -85.31  0.005997737    1.475    0.322
        93 -11.7731    115.7691     71.5641   2.7302737362e+01   4.5177449629e+01    0.3601984    0.2942422 -35.83  0.001793183    1.326    0.246
        94 -11.8354    105.9630     71.0871   2.9990232726e+01   4.7574456764e+01    0.3712822    0.2269452 -50.74  0.001469183    1.788    0.441
        95 -11.6190     50.9820     68.1127   4.9976022666e+01   5.9045586076e+01     0.665201    0.2371711 -63.63  0.001785088    5.413    0.815
        96 -12.6550    104.4919     81.3696   3.3677116944e+01   4.5830178550e+01    0.7497501    0.3386286 -51.65  0.002660669    2.517    0.603
        97 -11.1006    170.6723     70.3214   1.4907222394e+01   3.2122857817e+01    0.1527329    0.1042926 -72.31 0.0007048181    1.688    0.408
        98 -11.3499    157.5838     68.8096   1.6847865796e+01   3.5499653013e+01    0.2162484    0.1288463 -49.93 0.0009559552    1.694    0.410
        99 -11.8110    121.6776     64.7726   2.3570658653e+01   4.5003556118e+01    0.4252187    0.1454686 -37.15  0.001368424    3.218    0.689
       100 -11.8184     94.9201     70.3728   3.3256745187e+01   5.0220934483e+01    0.5856801    0.2224609 -50.50   0.00190551    3.136    0.681
       101 -12.4178    119.3157     79.3442   2.8724112938e+01   4.2826239709e+01    0.4366311    0.2498429 -49.46   0.00179071    1.862    0.463
       102 -11.7279     73.0938     56.9393   3.6504048330e+01   5.7496026654e+01    0.6874141    0.2244796 -42.91  0.002283596    3.247    0.692
       103 -10.8877    169.5724    242.7958   5.0191224066e+01   9.7068945397e-01    0.1415635    0.1194618 -50.61 0.0009489486    1.668    0.400
       104 -11.7493     22.1045     53.7659   6.0378324289e+01   6.5826477421e+01    0.3245044     0.184444 -84.41  0.001343588    3.007    0.667
       105 -11.2717     53.5503     52.2758   4.3268948315e+01   6.2023054388e+01    0.3839777    0.1432355 -54.57  0.001297461    3.503    0.714
       106 -11.4765     27.9865     45.9930   5.4431159303e+01   6.6920359501e+01     0.224877    0.1450244 -20.39 0.0007146648    1.686    0.407
       107 -11.5697    159.5589     54.7647   1.2563708837e+01   3.7268802232e+01    0.2044303    0.1250433 -49.53 0.0007235349    1.621    0.383
       108 -10.5330     28.4817     42.4699   5.2844808599e+01   6.7597356834e+01    0.1346147    0.1169345 -12.67 0.0001240977    1.030    0.029
       109 -11.6506    184.5179     41.4764   5.3850880945e+00   3.3166486502e+01    0.1358301    0.1163291 -74.94 0.0001218809    1.001    0.001
       110 -11.2256     38.0069     35.7417   4.4580654989e+01   6.7660618083e+01    0.3026633     0.169394 -22.04  0.001324242    2.390    0.582
       111 -13.5197    232.6597     32.4810   3.5870039867e+02   2.3959605154e+01    0.4845511    0.3727649  28.34  0.002987192    2.257    0.557
       112 -11.2160    176.5291     33.4763   4.2859854321e+00   3.6104992249e+01    0.1354643    0.1166897 -80.23 2.235317e-05    1.018    0.018
       113 -11.1508     27.6637     28.6621   4.7590150437e+01   7.0385358154e+01     0.212607   0.09615987 -29.60 0.0008534224    2.861    0.650
