#   1 NUMBER                 Running object number                                     
#   2 MAG_AUTO               Kron-like elliptical aperture magnitude                    [mag]
#   3 X_IMAGE                Object position along x                                    [pixel]
#   4 Y_IMAGE                Object position along y                                    [pixel]
#   5 X_WORLD                Barycenter position along world x axis                     [deg]
#   6 Y_WORLD                Barycenter position along world y axis                     [deg]
#   7 A_WORLD                Profile RMS along major axis (world units)                 [deg]
#   8 B_WORLD                Profile RMS along minor axis (world units)                 [deg]
#   9 THETA_WORLD            Position angle (CCW/world-x)                               [deg]
#  10 FWHM_WORLD             FWHM assuming a gaussian core                              [deg]
#  11 ELONGATION             A_IMAGE/B_IMAGE                                           
#  12 ELLIPTICITY            1 - B_IMAGE/A_IMAGE                                       
         1 -13.2328    188.8070     34.0602   1.0146511070e+01   3.5131127505e+01     1.322724    0.8095335  74.86  0.001713538    1.625    0.385
         2 -12.5268    221.1795     38.9350   8.5938148919e+00   2.8735775460e+01    0.8198628    0.4592132 -84.00  0.002455857    1.857    0.461
         3 -14.2330    241.3105     59.8560   1.0963499410e+01   2.2990139188e+01     1.467865     1.398622  57.66  0.008984096    1.561    0.359
         4 -14.5008     10.2327     67.2612   7.2793307532e+01   6.4359574381e+01     3.837239     1.552183   9.52   0.01471476    2.681    0.627
         5 -13.6050     74.8089     20.8173   2.4162893642e+01   6.1972127209e+01     2.459901     1.468617 -70.40   0.01127898    2.568    0.611
         6 -13.3055     61.9781     44.3792   3.8168491838e+01   6.1435471684e+01    0.8352752    0.5674151 -84.91  0.001398535    2.633    0.620
         7 -12.0868     59.8291     28.3340   3.2350835850e+01   6.4340353971e+01     3.067646     1.654425 -63.38   0.01157739    3.906    0.744
         8  99.0000     25.9158     39.9716   5.4413524054e+01   6.8620945780e+01      2.98994     1.120222 -52.98   0.01188445    3.008    0.668
         9 -11.1903     30.9404     19.7535   4.1866767114e+01   7.1255437647e+01    0.8064837     0.627466 -63.51  0.004691517    1.875    0.467
        10 -13.8206      5.1654     44.4892   6.9989557187e+01   7.0007425519e+01     2.103717    0.9831362 -64.75  0.009553725    2.323    0.570
        11 -13.5782     14.3160     34.9971   6.0054996123e+01   7.1086742702e+01     1.026463    0.7534853 -75.12   0.00511916    1.963    0.491
        12 -13.1267     56.3114     58.0275   4.5644233184e+01   6.0079083549e+01     2.234612     1.358732  78.05  0.007436713    4.371    0.771
        13 -12.3370     48.4301     31.7025   3.8630808047e+01   6.6189606136e+01     1.662492     1.395071 -80.09  0.009680673    1.591    0.372
        14 -13.2072     45.7045     54.3258   4.9167982220e+01   6.2707852400e+01     1.290551    0.7094535  14.96  0.003375708    3.108    0.678
        15 -11.9790    160.8254     28.5286   1.1569938405e+01   4.1440065054e+01     0.731625    0.3452559 -63.75  0.002402188    2.222    0.550
        16 -12.6667    226.2368     23.0238   5.2971169143e+00   2.9710282750e+01    0.3969049    0.2812712  76.60  0.001917124    1.580    0.367
        17 -10.8228    102.2576     21.4081   1.7910786538e+01   5.5502938336e+01    0.3606503    0.2374536 -38.74  0.001303448    1.661    0.398
        18 -11.1019    216.2727     24.2871   6.1217532051e+00   3.1254392723e+01    0.4423485     0.342416 -16.63  0.003184086    2.021    0.505
        19 -12.3267    210.3153     21.3060   5.9121973294e+00   3.2623703524e+01    0.3427105    0.2431908  58.69  0.002462624    1.885    0.469
        20 -10.6608    112.2749     23.9642   1.6920545122e+01   5.2865504947e+01    0.4001475    0.3048061  -3.46  0.002282441    1.948    0.487
        21 -12.0946    243.6411     22.4641   4.2851364286e+00   2.6998680653e+01    0.4378185    0.2572238  85.17  0.002244748    1.768    0.434
        22 -11.3430    204.6110     17.7570   5.5625365335e+00   3.4030058713e+01    0.4748568    0.1998857 -77.77  0.002039897    2.559    0.609
        23 -11.9721    123.4187     23.5456   1.4970082275e+01   5.0324939972e+01    0.3707311    0.2915142 -73.97  0.001082213    1.173    0.148
        24 -10.5326    124.7967     10.5261   1.0832475720e+01   5.1378158079e+01    0.6752001     0.148453 -32.37  0.002552519    4.099    0.756
        25  -9.9203    172.6208     16.1125   7.4823211856e+00   4.0371980563e+01     0.398112    0.2847248 -25.79   0.00212274    1.783    0.439
        26 -12.5708    173.0343      6.6802   5.2660951466e+00   4.1249451597e+01    0.3004076    0.2475449 -67.20 0.0004494469    1.126    0.112
        27 -10.8802    109.0425     10.8833   1.3147233876e+01   5.5007027467e+01    0.4763399    0.2577351 -30.49  0.002523802    2.107    0.525
        28 -10.4814    117.9302     16.9583   1.3762372427e+01   5.2316368340e+01    0.4988902    0.2011688  71.22  0.002241924    2.191    0.544
        29 -11.2440    114.9650     12.9543   1.2930191600e+01   5.3417505247e+01     0.233697    0.1994293 -80.87 0.0002979531    1.079    0.073
        30 -10.5379    118.7838      6.9231   1.0488996628e+01   5.3108797358e+01    0.2121909    0.1703806 -42.94  0.001018028    1.370    0.270
        31 -10.6529    118.4698     11.2014   1.1873688502e+01   5.2774856434e+01    0.2437919    0.1937134 -49.62 0.0008192527    1.314    0.239
        32 -11.1087    115.4120      7.6501   1.1164912951e+01   5.3824871203e+01    0.3821123    0.1983706 -47.02  0.001569503    1.937    0.484
        33 -11.0079    111.9782      4.1757   1.0503204259e+01   5.4940736123e+01    0.3089745    0.2079111  86.16  0.001458701    1.267    0.211
        34 -10.9829     93.6732     16.3353   1.7814644918e+01   5.8074376625e+01    0.4336649    0.1711151  49.63  0.001315682    2.529    0.605
        35 -12.4233    221.4733      8.9844   2.9463319436e+00   3.1987453526e+01    0.5722997    0.1473234 -48.53  0.003020329    2.471    0.595
        36 -11.8507    228.3711     10.0714   2.8231338405e+00   3.0724946502e+01    0.5200853    0.3104795 -73.55 0.0006446237    1.370    0.270
        37 -12.2703    249.8069     10.7930   2.0350892275e+00   2.7280296856e+01    0.3304173    0.1295845 -40.52  0.001932792    1.861    0.463
        38 -13.6091    244.3312      8.5692   1.8783030874e+00   2.8336458430e+01    0.7812859    0.3178025 -76.18  0.004901194    2.380    0.580
        39 -10.2380    187.0355     13.7508   5.8753134804e+00   3.7752307154e+01    0.2165135    0.1222655 -44.47 0.0009417711    1.514    0.339
        40  -9.9332    167.1566     14.1084   7.4593868440e+00   4.1706765889e+01    0.2269147    0.1209391 -56.37  0.001317696    1.607    0.378
        41 -11.3791    149.3373     13.1965   8.8473595109e+00   4.5598682413e+01    0.3392487    0.1788531 -85.91   0.00143987    1.822    0.451
        42 -10.1171     88.7098     12.2326   1.7304811774e+01   5.9663749953e+01    0.2050436    0.1570652  65.84 0.0007124319    1.110    0.099
        43  -9.8887    130.7917      9.3089   9.7497667263e+00   5.0124396424e+01    0.2748897    0.1815875  30.28  0.001493924    2.451    0.592
        44 -10.7898    101.9237      9.5633   1.3842207352e+01   5.6807732103e+01    0.3326745    0.1774482 -30.33  0.001741975    2.145    0.534
        45 -11.7560    173.7736      3.0267   4.3766889994e+00   4.1452002257e+01    0.1706995    0.1305064 -57.21 0.0005462575    1.162    0.139
        46 -11.0999     26.0181     10.0006   3.9366967060e+01   7.3486019173e+01    0.2311485    0.1812867   7.86 0.0008500345    1.352    0.261
        47 -10.9682     72.0400      4.1272   1.7759806908e+01   6.4331269335e+01    0.5210755    0.2223165 -36.26  0.002488833    2.604    0.616
        48 -11.1677     78.6512      9.9254   1.8636548318e+01   6.2250800970e+01    0.3476754    0.1571337  63.78  0.001214431    1.821    0.451
        49 -11.5275     76.7985      5.3915   1.7172866589e+01   6.3108808894e+01    0.3582054    0.2318161  16.52 0.0001454831    2.305    0.566
        50 -11.5476     84.6584      7.0099   1.6113292855e+01   6.1117490662e+01     0.246878    0.1839159  55.91  0.001030694    1.235    0.191
        51 -11.1522     84.7679      2.1624   1.4160188825e+01   6.1518032713e+01    0.3521919    0.2011876  47.40  0.001613557    1.777    0.437
        52 -11.7898    193.8128      8.1190   4.2438690885e+00   3.7031371278e+01    0.2402917    0.1896212  86.23  0.001341769    1.290    0.225
        53 -11.2060     45.7900      6.7800   2.7451155738e+01   6.9966052552e+01    0.4349282    0.3243063  63.84  0.001486191    1.278    0.218
        54 -10.7509     46.5306      2.2352   2.4681614089e+01   7.0260861573e+01     0.248202    0.1630569  32.50  0.001420077    1.613    0.380
        55 -10.0393    215.4353      8.2729   3.1053786149e+00   3.3095297812e+01    0.1373713   0.06959214 -50.07 0.0002935387    1.448    0.309
        56  -9.4615    156.6767      7.7115   6.7701190387e+00   4.4559278719e+01    0.1072998   0.08252896  55.16   0.00044722    1.606    0.377
        57  -9.9971    142.9620      7.0075   7.8210463684e+00   4.7611872683e+01    0.1783602    0.1095896 -69.40 0.0003967017    1.454    0.312
        58 -11.1887      3.9870      5.6559   5.3589473640e+01   7.7476843383e+01    0.3545677    0.1937209  12.05  0.001169826    2.012    0.503
        59 -10.0247    210.5826      6.1754   2.9430033320e+00   3.4156674005e+01    0.1226174   0.08992229 -36.38 0.0004973318    1.515    0.340
        60 -10.3560    183.7165      3.6698   3.8963933656e+00   3.9411575273e+01     0.206202    0.1563619 -54.07  0.001263549    1.190    0.160
        61 -10.0704    187.0464      1.2059   3.1704416041e+00   3.8999708927e+01     0.149314   0.09049649  82.12 0.0004463047    1.506    0.336
        62 -12.1623    216.4329      2.2018   1.9096669272e+00   3.3523808174e+01    0.3264817     0.164448  82.15  0.001348915    1.902    0.474
        63 -10.2172    229.6627      1.4115   1.2135607863e+00   3.1373291917e+01     0.320614   0.08377938  85.65  0.001513765    4.244    0.764
        64  -9.8155    202.9271      1.0000   2.3016905347e+00   3.6038091189e+01    0.1481057   0.05091121  80.55 0.0005777974    2.736    0.635
        65 -12.2971     95.5077     90.6215   4.1681234124e+01   4.5696672576e+01    0.6040734    0.4605548  52.38  0.001290104    1.294    0.227
        66 -12.4400    110.4533     87.2673   3.6519709847e+01   4.3298109062e+01     0.850103    0.2542603 -46.08  0.002746833    3.381    0.704
        67 -13.3119    114.1663     80.4804   3.3698270400e+01   4.3819441405e+01     1.319759    0.4799562 -42.92  0.004776421    2.823    0.646
        68 -11.6064     11.4893     98.0925   7.8018864007e+01   5.6388672804e+01     0.346517    0.2629561 -70.32 0.0008113633    1.307    0.235
        69 -10.1777    244.6289     97.1339   1.7206912239e+01   1.7587220439e+01    0.2194363    0.1009828 -38.13 0.0007962952    1.753    0.429
        70  -9.7567    218.5113    239.5238   4.3547886362e+01  -4.1583218363e-01    0.1070932   0.07668066 -16.05 0.0001967006    1.012    0.012
        71  -9.7769     27.3092     96.6825   7.0186590004e+01   5.5359980911e+01      0.15277    0.1084393  57.31 0.0003870122    1.637    0.389
        72  -9.4269      3.0123     96.2190   8.1877622822e+01   5.7424175613e+01    0.1769192    0.1141154   9.01            0    1.583    0.368
        73 -11.8547    207.3471     90.2600   1.9876320796e+01   2.4108067404e+01    0.3226149    0.2108035 -40.94  0.001158971    1.320    0.242
        74 -12.3009    213.7648     90.2961   1.9142538057e+01   2.3072285550e+01    0.3242465    0.2368385  77.25 0.0007432867    1.640    0.390
        75 -10.1771    158.2541     95.4300   2.8155222996e+01   3.2035338074e+01    0.2933646    0.1309327  55.45 0.0007351543    2.459    0.593
        76 -12.3867     49.1430     94.4073   5.9769999122e+01   5.3164413595e+01    0.5172683     0.269121  56.80  0.001843775    2.855    0.650
        77 -10.1962    250.5305     93.9198   1.6115178041e+01   1.7241887894e+01      0.15822   0.07732885 -41.80  0.000477695    1.500    0.333
        78  -9.6861     89.0670     92.7111   4.4269427182e+01   4.6535837846e+01    0.2083223    0.1860918  48.24  0.000380165    1.086    0.079
        79 -10.9932    226.7751     91.9784   1.8053133127e+01   2.0833378653e+01    0.1929275    0.1497883 -81.37 0.0007223681    1.449    0.310
        80 -10.1861     17.6610     92.6898   7.4072152729e+01   5.7329535425e+01    0.1583702   0.09904984 -31.59 0.0007044674    1.689    0.408
        81 -10.0125     86.1881     89.6124   4.4348691638e+01   4.7775358555e+01    0.2568187    0.1869835  33.43 0.0007421418    1.432    0.302
        82  -8.9170    245.2964     89.2901   1.5788529219e+01   1.8569700137e+01   0.09380047     0.074211 -24.50 0.0002578748    1.555    0.357
        83 -14.6874     50.7924     86.5719   5.7013827163e+01   5.4816537767e+01     2.797171    0.8600794  44.37  0.001340969    3.733    0.732
        84 -15.4547     66.7832     82.7110   4.9314507154e+01   5.2989006766e+01     3.955612     1.801384  49.02    0.0147001    2.411    0.585
        85 -12.1743    163.9088     53.4018   1.7292352851e+01   3.7587220786e+01    0.6529721    0.6194226  85.44  0.002596915    1.229    0.187
        86 -11.7918    100.1628     54.5352   2.9523671000e+01   5.1452963569e+01    0.6576586    0.5290317  65.38  0.002656546    1.157    0.136
        87 -11.6862     91.7375     34.0023   2.4701207137e+01   5.6415417188e+01     0.489858    0.3108802  46.56   0.00177095    1.584    0.369
        88 -13.6748     97.9012     75.6496   3.6686537166e+01   4.8214805820e+01     1.826035     1.207717  64.54  0.005606343    1.687    0.407
        89 -11.9549    139.6094     59.8115   2.2636903591e+01   4.1807847467e+01    0.9909354    0.7623888  63.95  0.005446779    1.276    0.216
        90 -10.2749     15.9173    238.6416   8.8464037458e+01   1.9510670210e+01    0.1961512    0.1701848 -63.20 0.0006244477    1.352    0.260
        91 -12.1765     90.5146     58.2395   3.3404165242e+01   5.2985198598e+01    0.6607023    0.5110023  64.41  0.001477618    1.261    0.207
        92 -12.7818    140.7595     69.8564   2.5077912313e+01   3.9968315830e+01     1.191365    0.4930657  48.38  0.001923982    2.686    0.628
        93 -12.1426    152.0834     63.9418   2.1615267906e+01   3.8504360332e+01    0.7994857    0.7639374 -27.73  0.004094025    1.297    0.229
        94 -13.8533     54.4657     70.1522   5.0550183552e+01   5.7931911824e+01     1.723989     1.028476 -67.98  0.007204723    2.391    0.582
        95  -9.8278    236.7170    145.9955   2.6430266407e+01   1.1519151422e+01    0.1545303    0.1090584 -38.02 0.0003347809    1.069    0.064
        96 -13.8510    118.1359     62.3053   2.7584051107e+01   4.6153335869e+01     1.148377    0.7394297 -63.22  0.004588923    1.775    0.436
        97  -9.3840    223.5097    121.4936   2.3803587844e+01   1.6914287900e+01    0.1151036   0.09033249 -41.02 -4.235015e-05    1.042    0.041
        98 -11.0237    182.1053    118.7202   2.9130455223e+01   2.3645459583e+01    0.1937382     0.161006  85.09  0.001197485    1.458    0.314
        99 -13.1914      3.8025     57.4881   7.4455116155e+01   6.7157457503e+01     2.006298    0.7485332 -23.36  0.006759538    3.766    0.734
       100 -10.1287    171.7861    116.3407   3.0371949273e+01   2.5815984816e+01    0.1899079    0.1592639 -89.75 0.0003990279    1.394    0.283
       101 -10.1097     73.0110    119.0119   5.6294521017e+01   4.3255619086e+01    0.2217862    0.2147956  47.61  0.001191273    1.028    0.028
       102 -13.0620     51.1928     45.1130   4.3046621424e+01   6.3438651414e+01     1.926218    0.8240497  27.42  0.005797256    4.651    0.785
       103 -10.8760    163.1901    115.1914   3.1667247886e+01   2.7537965393e+01    0.1862334    0.1516253 -71.75 0.0007265405    1.341    0.254
       104  -9.8052     93.6421    115.7050   4.8687163047e+01   4.0456097734e+01    0.1552197    0.1202917  -7.10 0.0007032211    1.698    0.411
       105 -11.2089     65.1610    114.6676   5.8161654751e+01   4.5618254642e+01    0.2633368    0.2135027 -74.11 0.0005879474    1.356    0.262
       106 -13.4355     79.0366     49.8267   3.4075538483e+01   5.6917259173e+01    0.9306542    0.6065121  41.64  0.001637096    1.522    0.343
       107 -13.1289     79.2224     41.3457   3.0917111792e+01   5.8216856902e+01     1.004565    0.3543193  47.05  0.003729504    2.667    0.625
       108 -12.0002    236.1987     85.9569   1.6034021362e+01   2.0301295773e+01    0.4577207    0.2498172  83.84   0.00260374    2.972    0.663
       109 -11.0695    105.3412     86.5421   3.7702158511e+01   4.4510902766e+01     0.397331    0.2796743 -65.55  0.001604983    1.644    0.392
       110 -11.9982    161.7628     84.2874   2.4965932787e+01   3.3266605938e+01    0.7597013    0.6479178  25.34  0.004563679    1.587    0.370
       111 -12.3327    169.1561     80.8256   2.2994541314e+01   3.2392405269e+01    0.3899623    0.2736333 -65.18  0.001276482    1.423    0.297
       112 -11.0182    168.9679     76.4742   2.2025004706e+01   3.3122979364e+01    0.3750163    0.2292093  79.73  0.001107057    2.019    0.505
       113 -12.8095    147.5240     81.1050   2.6683871227e+01   3.6668023686e+01    0.6985716    0.3087089 -46.09  0.003017049    2.131    0.531
       114  -9.9840    241.8622    113.9056   2.0377015198e+01   1.5591461971e+01    0.1512235    0.1172723 -35.61 0.0003900841    1.181    0.153
       115 -14.2448     77.5769     58.9041   3.7742066987e+01   5.5661314469e+01     1.043497    0.5521258  55.69  0.004472625    1.938    0.484
       116 -11.2959    248.8080     83.4613   1.4478961708e+01   1.8871152699e+01    0.2673587    0.1599468 -68.53  0.001325487    1.876    0.467
       117 -12.5629    135.1173    111.8339   3.6667898038e+01   3.3404231555e+01    0.5948973    0.3999694  62.13   0.00286001    1.756    0.431
       118 -10.5790    238.3678     80.5754   1.4877013683e+01   2.0721651994e+01    0.2321037     0.154199 -28.01  0.001559351    1.775    0.437
       119 -10.2823    155.5060     76.6589   2.4192530151e+01   3.5779042968e+01    0.2858998    0.1834775  63.61  0.001178091    1.620    0.383
       120 -12.0333    199.6449     96.6515   2.2100311387e+01   2.4391790604e+01    0.3695667    0.2312657 -49.25  0.002201989    1.337    0.252
       121 -12.4789    184.3922     93.3322   2.3496526760e+01   2.7539233928e+01    0.6233665    0.3441707 -31.84  0.002924542    2.077    0.518
       122 -13.9453    194.9173     86.0529   2.0550903071e+01   2.6838417532e+01     1.177447    0.9861146 -78.06  0.008083623    1.194    0.163
       123  -9.9539    176.4955     61.4748   1.7559804302e+01   3.3912172462e+01    0.2454415       0.1717 -67.35  0.001479042    1.337    0.252
       124 -10.9289    127.5732     58.7414   2.4584355449e+01   4.4622963853e+01    0.4428386     0.253584  43.74  0.001710639    2.099    0.524
       125 -11.5271    173.3380     56.4776   1.6809575804e+01   3.5245333105e+01    0.3404602    0.2378172  80.73 0.0009787411    1.439    0.305
       126 -10.1642    108.4532     55.8030   2.7861598422e+01   4.9379468547e+01    0.3168782    0.1389612 -37.08  0.001287557    2.532    0.605
       127  -9.8428    149.6875     48.6773   1.8087727406e+01   4.1247594758e+01    0.2218413    0.1764791 -11.55  0.001190362    1.857    0.462
       128 -10.5059    142.5622     54.9387   2.0836779516e+01   4.1897176790e+01    0.2689856    0.2054601 -38.95  0.001179681    1.395    0.283
       129 -10.7883    145.9940     52.4592   1.9631563133e+01   4.1512064722e+01     0.255756    0.1962367  42.07 0.0008514164    1.669    0.401
       130 -12.7874    104.1689     66.4327   3.2191884396e+01   4.8550121216e+01    0.6762272    0.5565979  29.65            0    1.461    0.315
       131 -11.0212    131.8536     52.2979   2.1963540865e+01   4.4647504574e+01    0.2764053     0.169783 -57.48  0.001398013    1.675    0.403
       132 -11.3395    133.4843     46.4516   2.0037966261e+01   4.5123000190e+01    0.3972552    0.3281829 -72.45  0.001646636    1.118    0.106
       133  -9.4495     90.4623     51.5447   3.1181091123e+01   5.4113459812e+01    0.1405051    0.1263483  72.60 0.0007397705    1.048    0.046
       134 -11.1795    249.7964     46.9976   8.1539315110e+00   2.3308844372e+01    0.3982542     0.149074 -41.77  0.002397148    1.901    0.474
       135 -11.8096    247.7800     42.5007   7.5069834559e+00   2.4131316099e+01     0.323627    0.1528005 -66.45 0.0005605255    2.049    0.512
       136  -9.1546     94.3053     47.7042   2.8813764274e+01   5.3854855504e+01    0.1383389    0.1030388 -84.84 0.0004368726    1.583    0.368
       137 -11.4103    134.2829     41.2015   1.8429923850e+01   4.5662507891e+01    0.5373247    0.2898266 -64.75  0.002511666    2.173    0.540
       138 -10.5170    106.4455     45.3502   2.5031260326e+01   5.1435426429e+01    0.3549435    0.2524191 -77.31  0.001850009    1.615    0.381
       139  -9.9441    121.0983     44.7595   2.1781081443e+01   4.8162402366e+01    0.2921802    0.1780632 -73.10   0.00138446    2.028    0.507
       140 -10.2632     94.1839     42.3603   2.7018248823e+01   5.4684048455e+01    0.2863295    0.2105382  29.37  0.001486945    1.768    0.435
       141 -13.3662    204.4341     77.9123   1.7756269815e+01   2.6420560191e+01     1.227795     0.522014  73.72  0.005343933    3.853    0.740
       142 -10.7406    131.6360     33.4990   1.6654096239e+01   4.7256751902e+01    0.2999874    0.1736596 -62.97  0.000924197    1.831    0.454
       143  -9.9668     96.0000    112.9494   4.7300795991e+01   4.0659912966e+01    0.2486954   0.08575243 -51.69 0.0007856013    2.927    0.658
       144 -10.3401    121.9923     32.7962   1.8009821798e+01   4.9549957035e+01    0.2038575    0.1703707 -54.81  0.000602219    1.216    0.178
       145 -10.4366    111.9632     32.5268   1.9742359238e+01   5.1905473524e+01    0.2716086    0.2139656  66.49 0.0009535716    1.150    0.131
       146  -9.4480    241.8193     30.0164   5.6883107595e+00   2.6452169904e+01    0.1950641    0.1278473 -65.19 0.0007258736    1.191    0.160
       147 -10.0297    237.7624     30.6419   6.0235747662e+00   2.7011226638e+01    0.1749909    0.1161569 -74.93  0.001038746    1.328    0.247
       148 -10.1390    231.6536     31.2392   6.4856090708e+00   2.7912344223e+01    0.1220553   0.09972254 -51.58 0.0002591974    1.257    0.205
       149 -11.1334    227.4207     30.6664   6.6366607801e+00   2.8663970662e+01    0.3250387    0.2603941  69.77  0.002623283    1.595    0.373
       150  -9.3351    137.4929     30.9926   1.5081900304e+01   4.6243163562e+01     0.155041    0.1132165   9.60 0.0008090318    2.435    0.589
       151 -10.7742     85.8570     29.1077   2.4412558547e+01   5.8413844292e+01    0.4577902    0.2006789  58.82  0.001679831    1.971    0.493
       152 -10.2750     80.1900     30.2298   2.6395165424e+01   5.9569558073e+01    0.1881438    0.1796287   6.92 0.0006852756    1.235    0.191
       153 -10.5808    218.9799     29.0069   6.8542979584e+00   3.0261284784e+01    0.2032639    0.1444466 -43.33 0.0007902812    1.312    0.238
       154 -10.4097    210.4547    111.9488   2.3684150977e+01   2.0277223424e+01    0.2502963    0.1604395  55.36  0.001113275    1.925    0.480
       155  -9.7707    152.3067     29.8494   1.2863080096e+01   4.3109085824e+01    0.1622426    0.1305123 -58.14 0.0004904606    1.153    0.133
       156 -10.2227    103.1346     28.5794   2.0196676121e+01   5.4456134478e+01    0.3592955    0.2461488 -59.75  0.001970667    1.569    0.363
       157  -9.4582    191.4318    112.5057   2.6425546889e+01   2.3174053848e+01    0.1241514    0.1052804 -41.83 4.430882e-05    1.079    0.073
       158 -10.8976     97.5626     21.5920   1.8916571243e+01   5.6585302880e+01    0.2539188    0.2025659 -80.12 0.0008588898    1.248    0.199
       159 -10.4400    174.3193    111.9805   2.9019612217e+01   2.6153625362e+01    0.3053544    0.1828615  34.71 0.0008428612    2.274    0.560
       160 -11.4629    202.0070     20.7930   6.3440855634e+00   3.4175638691e+01    0.2801767    0.1610272 -58.00  0.001040298    1.355    0.262
       161  -9.9258    233.4516    109.0287   2.0423849020e+01   1.7414054778e+01    0.1492884    0.1262478 -48.54 6.484368e-05    1.114    0.102
       162  -9.8827    114.5823     28.1648   1.7862505407e+01   5.1834258672e+01     0.189117    0.1490722  53.52 0.0002647612    1.331    0.248
       163 -10.9219    196.6069    107.9203   2.4762698710e+01   2.3088813157e+01    0.3730368    0.2393461 -63.34  0.002102442    1.747    0.428
       164 -10.9593    134.9511     26.4453   1.4154629046e+01   4.7356712654e+01    0.2619349    0.1977752  47.29 0.0008223376    1.609    0.378
       165 -10.3814     21.1959     25.8436   5.1147258480e+01   7.1865851094e+01    0.2867061    0.2663287  35.09  0.001441161    1.221    0.181
       166  -9.9078     19.7987     20.0674   4.9174885191e+01   7.3033121227e+01     0.321656    0.1835291 -64.12  0.001382206    3.578    0.721
       167 -10.3364    234.2515     24.1981   5.0704257889e+00   2.8279612290e+01    0.2377836    0.1837717 -52.89  0.001969018    1.194    0.163
       168 -10.6984    191.6816    102.9776   2.4461486323e+01   2.4708269913e+01     0.339719    0.1176728 -47.17  0.001433971    2.523    0.604
       169 -12.1748    160.7700    105.2415   2.9926577273e+01   2.9801856632e+01    0.3982269    0.2442263 -62.93  0.001548887    1.917    0.478
       170 -10.6664    154.0160     25.1785   1.1465062152e+01   4.3284444295e+01    0.2653271     0.194722  85.63   0.00148517    1.201    0.167
       171 -10.4923    147.8903     25.2911   1.2191942325e+01   4.4605632701e+01    0.2125745    0.1684755  47.69   0.00134299    1.604    0.377
       172 -10.7974    160.7691    100.4202   2.8843928671e+01   3.0669386744e+01    0.3018603    0.1710137 -48.55  0.001385652    1.623    0.384
       173 -13.2540    146.5515    103.6274   3.2292512175e+01   3.2800460731e+01    0.9662453    0.6054202  76.79  0.004230639    2.473    0.596
       174 -11.4868    176.9456     23.3164   8.7822731997e+00   3.8710349601e+01     0.414117    0.2358577  53.27  0.002368583    2.258    0.557
       175 -10.2145    185.1870     22.8297   7.9941512419e+00   3.7132136960e+01    0.2295156    0.1306481 -84.50  0.001310206    1.650    0.394
       176 -11.4542    163.0068     21.0704   9.5130449867e+00   4.1828401722e+01     0.196716    0.1484306 -79.81 0.0003301087    1.097    0.089
       177  -9.5395    151.3446     19.9035   1.0392371639e+01   4.4452845445e+01    0.1349478     0.112698 -23.69 0.0008873329    1.565    0.361
       178 -11.6495    136.4262     19.1961   1.1910039882e+01   4.7836707582e+01     0.237529    0.1797122  73.11 0.0002512413    1.215    0.177
       179 -12.0829    118.8498     93.3093   3.5974573053e+01   4.0358370611e+01    0.5017238    0.3557258  75.62  0.001514044    1.768    0.434
       180 -12.9188    136.6595     81.9978   2.9015370898e+01   3.8767915634e+01     1.290095     0.730575  67.94  0.005760239    2.135    0.532
       181  -9.4828    130.8796     19.3778   1.2671756107e+01   4.9074784654e+01    0.1731063   0.09748539  62.11 0.0003588792    1.651    0.394
       182  -9.7516    143.5854     18.3059   1.0817482569e+01   4.6330800925e+01    0.1207943   0.09358096 -86.40 0.0001559399    1.078    0.072
       183 -11.5233    132.3083     87.1203   3.1244196436e+01   3.8750503259e+01    0.5124136       0.3172  67.50  0.001564064    1.904    0.475
       184 -13.4496    121.5887     98.4472   3.6614693333e+01   3.8773542626e+01    0.6952005    0.5110558 -38.62  0.002498552    1.438    0.304
       185 -13.2219    134.9817     95.1729   3.2691756449e+01   3.6695180519e+01     1.229762    0.4173065  50.06  0.000768352    3.033    0.670
       186 -11.6103    127.5633     89.9213   3.3019216828e+01   3.9212506833e+01     0.498443    0.3239109  48.60  0.001029113    1.568    0.362
       187 -12.3167    122.0654     87.2637   3.3607038646e+01   4.0863836497e+01    0.5573945    0.3736362 -43.93  0.002214987    1.504    0.335
       188 -11.1863    125.8494     85.1546   3.2169672813e+01   4.0465847354e+01    0.3156978    0.2453269 -45.12  0.001164852    1.293    0.227
       189 -10.6951     16.0991    106.2225   7.7112731708e+01   5.3854109482e+01    0.3472022     0.233106 -26.04  0.001632346    1.597    0.374
       190 -10.2536    210.4271    105.3860   2.2437102478e+01   2.1306606330e+01    0.2689948     0.238128 -87.78  0.001848525    1.285    0.222
       191 -11.4396    215.8680    100.3334   2.0815802884e+01   2.1245829457e+01    0.3656059    0.1656032 -36.87  0.001498087    2.004    0.501
       192 -11.7174    110.2979    103.7312   4.0879688676e+01   3.9946755957e+01    0.3464838    0.2432239  14.47  0.001508862    2.161    0.537
       193 -10.3206     90.7809    104.3815   4.6802636508e+01   4.3605034142e+01    0.2079768    0.1427025  30.31 0.0003375744    1.573    0.364
       194 -11.2565    169.7196     98.2239   2.6815131208e+01   2.9382645965e+01    0.3645842    0.2990945 -27.77  0.001515608    1.385    0.278
       195  -9.6982    194.4789     17.5247   6.1730838477e+00   3.5928974338e+01    0.1123562   0.08415929 -66.58 0.0001430788    1.003    0.003
       196 -11.8159    152.1171     98.1476   2.9918718319e+01   3.2736552930e+01    0.5056431    0.3339949 -66.27  0.001336931    1.763    0.433
       197 -12.8428     85.5182     97.9670   4.6844915920e+01   4.6059794054e+01    0.6581231    0.4286979  29.00  0.002307013    1.713    0.416
       198 -12.6310     56.4140     99.3176   5.7946560937e+01   5.0843250073e+01    0.7151399    0.2248843  31.31  0.002244077    3.110    0.678
       199  -9.6213    160.8274     13.2766   7.7983352293e+00   4.3119220792e+01    0.1835479    0.1117514  53.36  0.001065767    2.025    0.506
       200 -12.9382    175.0727     86.9163   2.3471636239e+01   3.0280909168e+01    0.9243038     0.599124  28.19  0.004459289    2.807    0.644
       201 -13.5772    219.2761     82.3553   1.7029983638e+01   2.3354144639e+01     1.264867    0.4348312 -48.25  0.006089577    2.367    0.578
       202 -13.2852    186.7997     60.1150   1.6024909923e+01   3.2126980494e+01    0.9637809    0.6621999  49.91  0.000746501    1.868    0.465
       203 -12.5938    234.5132     37.4829   7.4388406887e+00   2.6740493516e+01    0.5533957    0.2412054 -67.65  0.002326175    2.381    0.580
       204 -10.9914     36.5714    249.1335   8.3895539085e+01   1.5541958693e+01    0.2416869    0.1435761 -22.19  0.001210245    2.289    0.563
       205 -10.5684    181.0250    243.9910   5.0642231394e+01   2.1600022137e+00    0.1555748    0.1389673  37.10  0.001142705    1.722    0.419
       206 -12.9059    177.6043     72.8278   1.9974774191e+01   3.2018913736e+01     1.292538    0.7662193 -78.58  0.006492469    2.220    0.550
       207 -12.1024    164.9184     65.5460   2.0061892935e+01   3.5614500387e+01    0.6569972    0.4153322  56.46  0.003651729    1.700    0.412
       208 -13.0663    189.7317     44.2875   1.2278224861e+01   3.3688547433e+01     1.030756    0.6899924  71.98  0.001794304    1.543    0.352
       209 -13.5364    200.9588     60.8802   1.4664074963e+01   2.9428794202e+01     1.022857    0.4845647 -46.63  0.005661243    1.704    0.413
       210 -13.1791    212.4378     58.5820   1.3097174653e+01   2.7743290746e+01     0.959779    0.4980116  72.84    0.0036751    2.193    0.544
       211 -13.1064    208.9290     46.8577   1.1081442581e+01   2.9861828941e+01     1.201365     0.651243 -85.12  0.007036009    2.092    0.522
       212 -13.5065    207.0948     67.8774   1.5458087690e+01   2.7394069861e+01    0.7356696    0.5419546  49.60   0.00493359    1.818    0.450
       213 -12.8004    195.5013     67.8967   1.6703642453e+01   2.9425369682e+01    0.6517953    0.3998305  74.66  0.001203923    1.822    0.451
       214 -12.0215    172.4983     44.5461   1.4136354397e+01   3.7032452070e+01    0.5612617    0.3374676  59.27  0.001792658    1.803    0.445
       215 -12.2702    178.7738     38.1767   1.2000752978e+01   3.6587054679e+01    0.4752007    0.3697255  63.15  0.002639557    1.474    0.322
       216 -11.7443    142.7425     46.2629   1.8491570941e+01   4.3094372450e+01    0.3593347    0.2496067  34.46  0.001413222    2.182    0.542
       217 -12.9467    230.3525     47.8730   9.6075430358e+00   2.6160556474e+01    0.8514684    0.5380138  41.40  0.005232212    3.053    0.672
       218 -12.2018    238.5848     51.4681   9.6727213369e+00   2.4439903444e+01    0.3043057    0.1604611 -60.88  0.001099495    1.627    0.385
       219 -12.0889    151.1077     41.3370   1.5987818477e+01   4.1931666309e+01    0.8077515    0.3991227  81.30  0.003403227    2.301    0.565
       220 -12.7087    160.9983     38.1032   1.3919181159e+01   4.0235951326e+01    0.6328637     0.479441 -80.10  0.004053214    1.162    0.139
       221 -13.0249    102.5246     96.5012   4.1191895984e+01   4.3037116038e+01    0.7015796    0.4222785  40.25  0.003116513    1.693    0.409
