#   1 NUMBER                 Running object number                                     
#   2 MAG_AUTO               Kron-like elliptical aperture magnitude                    [mag]
#   3 X_IMAGE                Object position along x                                    [pixel]
#   4 Y_IMAGE                Object position along y                                    [pixel]
#   5 X_WORLD                Barycenter position along world x axis                     [deg]
#   6 Y_WORLD                Barycenter position along world y axis                     [deg]
#   7 A_WORLD                Profile RMS along major axis (world units)                 [deg]
#   8 B_WORLD                Profile RMS along minor axis (world units)                 [deg]
#   9 THETA_WORLD            Position angle (CCW/world-x)                               [deg]
#  10 FWHM_WORLD             FWHM assuming a gaussian core                              [deg]
#  11 ELONGATION             A_IMAGE/B_IMAGE                                           
#  12 ELLIPTICITY            1 - B_IMAGE/A_IMAGE                                       
         1 -10.7252     13.0573     59.9927   1.1208529632e+02   6.2397014267e+01    0.2258145    0.2179925 -38.21  0.001422049    1.252    0.201
         2 -11.9579    218.8029     14.0896   4.2968526315e+01   2.8430115099e+01    0.7562328    0.6804377 -71.21  0.002807043    1.039    0.038
         3 -10.7126    211.2367     22.8310   4.6062863255e+01   2.9300405791e+01    0.4959716     0.330313  42.02  0.001058137    1.819    0.450
         4 -12.1569    203.6038     31.2238   4.9280675277e+01   3.0198286602e+01     1.078264    0.9023944  49.84  0.005942801    1.288    0.223
         5  -9.4338     12.6049      5.1594   9.3461672854e+01   7.2778784867e+01    0.2995673    0.0927029 -47.68  0.001354975    3.059    0.673
         6  -8.1875     32.6783      3.3407   8.2083420161e+01   7.0958922504e+01    0.1010415   0.09021477 -43.62 0.0007050462    1.721    0.419
         7  -9.3471      8.5155      3.0026   9.4672232231e+01   7.3442405042e+01    0.1688107   0.08622026 -42.74  0.001035431    1.606    0.378
         8  -8.8319    163.7528    240.5100   1.0429566114e+02   2.7567520141e+00    0.2178775   0.09873027 -61.29 0.0008951026    4.497    0.778
         9  -8.4098    143.2223    250.3834   1.0919347058e+02   4.6207920398e+00    0.1782158   0.08461852  48.43 0.0009579399    1.701    0.412
        10 -11.1548    126.9265    246.6651   1.1167679622e+02   7.7198492478e+00    0.3921846    0.2197631  38.56  0.002291278    1.567    0.362
        11 -11.3358     94.1251    244.2619   1.1724795677e+02   1.3032799415e+01    0.4814984    0.3616105  61.93  0.003437524    1.041    0.039
        12 -10.2098     72.4719    249.5535   1.2140003254e+02   1.5163595576e+01     0.394389    0.1527209  61.02  0.001982372    2.531    0.605
        13  -9.1273     52.8913    250.4886   1.2469435463e+02   1.7523296465e+01    0.2017446   0.07451397  45.76 0.0009831651    2.024    0.506
        14 -13.0537     30.8591    219.3065   1.2644855479e+02   2.5687642968e+01      1.41564    0.7393482  76.79  0.008836005    1.622    0.383
        15 -11.5560     39.7986    210.6304   1.2426558566e+02   2.6350022633e+01    0.4200358    0.3557316 -72.55  0.001538717    1.456    0.313
        16 -13.8184     48.8111    200.1144   1.2173285082e+02   2.7387331681e+01     2.928934     1.167525  64.62   0.01317536    2.797    0.642
        17 -10.7607    126.8929    238.8406   1.1081995787e+02   8.9516290435e+00    0.2961465     0.163698  55.49  0.001657116    1.639    0.390
        18 -15.1667      8.9448    240.8475   1.3113846183e+02   2.4085076956e+01     13.92639     1.639303 -79.05  0.004540866    8.714    0.885
        19 -10.1987    108.8174    228.3940   1.1300403038e+02   1.3532782593e+01    0.3389082    0.2104823 -54.36  0.002004294    1.955    0.488
        20 -10.1396     65.4752    182.2465   1.1656291698e+02   2.9025516052e+01    0.3501527    0.2466647 -40.36  0.001702198    2.134    0.531
        21 -10.1767     70.4583    176.4467   1.1479630182e+02   2.9614696409e+01     0.288112    0.2496016 -35.76 0.0009559951    1.628    0.386
        22  -9.6013     84.4695    233.6732   1.1800948514e+02   1.6225647618e+01    0.2888873     0.216976  60.73  0.002011453    1.027    0.026
        23  -9.7759     79.7016    166.3528   1.1137355585e+02   3.0548385003e+01    0.2544895    0.2183493 -65.98 0.0002584585    1.213    0.175
        24 -11.5696     67.1619    162.7666   1.1379961109e+02   3.3140554881e+01    0.4405187    0.3162225 -46.86  0.001086855    1.697    0.411
        25  -9.9923     74.0001    154.3775   1.1098645598e+02   3.4122946836e+01    0.4040689    0.2091914  51.26  0.001884039    1.962    0.490
        26 -11.1577     85.1358    160.0013   1.0915921934e+02   3.1176389839e+01     0.621829    0.4990582 -32.31  0.001852889    1.711    0.416
        27  -9.2876     77.4081    158.2011   1.1073387931e+02   3.2746372827e+01    0.3063142    0.1842784  86.75  0.001325027    1.995    0.499
        28  -9.0096     33.0411    157.1524   1.2103501489e+02   3.8480469802e+01    0.2463823    0.1130282 -78.98  0.001214633    1.925    0.481
        29 -11.4914     68.4969    144.4114   1.1082708020e+02   3.7227968960e+01    0.7114426    0.4723205  72.30   0.00326306    1.647    0.393
        30 -10.0599    101.3459    142.7190   1.0219087313e+02   3.2536652004e+01    0.5076037    0.2962057 -30.73   0.00194088    2.993    0.666
        31 -10.5851     87.8194    143.2703   1.0572736759e+02   3.4645662244e+01    0.3938436    0.2921243  24.62 0.0008486877    1.725    0.420
        32 -10.2930     17.1921    138.3166   1.2283623277e+02   4.4251616472e+01    0.2616329    0.1420186 -53.75  0.001462662    1.876    0.467
        33  -9.8134     58.8460    132.3161   1.1140561320e+02   4.1368876782e+01    0.2476844    0.1844889  66.58  0.001394453    1.395    0.283
        34 -13.2926      8.8610    207.1922   1.2959104818e+02   3.0273768902e+01      1.29743    0.8966756 -85.56  0.005396876    1.254    0.202
        35  -9.1553     97.9545    128.6878   1.0025715599e+02   3.6410626186e+01    0.2649945    0.2401458 -17.36 0.0007836213    1.340    0.254
        36  -8.7162    110.1556    132.7264   9.7910787426e+01   3.3288801155e+01    0.2760321     0.185292 -31.03 0.0006495987    2.000    0.500
        37  -7.9329    107.4582    120.4932   9.5900003281e+01   3.6631558552e+01    0.1490167    0.1413493 -58.94 0.0001328415    1.046    0.044
        38  -8.9221     32.5597    118.9997   1.1648600150e+02   4.7414112587e+01    0.2018928    0.1038102 -69.32 0.0004326216    1.590    0.371
        39 -10.1466     22.4587    117.2497   1.1902468573e+02   4.8708793794e+01    0.3675281   0.06723647 -63.98  0.001311362    3.425    0.708
        40 -10.1169     49.5504    233.8556   1.2416558055e+02   2.0817675539e+01    0.2257668    0.1359833  66.80  0.001248215    1.292    0.226
        41  -8.4594    167.8088    112.5668   7.8875105638e+01   2.5458408419e+01    0.2180653    0.1524837  63.36 0.0006157457    1.649    0.393
        42  -9.0344    163.2290    232.2503   1.0328284043e+02   4.0506688990e+00    0.2288699    0.1419086   7.94   0.00103612    3.204    0.688
        43 -10.8966    114.3160    229.8860   1.1213923641e+02   1.2417209312e+01    0.3760097    0.2130363  59.62  0.002075269    1.689    0.408
        44  -8.5576     24.3047     82.4024   1.1280897830e+02   5.6651283656e+01    0.1507881    0.1133003  42.85 0.0009436997    1.627    0.385
        45 -10.8195    124.7125    228.6187   1.1004013049e+02   1.0979807327e+01    0.3342854    0.2281383  48.62  0.002052359    1.191    0.161
        46 -10.3961     59.7397    246.0120   1.2327506325e+02   1.7418633988e+01    0.3642962    0.1548846 -76.96  0.002061695    2.507    0.601
        47 -10.3998    144.7699     49.6312   6.5187817146e+01   4.2796458565e+01    0.4591711    0.3292583 -81.45  0.001257881    1.962    0.490
        48 -11.3615    115.1035    248.9862   1.1401062321e+02   9.1702463134e+00    0.6978254    0.2122535  39.20  0.002993246    2.935    0.659
        49 -10.2406     65.8297    242.9875   1.2203521295e+02   1.7148557287e+01    0.2474477    0.1575389  66.59  0.000481866    1.239    0.193
        50 -11.3979    194.8939     37.3182   5.2197126593e+01   3.1640152226e+01    0.5351639    0.4852533 -86.92  0.001837667    1.057    0.054
        51  -9.0117     67.4791    238.6573   1.2142674032e+02   1.7681161232e+01    0.2398741   0.09069965  50.74  0.001260703    2.030    0.507
        52 -10.7437     97.7377    226.5406   1.1488236014e+02   1.5552772912e+01    0.4143252    0.2394418  58.13  0.001544229    1.505    0.336
        53  -8.7285     53.5662    230.7931   1.2325845939e+02   2.0874220495e+01    0.1889403   0.09297411 -69.27  0.001123379    2.065    0.516
        54 -10.8813    100.7000    249.5942   1.1658395233e+02   1.1211724112e+01    0.5264189      0.27626  58.01  0.003114553    1.641    0.391
