#   1 NUMBER                 Running object number                                     
#   2 MAG_AUTO               Kron-like elliptical aperture magnitude                    [mag]
#   3 X_IMAGE                Object position along x                                    [pixel]
#   4 Y_IMAGE                Object position along y                                    [pixel]
#   5 X_WORLD                Barycenter position along world x axis                     [deg]
#   6 Y_WORLD                Barycenter position along world y axis                     [deg]
#   7 A_WORLD                Profile RMS along major axis (world units)                 [deg]
#   8 B_WORLD                Profile RMS along minor axis (world units)                 [deg]
#   9 THETA_WORLD            Position angle (CCW/world-x)                               [deg]
#  10 FWHM_WORLD             FWHM assuming a gaussian core                              [deg]
#  11 ELONGATION             A_IMAGE/B_IMAGE                                           
#  12 ELLIPTICITY            1 - B_IMAGE/A_IMAGE                                       
         1 -13.6479    244.5660    110.2805   3.3531145141e+01   7.5262155096e+00     1.596238     1.163539 -53.71  0.008207926    1.498    0.333
         2 -11.5126     49.3920     36.3118   6.0093088683e+01   6.2909564115e+01    0.8134477    0.5850651 -79.65   0.00373656    3.658    0.727
         3 -13.1032     44.8730     23.7662   5.6926366381e+01   6.5510482088e+01    0.9552808    0.7108696 -46.80  0.005966408    1.663    0.399
         4 -11.1478     39.5835      8.0103   5.2124756893e+01   6.8419562867e+01    0.6160266     0.210929 -39.73  0.002762415    3.037    0.671
         5 -11.9728    173.5021     20.7718   2.0957448906e+01   3.8448880636e+01    0.5525408    0.2959896  49.53  0.002303955    1.800    0.444
         6 -12.7216    155.9397     11.5326   2.0877519796e+01   4.3987518029e+01    0.7528753    0.5876794  36.02  0.004145658    1.332    0.249
         7 -13.6315    166.7655     10.9879   1.9028229162e+01   4.1245198256e+01      2.22406    0.4906263  56.02  0.007212375    3.325    0.699
         8 -12.1880    177.4704      3.4336   1.5338192152e+01   3.9204491067e+01    0.9781931     0.484594 -61.67  0.004045751    2.613    0.617
         9 -12.5189    158.4942      3.5897   1.7977281425e+01   4.4080589666e+01     1.102904    0.3874663  63.50  0.004324997    2.308    0.567
        10 -11.8019    169.1847      2.4425   1.6125339862e+01   4.1432919194e+01    0.7785591     0.344938  72.56  0.003287422    2.070    0.517
        11 -11.2362    227.1130     16.0097   1.3098881858e+01   2.5348480412e+01    0.5275503    0.3561363 -78.37  0.002850431    1.429    0.300
        12 -10.5185    116.2269     16.7273   3.0557355798e+01   5.3257495265e+01    0.3679591    0.2183304 -48.55  0.001694545    2.256    0.557
        13 -11.9466     78.0166     13.8770   4.0123953922e+01   6.1614523829e+01    0.4504181    0.2634509 -11.88  0.002322888    1.820    0.451
        14 -10.2945     20.1270     15.2672   6.4473507386e+01   6.9505409891e+01    0.2958294    0.1477622 -12.06  0.001501724    2.513    0.602
        15 -10.7486    231.9128      9.3440   1.1087594583e+01   2.4953187090e+01    0.4260477    0.2757878 -77.24  0.002318955    1.465    0.318
        16 -11.0856    223.4019      4.9777   1.0832251960e+01   2.7469088132e+01    0.4307201    0.2042942 -56.69  0.001970492    2.128    0.530
        17 -11.8198    145.6010      4.7132   2.0367096361e+01   4.7265217758e+01     0.603763    0.3234273  59.36  0.002870876    1.569    0.363
        18 -10.3096    141.4969      1.5211   1.9989073106e+01   4.8573481302e+01    0.2725047    0.1793272  65.56  0.001426305    1.337    0.252
        19 -11.2641    131.2325      3.9294   2.2652846743e+01   5.0910725186e+01     0.760398     0.235389  53.15  0.002911133    2.483    0.597
        20 -11.0589    121.4854      4.4737   2.4781623150e+01   5.3216655411e+01    0.4696386    0.3890352  69.12  0.002782035    1.240    0.194
        21 -10.6738    106.4744      5.0780   2.8370191805e+01   5.6635527813e+01    0.3639836     0.235427 -89.04   0.00166505    2.676    0.626
        22 -11.3132    204.9697      4.5120   1.2495892306e+01   3.2072164167e+01    0.4115401    0.1815448  65.93  0.001835111    1.962    0.490
        23 -10.6867     71.0315      5.7086   3.8790887089e+01   6.3794852549e+01    0.3743232    0.2053895  48.50  0.001991697    1.805    0.446
        24 -11.8013     84.0483      3.6097   3.3733162622e+01   6.1529238415e+01    0.7680519    0.3053359  53.88  0.003376446    2.380    0.580
        25 -10.6042     61.4797      2.1259   4.0451020028e+01   6.5834940613e+01    0.4110362    0.1381425  36.98  0.001745585    2.835    0.647
        26 -10.7751    192.6422      5.4816   1.4085406380e+01   3.5104546172e+01    0.2469818     0.177499 -23.52  0.001283442    1.619    0.382
        27  -9.4411     17.7310      1.9650   5.9587524790e+01   7.1682764208e+01    0.1406367    0.0770985 -33.20 0.0008826886    1.497    0.332
        28  -9.1812      1.6536      1.6883   6.8012831582e+01   7.3028041472e+01     0.114906   0.05831742 -22.30 0.0007046033    1.710    0.415
        29 -12.7284     11.0332    140.5411   9.4733829868e+01   4.4123317893e+01    0.5476567    0.2827568  84.13  0.002973892    1.915    0.478
        30  -9.9401     53.6327    143.4580   8.4647692427e+01   3.9236130439e+01    0.2492269    0.1853227 -78.67  0.001173359    1.197    0.164
        31  -9.4216    173.5059    144.5128   5.5238023372e+01   1.7100823831e+01    0.1533294    0.1476235  38.76 4.556301e-05    1.014    0.014
        32 -13.5462    240.8693    125.0939   3.7566508946e+01   5.8701901265e+00     1.405325     1.139643  60.70  0.007663226    1.440    0.305
        33 -11.6971    240.6362    229.0368   5.8672529880e+01  -9.2288550050e+00    0.4223855    0.2329092  40.25  0.002404616    1.665    0.399
        34 -10.7209      4.7438    124.8393   9.4664389005e+01   4.8081084145e+01    0.2216818    0.1176424  59.64  0.001249772    2.107    0.525
        35  -9.4324    208.9765    123.3005   4.2827905279e+01   1.3118766020e+01    0.2125895    0.1991196  39.18  0.000745949    1.078    0.073
        36 -11.3028      9.6718    121.6638   9.3058362832e+01   4.8454528147e+01    0.2234351    0.1387806  39.54  0.001396719    1.855    0.461
        37 -11.5548    189.3551    115.8471   4.4881796556e+01   1.9080417233e+01    0.8873672    0.4997658 -14.75  0.002892042    3.332    0.700
        38 -11.0683    213.0273    112.5514   3.9428684317e+01   1.4123447565e+01    0.5773544    0.3080395 -38.40   0.00238096    1.813    0.449
        39  -9.8203    224.5356    112.0188   3.7241838542e+01   1.1594334323e+01    0.3424733    0.1392761 -36.40  0.001180374    2.335    0.572
        40 -11.4425    222.7417    107.1507   3.6363405260e+01   1.2839704246e+01    0.5561019     0.313686  41.98  0.002188776    1.934    0.483
        41 -10.2119    148.5424    110.9969   5.2840395322e+01   2.9723019238e+01    0.3730378    0.2246362 -49.51  0.001380607    1.742    0.426
        42 -10.0957    154.4913    120.5196   5.3853816410e+01   2.6352448564e+01     0.156848        0.154  50.65 6.400318e-05    1.002    0.002
        43  -9.3307    155.6637    108.6895   5.0509043625e+01   2.8541121025e+01    0.1637907    0.1266746  10.82 0.0005216849    1.683    0.406
        44 -10.6117     16.7155    103.9013   8.8795526448e+01   5.1959921738e+01     0.263851    0.2199593  58.30  0.001833018    1.382    0.277
        45 -10.0771     30.6828    102.1493   8.4386155633e+01   5.1236414017e+01    0.2361136    0.1426818 -29.87  0.001241202    2.118    0.528
        46  -9.7082    208.9871     94.3060   3.5546926451e+01   1.8305222616e+01    0.2105888    0.2045772  62.71 0.0005937253    1.049    0.047
        47  -9.3138    164.7685    134.5789   5.4891326740e+01   2.1078161370e+01    0.2206878    0.1473383  57.08 0.0009417513    1.611    0.379
        48  -9.8189    178.6019     92.7034   4.1010715909e+01   2.6092431205e+01    0.2921188    0.2036646 -47.58  0.001287847    1.486    0.327
        49 -10.6350     12.9560     89.9571   8.7740849121e+01   5.5337241841e+01     0.188736    0.1511548 -65.70  0.001080977    1.034    0.032
        50 -11.4109      2.5312     86.2728   9.0405866289e+01   5.6762032687e+01    0.7480778    0.1741551 -68.26   0.00299247    3.161    0.684
        51 -12.4179      4.6997     75.8932   8.8012170516e+01   5.8894228475e+01     0.626274    0.4012907  82.60  0.003760118    1.969    0.492
        52 -13.1172     14.8756     73.3192   8.4063687111e+01   5.8844061031e+01    0.8412381    0.5858325  40.59  0.005420257    1.818    0.450
        53 -10.4481    192.7706     86.9585   3.6602471560e+01   2.3592586077e+01    0.4987048    0.2237626  60.50  0.001748415    2.477    0.596
        54 -12.7044     42.7390     81.0550   7.6216798729e+01   5.4820525865e+01    0.9614326    0.6421881 -14.10  0.005199282    1.925    0.481
        55 -10.0130    215.0714     79.5255   3.0684716261e+01   1.9338796745e+01    0.3612809    0.1889248 -47.12  0.001463197    1.950    0.487
        56  -9.5038    145.6754     80.6960   4.5023004047e+01   3.6494514007e+01    0.1612149    0.1230232  15.44 0.0003448493    1.641    0.391
        57 -10.0709    221.3523     78.2921   2.9364651771e+01   1.8020225346e+01    0.3386815     0.207342 -76.22  0.001327737    2.542    0.607
        58 -10.1451    169.6938     76.4651   3.8299086729e+01   3.1295662901e+01    0.3069596    0.3023811  74.92   0.00123501    1.013    0.013
        59  -9.3661    100.5255     83.5141   5.8194667908e+01   4.5789771861e+01    0.1477481    0.1395319 -20.61 0.0002665101    1.024    0.024
        60 -11.0005     18.0606    127.2921   9.1560577095e+01   4.6551612082e+01    0.2222661    0.1322247 -88.54  0.001095615    1.577    0.366
        61  -9.5545    218.5187     71.5084   2.8070968129e+01   1.9796553581e+01    0.1473095    0.1389367 -64.85 0.0004735194    1.010    0.010
        62 -10.5342     75.4261     69.1158   6.1803834652e+01   5.3110054504e+01    0.4237666    0.2992694   3.56  0.002118003    1.790    0.441
        63  -9.8234     83.8649     68.8963   5.8944610428e+01   5.1773556326e+01    0.2323171    0.1868049 -12.34  0.001250162    1.315    0.239
        64 -11.5450    214.6309     66.7591   2.7441560792e+01   2.1502321217e+01    0.3632849    0.2580011 -22.54  0.001727702    1.593    0.372
        65 -10.9595     25.4988     64.9539   7.8393962479e+01   5.9849024416e+01    0.3698175    0.1980657 -59.84  0.002014711    1.612    0.380
        66  -9.6434    179.2571     66.0398   3.3342303612e+01   3.0623021688e+01    0.2209311    0.2144627 -58.18  0.001184918    1.046    0.044
        67 -10.7618    233.3509     64.2810   2.4110604437e+01   1.7358394095e+01    0.3402138    0.2188888  46.66   0.00162776    1.759    0.431
        68  -9.2965    132.4670     63.5082   4.2979155314e+01   4.2784568949e+01    0.1521014    0.1455123  22.59 0.0002960106    1.010    0.010
        69 -10.8906    209.5269     59.6247   2.6352299279e+01   2.3880196414e+01    0.5091394    0.2091969 -43.66      0.00189    2.389    0.581
        70 -10.3163    218.7711     61.3987   2.5433648964e+01   2.1308382715e+01    0.2060901    0.1302787  52.20 0.0009471774    1.636    0.389
        71  -9.2962    199.9989     63.9774   2.9045788081e+01   2.5619682038e+01    0.1841414    0.1744911 -56.03 0.0008660718    1.048    0.046
        72  -9.5816     76.4075     59.2197   5.8286570388e+01   5.4889257321e+01    0.1942483     0.125044 -49.97 0.0009552807    1.639    0.390
        73 -10.2306    227.3573     57.2388   2.3175731221e+01   1.9839567273e+01    0.3089566    0.1361319  37.99 0.0009573961    4.350    0.770
        74  -9.8294    195.5057     56.5121   2.7738878345e+01   2.7928917388e+01    0.1497503    0.1423115  89.98  9.12665e-05    1.003    0.003
        75  -9.5075    138.0225     56.2289   3.9225507506e+01   4.2681056637e+01    0.2100665    0.1217137  52.50 0.0008805006    1.658    0.397
        76 -10.6850    198.8100     52.2111   2.6018873271e+01   2.7722017685e+01    0.3968722    0.2277647 -28.65  0.001707314    1.882    0.469
        77  -9.8948    164.7404     53.6665   3.2511230272e+01   3.6351642493e+01    0.2773225    0.1975217 -14.38  0.001213166    1.704    0.413
        78 -10.0674    220.3356     53.5769   2.3207519313e+01   2.2089635324e+01    0.2724793    0.1403278  70.62  0.001127629    2.098    0.523
        79 -10.1883     34.9301     52.8555   7.1501051514e+01   6.1478482280e+01    0.2025058    0.1683249  16.85  0.001352982    1.356    0.263
        80 -11.5995    215.2189     51.1246   2.3287672835e+01   2.3715774506e+01    0.3930489    0.3045216  45.00  0.001920526    1.435    0.303
        81 -10.8308     85.0333     47.8491   5.1404555444e+01   5.5455306317e+01    0.6094052    0.3971537  50.44  0.003035512    1.792    0.442
        82 -11.5940     81.4933     39.5604   4.9495031853e+01   5.7450460728e+01    0.6681023    0.3458956 -42.07  0.003077781    2.029    0.507
        83 -11.5269      3.4401     41.2302   8.0986992797e+01   6.6066429378e+01    0.3940719    0.3425921 -69.58   0.00303141    1.364    0.267
        84 -11.0697      5.8906     35.0605   7.8202359592e+01   6.7107091823e+01    0.2560633    0.1801527  17.44  0.001807974    1.694    0.410
        85 -11.0287      3.7868    230.1770   1.0218323367e+02   2.6476332485e+01    0.2490431    0.1062175  47.55  0.001619086    1.878    0.467
        86 -11.8672     40.0946     29.0934   6.1120619609e+01   6.5244238201e+01    0.4969149    0.2535982 -37.11  0.002398948    1.675    0.403
        87  -9.6377    111.0263    228.9983   8.3108899924e+01   1.2704806224e+01    0.1578961    0.1239936  56.05 0.0008616802    1.018    0.018
        88 -11.3511    190.9963     37.2195   2.3059981661e+01   3.1851158073e+01    0.4171759    0.2113433 -57.57  0.001602183    2.520    0.603
        89  -9.7174     66.6562     36.3043   5.3458778392e+01   6.0458063274e+01    0.1173739    0.1072231 -83.76 0.0007040843    1.686    0.407
        90 -11.3434    182.0070     40.5019   2.5419650574e+01   3.3756498652e+01    0.3976288    0.3008022  63.14  0.002005505    1.239    0.193
        91 -10.2838    197.9951     33.9918   2.1144483567e+01   3.0459217085e+01    0.2449541    0.1613047 -67.08  0.001139615    1.707    0.414
        92 -10.6673     86.1064     31.8482   4.4963415367e+01   5.7764743464e+01    0.1950569    0.1887427   3.11 0.0009664355    1.220    0.181
        93 -11.4842    158.7676    225.3282   7.3360760574e+01   5.1670778113e+00    0.2547885    0.2082895  30.80  0.001091195    1.181    0.153
        94  -9.6026    229.2371     29.9696   1.6229333368e+01   2.3139275519e+01    0.1774173    0.1087923 -35.29 0.0007674611    1.613    0.380
        95 -10.1091     90.2642     28.2873   4.2224594760e+01   5.7457697325e+01    0.2581523    0.2226922 -16.26  0.001528573    1.153    0.132
        96 -11.2974     75.9180     25.7390   4.5886569924e+01   6.0490587110e+01    0.4251967    0.2712088  -4.89  0.002189287    1.762    0.432
        97 -10.0883    144.3125     26.8790   2.8025415022e+01   4.5277275144e+01    0.2316916     0.178601 -50.90  0.001192687    1.485    0.327
        98 -12.0142    178.3309     23.8821   2.1144474804e+01   3.6829260445e+01    0.4791391    0.3993435  58.05  0.002649768    1.131    0.116
        99 -11.3795    248.6274    224.4875   5.6500823245e+01  -9.9129019389e+00    0.4327018    0.2982072 -24.13   0.00279389    1.499    0.333
       100 -10.3265     11.8790     24.1825   7.1911838738e+01   6.8691331046e+01    0.1620447    0.1390109 -37.97  0.001234001    1.261    0.207
       101  -9.6611    224.8288     22.8447   1.4977001761e+01   2.5094281384e+01    0.2000203    0.1434863 -68.19  0.001080131    1.333    0.250
       102 -10.3199    187.3589     19.6099   1.8628231237e+01   3.4967565103e+01    0.2776052    0.2382673  56.96  0.001220951    1.154    0.133
       103  -9.9098     31.7654    227.4077   9.7438537349e+01   2.4030984353e+01    0.1323363    0.0956546  40.51 0.0006099971    1.617    0.382
       104 -12.7149    203.9192    220.8421   6.3959001663e+01  -2.1434643692e+00    0.7303124    0.5140371  11.30  0.004199561    1.528    0.345
       105 -12.2254    209.8760    215.8636   6.1989464964e+01  -2.4786995160e+00    0.8067363    0.7239078  71.83  0.005144515    1.606    0.377
       106 -13.8233    183.9117    216.2092   6.7029737763e+01   2.0920827120e+00    0.9463364     0.731621  -9.08  0.005539943    1.557    0.358
       107 -11.1769     50.4017    218.0388   9.3463949473e+01   2.3565355706e+01    0.2875006    0.1990497  43.36  0.001911293    1.481    0.325
       108 -10.4942    128.4367     18.3167   2.8366268709e+01   5.0189212175e+01    0.3111147    0.2748295  59.96  0.001296249    1.118    0.105
       109 -10.5730     67.2688    216.7887   9.0201853713e+01   2.1580168430e+01    0.2698703    0.1379469  68.30  0.001402546    1.999    0.500
       110 -10.0316    141.3162    206.5316   7.4070578276e+01   1.1534299744e+01    0.2448597    0.1743304 -49.73  0.001347131    1.631    0.387
       111  -9.8935     94.2735     16.9872   3.6433923749e+01   5.8057677538e+01    0.2263503    0.1912762  78.50  0.001001144    1.634    0.388
       112 -11.6901    243.7628    201.9556   5.3269276933e+01  -6.3327075655e+00    0.5568988    0.4382844 -34.34  0.003494754    1.492    0.330
       113 -10.4238     76.7356    220.5799   8.8764228496e+01   1.9518310355e+01    0.2311256    0.1070805  37.78  0.001150735    2.172    0.540
       114 -10.0877    129.8770     12.8547   2.6101914659e+01   5.0408675338e+01    0.2323943    0.1679178  35.87  0.001120351    1.327    0.246
       115 -10.1306     80.3408    199.6828   8.5831217623e+01   2.3117944095e+01    0.1378391   0.08196417  68.57 0.0007048857    1.710    0.415
       116 -10.2618    202.6996    197.0023   5.9980827092e+01   1.6291853784e+00    0.2479705    0.2016219   6.00  0.001156056    1.240    0.194
       117 -11.2242    204.3347    192.5059   5.8815276446e+01   2.0337618047e+00    0.4977462    0.2134168  35.18  0.002015598    2.314    0.568
       118 -11.8273    195.7404    185.8040   5.9233166336e+01   4.7834275860e+00    0.4975108    0.4413272  61.25  0.002875571    1.330    0.248
       119 -10.3294     37.0512    185.5034   9.3274618061e+01   3.1770207607e+01    0.1682346    0.1087929  41.62  0.001037971    1.608    0.378
       120 -10.0458     26.4938    180.5259   9.4990543320e+01   3.3964738168e+01    0.1186457   0.09058256  82.60 6.668249e-05    1.011    0.011
       121  -9.9426    172.1699    163.4003   5.9659851470e+01   1.3660019835e+01    0.2996137    0.1804537  56.67  0.001089416    1.876    0.467
       122 -10.7627    173.9831    159.9387   5.8534984589e+01   1.3948847253e+01    0.4147299    0.3036107  88.35  0.001812828    2.152    0.535
       123 -10.2263     14.6900    160.1749   9.5725068711e+01   3.9483276712e+01    0.1941842    0.1163757  85.95  0.001087569    1.422    0.297
       124 -11.4586    218.5442    156.5550   4.8679209343e+01   5.1825740704e+00     0.594358    0.3687486  35.79  0.002798145    1.608    0.378
       125  -9.8908     20.3231    155.9394   9.4097883267e+01   3.9913090934e+01    0.1762094    0.1270564 -81.17  0.001163219    1.110    0.099
       126 -10.8233    163.5745    151.1167   5.8940772970e+01   1.7947550028e+01    0.5102891    0.3219262 -31.95  0.002188038    1.869    0.465
       127 -10.8067    248.0564    144.8990   4.0829549574e+01   1.2551891515e+00    0.3256076    0.2039546  58.34  0.001555874    2.098    0.523
