#   1 NUMBER                 Running object number                                     
#   2 MAG_AUTO               Kron-like elliptical aperture magnitude                    [mag]
#   3 X_IMAGE                Object position along x                                    [pixel]
#   4 Y_IMAGE                Object position along y                                    [pixel]
#   5 X_WORLD                Barycenter position along world x axis                     [deg]
#   6 Y_WORLD                Barycenter position along world y axis                     [deg]
#   7 A_WORLD                Profile RMS along major axis (world units)                 [deg]
#   8 B_WORLD                Profile RMS along minor axis (world units)                 [deg]
#   9 THETA_WORLD            Position angle (CCW/world-x)                               [deg]
#  10 FWHM_WORLD             FWHM assuming a gaussian core                              [deg]
#  11 ELONGATION             A_IMAGE/B_IMAGE                                           
#  12 ELLIPTICITY            1 - B_IMAGE/A_IMAGE                                       
         1 -13.4266    214.5178      3.6567   5.7155781377e+01   3.1604339623e+01     1.191713    0.6308845  65.75  0.002899334    1.687    0.407
         2 -14.2247    190.8383     28.5768   6.5463667755e+01   3.4347749465e+01      1.61268     1.361302 -28.01   0.00540321    1.432    0.302
         3 -13.9880    198.9984     22.9786   6.3095720437e+01   3.3070910110e+01     1.334311    0.8462679 -78.77  0.005013813    1.607    0.378
         4 -12.4073      2.0590     22.5004   1.1683854196e+02   6.9660449882e+01    0.7916497    0.1778887 -49.89  0.003360151    3.933    0.746
         5 -12.7475      2.8622      5.7390   1.0969794279e+02   7.1957346922e+01    0.8050009    0.3971594 -32.42  0.005396898    1.602    0.376
         6 -12.8731    204.9813     14.6209   6.0491260260e+01   3.2618955658e+01    0.6155158    0.5041671  63.54  0.001267501    1.282    0.220
         7 -13.0306     88.8636    163.9599   1.2280843463e+02   3.0162022692e+01     2.743042    0.8971146  52.33  0.001251187    4.628    0.784
         8 -11.6728    162.8064    248.7842   1.1998922052e+02  -8.4999364548e-01    0.4884108    0.2219721  33.64    0.0021809    2.186    0.543
         9 -12.7998    140.7804    248.2863   1.2426080230e+02   2.9689485107e+00    0.6360258    0.5144396  72.36  0.003929839    1.334    0.251
        10 -12.6201     30.6203    205.7060   1.4157101096e+02   2.8243383102e+01     1.088035    0.3367793  53.69  0.002563212    3.275    0.695
        11 -14.8481     34.8711    246.5631   1.4404249904e+02   1.9185430561e+01     2.797047     1.261087  45.42   0.01586134    1.916    0.478
        12 -13.8669     55.7561    226.7248   1.3856643049e+02   2.0560584605e+01     1.147365    0.7853955 -66.55  0.007011795    1.495    0.331
        13 -13.7065     46.0627    220.5039   1.3986921386e+02   2.3154489530e+01     0.757504    0.6555761  -7.16  0.001478185    2.004    0.501
        14 -15.9503     54.5956    208.5276   1.3696423453e+02   2.4676496221e+01     8.864322     2.600116  51.30   0.03210248    3.444    0.710
        15 -13.6630     67.6887    144.2750   1.2478948944e+02   3.8186890508e+01     1.432278    0.7902291 -87.80  0.003043134    2.918    0.657
        16 -10.1135    137.7704    171.5650   1.1221450483e+02   1.9370916894e+01    0.2182323    0.1407271  53.54 0.0004571305    1.605    0.377
        17 -13.3808     70.9843    168.3604   1.2801514887e+02   3.1839021647e+01     0.592896    0.3097297 -46.88  0.001669175    2.151    0.535
        18 -10.2732    230.2403    165.9730   9.1400025761e+01   1.8194020152e+00    0.1941633    0.1108141 -40.22 0.0007294746    1.624    0.384
        19 -12.5057     43.1682    148.2912   1.3197154546e+02   4.0287851143e+01    0.5017606    0.3729517 -89.43  0.001500691    1.311    0.237
        20 -10.0088    133.9004    145.6272   1.0762927275e+02   2.6195556206e+01    0.6410184   0.09618244 -50.89  0.001235828    7.662    0.869
        21 -10.1874    101.9984    147.6890   1.1628456534e+02   3.1880543375e+01    0.3206343    0.2726617 -35.15 0.0007732154    1.316    0.240
        22  -9.6659    104.3301    143.9859   1.1488901133e+02   3.2355883861e+01    0.3373069    0.2278646 -26.95  0.000923489    2.099    0.523
        23 -12.2011     90.6829    146.9074   1.1912103730e+02   3.4022453160e+01    0.2888412    0.2582346 -42.40 0.0005268223    1.195    0.163
        24 -12.0055     54.2539    145.4460   1.2859939118e+02   3.9671533470e+01    0.6033571     0.233758 -45.92  0.002273991    2.919    0.657
        25 -14.5186     10.5906    206.5925   1.4553706107e+02   3.0154207117e+01     1.055999    0.8133178 -71.70  0.004481588    1.343    0.255
        26 -11.4238     83.2819    171.5415   1.2549422484e+02   2.9213251163e+01    0.2836435    0.2403057 -64.91 0.0003297679    1.136    0.120
        27 -13.2058     44.3844    127.8434   1.2826850794e+02   4.5060520806e+01     0.912076    0.3272722 -64.02  0.003589809    2.496    0.599
        28 -10.7530     99.5146    131.1394   1.1335354032e+02   3.6303942620e+01    0.3195114    0.2370718 -30.62 0.0008599917    1.590    0.371
        29  -9.0292    105.9806    131.0126   1.1155555162e+02   3.5155788377e+01    0.1925898    0.1748769 -58.21  0.001013899    1.050    0.048
        30  -9.0240    117.5010    127.5118   1.0762108030e+02   3.3760993512e+01     0.154045     0.148167 -35.92 1.831451e-05    1.077    0.072
        31 -16.0122      3.6380    236.4072   1.4868888148e+02   2.4662379812e+01     11.67245    0.1248495 -72.17   0.02055489    8.144    0.877
        32 -10.8883    193.2142    195.1075   1.0460834691e+02   3.3503694498e+00    0.9531296     0.465311 -64.02  0.002515478    6.499    0.846
        33  -9.6628    108.3452    122.0551   1.0877215162e+02   3.6808070736e+01    0.2200395    0.2050141  17.41 0.0003229923    1.174    0.148
        34  -9.2872    135.0000    120.0225   1.0119236457e+02   3.1832382440e+01    0.2639965   0.08816652 -46.09 0.0008029929    2.946    0.661
        35  -9.8862    111.8791    134.4611   1.1076335262e+02   3.3226677199e+01    0.2905702    0.2318144 -22.91  0.001061463    1.544    0.352
        36 -11.0508    167.9722    112.7126   9.1472117135e+01   2.5939263012e+01    0.3923249    0.3037472 -77.72 0.0009164068    1.554    0.357
        37 -11.9255     41.0372    108.4015   1.2552057398e+02   4.9953928475e+01    0.4874336     0.203683 -62.18  0.002106398    2.166    0.538
        38  -9.8048    205.1589    110.2586   8.3396174743e+01   1.7776643133e+01    0.3730812    0.2278766  34.97  0.001538932    2.211    0.548
        39  -9.5387     33.4907    100.5076   1.2624690033e+02   5.2477541443e+01    0.1283484    0.1077291 -53.97 0.0008104257    1.027    0.026
        40 -11.8568      1.8717     78.3836   1.3218358553e+02   5.9525222944e+01    0.8022143   0.09220105 -63.22  0.002392701    5.854    0.829
        41  -9.3069    156.4743     77.4739   8.4527018319e+01   3.5480733329e+01    0.1490285    0.1434217  75.72 9.198777e-05    1.001    0.001
        42 -11.8694     70.1087    189.0599   1.3123798436e+02   2.7006402586e+01    0.4295793    0.2736332 -42.91  0.002094723    2.071    0.517
        43 -11.6328    171.1529    247.3257   1.1813357406e+02  -2.0200148609e+00    0.3094432    0.2624626  17.96  0.001528077    1.198    0.166
        44 -11.7847     74.7612    182.6907   1.2926714780e+02   2.7833894016e+01    0.3207287    0.2452657 -48.20  0.001048884    1.494    0.331
        45 -10.6602    124.2460    173.8461   1.1589608241e+02   2.1484653576e+01    0.3436049    0.1739926  42.29  0.001375839    1.954    0.488
        46 -13.3277     58.5385    131.9158   1.2501051924e+02   4.2405970616e+01     3.764785     1.156942 -69.83  0.007695623    9.418    0.894
