#   1 NUMBER                 Running object number                                     
#   2 MAG_AUTO               Kron-like elliptical aperture magnitude                    [mag]
#   3 X_IMAGE                Object position along x                                    [pixel]
#   4 Y_IMAGE                Object position along y                                    [pixel]
#   5 X_WORLD                Barycenter position along world x axis                     [deg]
#   6 Y_WORLD                Barycenter position along world y axis                     [deg]
#   7 A_WORLD                Profile RMS along major axis (world units)                 [deg]
#   8 B_WORLD                Profile RMS along minor axis (world units)                 [deg]
#   9 THETA_WORLD            Position angle (CCW/world-x)                               [deg]
#  10 FWHM_WORLD             FWHM assuming a gaussian core                              [deg]
#  11 ELONGATION             A_IMAGE/B_IMAGE                                           
#  12 ELLIPTICITY            1 - B_IMAGE/A_IMAGE                                       
         1 -11.7638     16.4833     67.7863   8.3821163123e+01   6.2765580975e+01    0.6744328    0.1424888 -53.10   0.00227459    3.595    0.722
         2 -10.5806    100.2318     57.3098   4.6767145886e+01   5.0578432620e+01    0.5252306    0.1905343 -37.19  0.001974966    3.067    0.674
         3 -10.8835     40.9010     13.9676   5.0263115202e+01   6.8393778769e+01    0.1968524    0.1449149  36.97 0.0003011011    1.098    0.090
         4 -10.3064      4.0373    249.7166   1.1000274424e+02   1.7927288116e+01    0.1747696    0.1375744  41.59 0.0007188103    1.109    0.098
         5 -10.3229     92.3452    230.6583   8.6730610486e+01   1.2660959317e+01     0.147094   0.09888326  55.13 0.0007046825    1.787    0.440
         6 -10.8203     84.8263    226.8331   8.8174577966e+01   1.4465248272e+01    0.2022071    0.1583914  51.71  0.001087759    1.366    0.268
         7  -9.8576     72.3295    227.6750   9.1512659897e+01   1.5821709306e+01       0.1479   0.09663891  54.90 0.0005696113    1.701    0.412
         8 -10.6806    162.0468    225.0135   6.9286068381e+01   4.8180672368e+00    0.3255348    0.1982902   0.52  0.001609685    1.847    0.458
         9 -10.0576     99.1957    225.0430   8.4251144139e+01   1.3019570978e+01    0.2141253    0.1809334 -12.13 0.0006616843    1.201    0.167
        10 -10.4446     59.8147    222.9795   9.4269681595e+01   1.8406312166e+01    0.2368478    0.1464795  66.20  0.001086733    1.994    0.498
        11 -10.9161    126.2316    220.4668   7.6831281100e+01   1.0412786832e+01    0.2386018    0.2296353  81.20 0.0007163531    1.309    0.236
        12 -10.0015     74.4176    219.1954   8.9960944367e+01   1.7536295146e+01    0.1886562    0.1382562 -86.10 0.0009434333    1.661    0.398
        13  -9.6279     23.1659    216.3640   1.0334451517e+02   2.3877539480e+01     0.199749    0.1039551  36.29 0.0007732879    1.715    0.417
        14 -10.4415    143.9665    216.7705   7.2024320660e+01   8.7895025098e+00     0.232975    0.1872805 -63.83  0.001277998    1.603    0.376
        15 -10.3201    116.8065    210.0203   7.7555855929e+01   1.3985125672e+01    0.2294275    0.1718543  76.39  0.001085767    2.034    0.508
        16 -11.1147    185.9141    204.1537   6.0835047480e+01   5.7056955621e+00    0.1882105    0.1791223 -28.59  0.001234949    1.296    0.228
        17 -12.0985    165.4316    202.4167   6.4777532449e+01   8.7605836578e+00    0.4390651     0.348932 -88.38  0.002265009    2.192    0.544
        18 -13.2367    177.5275    197.3540   6.1336819981e+01   8.0998082268e+00    0.5518966    0.3832063 -10.06  0.002960551    1.537    0.349
        19 -12.6965    163.7421    194.5397   6.3752134375e+01   1.0579078501e+01    0.5154884    0.3787144  74.41  0.002387537    2.636    0.621
        20 -10.9414    149.1250    197.9668   6.7650488288e+01   1.1976012149e+01    0.3452088    0.2351236 -76.52  0.001499534    2.627    0.619
        21 -11.4084    125.1686    197.2291   7.3332159991e+01   1.5659168099e+01    0.3578117    0.2650653  34.46  0.001811853    1.349    0.259
        22  -9.7133     43.5140    193.0079   9.5477019989e+01   2.7729324613e+01    0.2128187    0.1148118  75.00 0.0008104122    2.571    0.611
        23 -11.2642    172.6928    190.7096   6.1148366505e+01   1.0072346582e+01    0.2586915    0.1679998 -66.09  0.001173679    2.437    0.590
        24 -10.8950    139.0387    189.2908   6.8491428505e+01   1.5348028939e+01    0.3184253    0.2074542 -59.60  0.001470352    1.793    0.442
        25 -10.3415    129.6255    188.2993   7.0638398511e+01   1.7010824821e+01    0.2256453    0.1815776  71.88  0.001109259    1.736    0.424
        26 -10.8560    165.5408    186.3840   6.1878247497e+01   1.1978457205e+01    0.2785957    0.2263866 -87.72  0.001115656    1.934    0.483
        27 -10.7677    156.2853    186.4400   6.3931925708e+01   1.3346603005e+01     0.235364    0.1791782 -68.48  0.001183084    1.775    0.437
        28 -11.4603     95.2421    184.0090   7.9094574128e+01   2.3280062300e+01     0.696227    0.4591456 -87.30  0.002850901    2.321    0.569
        29 -10.5114    109.6953    185.7378   7.5389889456e+01   2.0673314661e+01    0.2907642    0.1938283 -85.41  0.001174462    2.448    0.591
        30 -11.1467    120.3378    184.0880   7.2261966347e+01   1.9420393957e+01    0.4465856    0.1503521 -58.48  0.001346459    3.739    0.733
        31 -10.5487    112.8213    194.1736   7.6005990748e+01   1.8197927580e+01    0.2729803     0.166994 -34.36 0.0003772388    1.788    0.441
        32 -11.2135    174.6604    183.6590   5.9447507995e+01   1.1190803568e+01    0.2522133    0.2039814  88.94  0.001204653    2.017    0.504
        33 -11.4972      1.9339    182.3814   1.0664779714e+02   3.4260777598e+01    0.3663868    0.2002521 -83.95  0.001723536    1.741    0.425
        34 -10.0249     74.3785    183.2316   8.5021731704e+01   2.6466381469e+01    0.2147238    0.1468457 -77.39 0.0009524684    1.721    0.419
        35  -9.5974     44.3155    181.6906   9.3881722426e+01   3.0620907651e+01    0.1557743    0.1050498  58.69 0.0003438589    1.633    0.388
        36 -12.1294    147.9569    179.0466   6.4461660757e+01   1.6211831666e+01    0.4841293    0.2358509 -53.48   0.00193552    2.170    0.539
        37 -10.9510    137.9947    178.7782   6.6798205709e+01   1.7850524872e+01    0.2628968     0.195671 -65.02 0.0009929747    1.632    0.387
        38 -10.8516    192.7770    178.1887   5.4869348156e+01   9.6575856748e+00    0.2028957    0.1491178 -89.03 0.0009559817    2.828    0.646
        39 -11.1723     77.6736    175.4714   8.2795315983e+01   2.8016419200e+01     0.480818    0.2849126  64.41  0.001813697    2.538    0.606
        40 -10.1066     73.5986    175.2542   8.3992146849e+01   2.8646448549e+01    0.2669247    0.1963572 -56.74  0.001264394    1.357    0.263
        41  -9.7141     59.6720    176.3505   8.8431138472e+01   3.0212270980e+01    0.1634848    0.1103977  61.69 0.0002702461    1.764    0.433
        42 -10.8108    183.7311    175.1820   5.6040696948e+01   1.1533245317e+01    0.2120321    0.1650331 -56.51 0.0008833612    1.454    0.312
        43 -10.3626    159.5952    174.8286   6.1002403490e+01   1.5281879878e+01    0.2011768     0.131419 -56.24 0.0009482387    1.697    0.411
        44  -9.8618    105.3522    174.6706   7.4595552905e+01   2.4039071315e+01     0.159686    0.1188852  65.55  0.000704722    1.772    0.436
        45 -11.4758    177.3672    170.4059   5.6395951603e+01   1.3428242944e+01    0.4026358    0.2263549 -54.02    0.0018514    1.931    0.482
        46 -11.1936    134.9693    170.8356   6.6016537657e+01   2.0135628631e+01    0.3475388    0.2177051 -69.34  0.001413377    2.349    0.574
        47 -11.3681    150.1447    169.3444   6.2075176312e+01   1.7971711090e+01    0.3218995    0.2385929 -62.50  0.001490129    1.594    0.373
        48 -11.7670    122.0157    167.7955   6.8745307550e+01   2.2989085586e+01    0.6769471    0.3987645 -60.84  0.002813984    1.962    0.490
        49 -10.0969    206.4936    169.5021   5.0811281386e+01   9.3547435239e+00    0.1287788    0.1077314 -35.17 -3.395407e-05    1.048    0.046
        50 -10.7465    168.1977    168.5016   5.7916356402e+01   1.5240566133e+01    0.3366437    0.2214124 -60.23  0.001602718    1.850    0.459
        51 -12.5097    139.4818    163.9276   6.3531276390e+01   2.0944410656e+01    0.6081544    0.3684146 -67.07  0.002449109    2.392    0.582
        52 -10.5621    192.4143    165.2521   5.2514699905e+01   1.2161460455e+01    0.1929162    0.1146906 -51.51 0.0008787097    1.680    0.405
        53 -10.5768     79.7654    163.5234   8.0087920085e+01   3.0821313877e+01    0.5110608     0.293103  83.56  0.001615484    3.726    0.732
        54 -10.8910     15.2530    164.4896   1.0102092690e+02   3.8046386999e+01    0.4065435     0.215234  11.01  0.001296254    2.146    0.534
        55 -11.4570     22.6836    161.7056   9.8301519584e+01   3.8181802222e+01     0.605891    0.3300472 -32.05  0.002023154    2.221    0.550
        56 -10.6175    214.0030    163.9886   4.8549339128e+01   9.3119743223e+00    0.1614639    0.1256046 -36.82  0.001014107    1.051    0.049
        57 -11.1773    147.8284    163.6027   6.1471167826e+01   1.9609044137e+01    0.2884263    0.2273025  83.84  0.001391414    1.876    0.467
        58 -11.7178    144.3495    159.6404   6.1487601073e+01   2.1071758212e+01    0.2765876    0.2517793 -58.90 0.0003623634    1.180    0.152
        59 -11.2319    205.8858    161.7901   4.9487051803e+01   1.0841888216e+01    0.2455857    0.1587376 -62.74  0.001245033    2.113    0.527
        60 -11.4802    177.6020    159.8705   5.4298339699e+01   1.5492105702e+01    0.3881054    0.2329351 -58.35  0.001792316    1.989    0.497
        61 -10.8723    178.4817    155.4489   5.3248468847e+01   1.6229790524e+01    0.2502416    0.1876612 -34.33 0.0006090425    1.229    0.186
        62 -10.6566     92.6702    159.2154   7.5342055855e+01   2.9931051446e+01    0.4507732    0.2940037 -67.88   0.00181157    1.791    0.442
        63  -9.8872     94.8214    154.3703   7.3736776219e+01   3.0808102660e+01    0.2145906    0.1475051  17.28 0.0003681093    1.631    0.387
        64 -10.1781      8.3258    159.1367   1.0272196572e+02   4.0012814386e+01    0.3193842    0.1438926  72.34  0.001151705    2.994    0.666
        65 -10.2013    128.1757    158.2956   6.5221677736e+01   2.4168179157e+01    0.2894023    0.2062527 -80.98  0.001235897    2.126    0.530
        66 -12.0663    197.2527    157.0809   5.0084806250e+01   1.2978055357e+01    0.3198511    0.1938087 -45.84  0.001303873    1.449    0.310
        67 -11.7168    188.8719    156.8801   5.1555914639e+01   1.4299981426e+01    0.3669665     0.216533 -47.88  0.001588763    1.548    0.354
        68 -13.1275    189.4318    148.6412   4.9835253940e+01   1.5788598602e+01    0.6028547    0.2980646 -51.06  0.002567768    1.979    0.495
        69 -11.8419    167.9333    156.6623   5.5621906568e+01   1.7716083426e+01    0.4506382    0.2727272 -55.33  0.002092303    1.778    0.438
        70 -10.4663    105.6712    157.5238   7.1192271813e+01   2.8213280420e+01    0.3135052    0.2440248  88.92  0.001306951    1.729    0.422
        71 -11.2703    157.7477    155.3386   5.7534927127e+01   1.9708738768e+01    0.3837474    0.1920374 -52.94   0.00157516    2.078    0.519
        72 -10.7596    119.6247    155.1312   6.6821595287e+01   2.6397333311e+01    0.3715872    0.2427743 -75.14  0.001483411    2.316    0.568
        73 -10.3706     49.3481    154.1551   8.8330219939e+01   3.7460277777e+01    0.4171199    0.2448477  75.60  0.001565735    2.580    0.612
        74 -11.5962    204.8883    154.1168   4.8211815893e+01   1.2384967483e+01    0.1985966    0.1654381 -55.52 0.0008145261    1.262    0.208
        75 -11.5960    133.2223    152.0073   6.2621267406e+01   2.4728233753e+01     0.493315    0.2945184 -68.43  0.001899723    2.525    0.604
        76 -10.5374     81.2892    153.4082   7.7714057793e+01   3.3220244923e+01    0.3854699    0.2485339 -80.85  0.001498875    2.175    0.540
        77 -10.8503     67.8527    152.9594   8.1954370143e+01   3.5339334129e+01    0.4421737    0.3140793  79.74  0.001643419    1.891    0.471
        78 -10.8480    182.2968    150.4083   5.1507251714e+01   1.6601743573e+01    0.2442112    0.1583236 -59.91  0.001189611    1.812    0.448
        79 -10.7476    162.6005    149.9033   5.5361607726e+01   2.0015467099e+01    0.2873993    0.1737919 -57.97  0.001220952    1.883    0.469
        80  -9.8025     98.3954    150.1982   7.1813637596e+01   3.1258346762e+01    0.2243073    0.1513845 -67.37  0.000951464    1.746    0.427
        81 -10.8089    142.5148    148.4961   5.9596241779e+01   2.3857140606e+01    0.2708995    0.1403554 -58.71  0.001031792    2.357    0.576
        82 -11.9474    200.0228    147.6037   4.7781087341e+01   1.4315039805e+01    0.3104771    0.1606819 -44.43  0.001519991    1.652    0.395
        83 -10.7249     39.2251    146.8617   9.0644027965e+01   4.0607269531e+01    0.4550701    0.2508846  78.33  0.001640065    2.860    0.650
        84 -12.9484    149.2401    143.0172   5.6849608003e+01   2.3836964541e+01    0.8906766    0.4164838 -55.01   0.00338576    2.406    0.584
        85 -11.2269    175.8805    145.5764   5.1761673494e+01   1.8620278986e+01    0.2909327    0.1756316 -59.06  0.001334437    1.947    0.486
        86 -11.5238    107.1711    143.8152   6.7880303704e+01   3.1305682274e+01    0.7492911    0.4577198 -72.28  0.002853477    2.435    0.589
        87 -10.9751     55.4400    144.2017   8.4531585857e+01   3.9375132904e+01    0.5837204    0.3301305 -83.31  0.002155485    2.569    0.611
        88 -10.3314     12.7547    144.7945   9.9674830717e+01   4.3587588208e+01    0.3060422    0.1571921  76.98  0.001184205    2.572    0.611
        89 -11.6422    165.7779    143.1475   5.3284722662e+01   2.0853148708e+01    0.3493731    0.2184142 -56.42   0.00163388    1.717    0.418
        90 -10.4065    138.4861    143.9980   5.9598333841e+01   2.5581164208e+01    0.2360175    0.1426441 -48.41  0.001027718    1.597    0.374
        91 -11.7822    124.6635    141.0677   6.2452624591e+01   2.8782052419e+01    0.7619933    0.3456484 -60.72   0.00250766    3.123    0.680
        92 -10.8176     87.9037    142.7026   7.3450046231e+01   3.4902663323e+01    0.4993965    0.2225232 -59.84  0.001740528    2.481    0.597
        93 -11.6263    182.1801    140.6458   4.9554387394e+01   1.8518973940e+01    0.3655918    0.2090435 -51.01  0.001700953    1.672    0.402
        94 -11.1714      2.2482    140.0338   1.0283976119e+02   4.5567724366e+01    0.4688413    0.1240272 -81.15  0.001309809    4.631    0.784
        95 -11.5270    172.3629    137.3783   5.0747199939e+01   2.0854428071e+01    0.3996346     0.242576 -62.04  0.001795642    2.073    0.518
        96 -11.1399     22.7017    135.6409   9.4874688387e+01   4.5279407287e+01    0.7969739    0.3380748 -79.23  0.002807786    2.849    0.649
        97 -10.5940    138.5150    137.4898   5.8158704186e+01   2.7012281331e+01    0.2695753     0.140471 -58.13  0.001030723    2.290    0.563
        98 -12.1423    193.4987    134.5287   4.6305753546e+01   1.7778097340e+01    0.2423708    0.1804292 -48.80  0.000781825    1.196    0.164
        99 -11.3819    162.7202    135.2865   5.2244132993e+01   2.3001255066e+01    0.3862006    0.1819734 -50.65  0.001575716    2.094    0.522
       100 -11.1911     38.7257    134.6342   8.8792099194e+01   4.3970412385e+01    0.4235285    0.1826295 -68.76  0.001529772    2.453    0.592
       101 -11.8635    179.6065    132.8333   4.8417088092e+01   2.0468834079e+01    0.3894055    0.2299402 -51.07  0.001795389    1.607    0.378
       102 -11.6776    132.0692    129.6031   5.7955549571e+01   2.9964910790e+01    0.7418507    0.3298242 -53.45  0.002713731    2.430    0.588
       103 -10.7234    112.8052    132.2738   6.3683070907e+01   3.3022676199e+01    0.4024284    0.2827332 -72.39  0.001742056    1.878    0.468
       104 -11.7787    143.2387    129.9832   5.5349761981e+01   2.7742331472e+01    0.6044114    0.2442796 -48.44  0.002218225    2.407    0.585
       105 -11.7847     83.2532    128.7105   7.1859591636e+01   3.9194145047e+01     1.024447    0.3178623 -56.07  0.003038119    3.421    0.708
       106 -12.5191    192.5477    129.2454   4.5398823585e+01   1.8912101559e+01    0.3331757     0.234706 -44.70  0.001326581    1.236    0.191
       107 -12.3086    168.7383    128.1301   4.9484869531e+01   2.3332662027e+01    0.4838106    0.2493608 -46.15  0.002154299    1.783    0.439
       108 -12.0030    153.0736    127.3379   5.2541804467e+01   2.6420711981e+01     0.667511    0.2553873 -48.52  0.002432717    2.540    0.606
       109 -11.8182     12.5548    125.4582   9.7228996364e+01   4.8822524945e+01    0.9228871     0.251076 -68.20  0.003021493    3.176    0.685
       110 -10.7358    186.5939    128.7814   4.6321886419e+01   2.0018969003e+01    0.1962055    0.1140489 -51.89 0.0009509943    1.637    0.389
       111 -12.2631     99.3256    124.7518   6.5848738017e+01   3.7298745346e+01    0.9783807    0.4295533 -53.08  0.003522814    2.350    0.574
       112 -10.6558     72.8077    127.8786   7.5183032824e+01   4.1120801640e+01    0.4572312    0.2160432 -62.95  0.001625309    2.480    0.597
       113 -11.8272    117.6640    123.5746   6.0291234218e+01   3.4087343758e+01      0.64034    0.3702888 -60.13  0.002580215    2.067    0.516
       114 -11.5486     58.8154    121.8936   7.8829575985e+01   4.4766912282e+01    0.8921928    0.4332063 -74.79  0.002810514    3.610    0.723
       115 -11.9731    180.2240    123.2757   4.6294450003e+01   2.2176896770e+01    0.4587817    0.2052657 -40.86  0.001956253    2.084    0.520
       116 -12.0277     43.1333    120.3840   8.4430677574e+01   4.7236228587e+01     1.044142    0.4889998 -80.82  0.003121736    4.206    0.762
       117 -11.7233    188.8835    122.6715   4.4666397917e+01   2.0750066273e+01    0.4021479    0.1708487 -49.18  0.001705988    2.189    0.543
       118 -11.6463     27.8291    120.9448   9.0527819136e+01   4.8749402258e+01    0.7813164    0.3827498  73.57   0.00230048    4.771    0.790
       119 -11.4060    195.1185    121.4386   4.3388769748e+01   1.9891015026e+01    0.2830188    0.1502536 -55.45  0.001308572    1.967    0.492
       120 -12.2895    158.6814    119.9052   4.9684621093e+01   2.6846348386e+01    0.5054139    0.2513949 -46.15  0.002163909    1.888    0.470
       121 -11.5672    172.5065    120.1473   4.7032076969e+01   2.4181651189e+01    0.3730759    0.1776288 -48.18  0.001610574    1.957    0.489
       122 -12.2771    141.7068    116.7681   5.2642619295e+01   3.0805188610e+01    0.8601438     0.307234 -49.16  0.002955819    2.840    0.648
       123 -10.8657     70.8824    119.0340   7.3819042255e+01   4.3644100521e+01    0.3787825    0.2294234 -68.37  0.001524884    2.081    0.520
       124 -11.7528    130.6880    116.9343   5.5307915969e+01   3.2968301588e+01    0.5943262    0.3006479 -51.73  0.002381936    2.046    0.511
       125 -11.4423      2.5669    114.5353   9.9645924771e+01   5.2344049409e+01    0.8137764     0.295609 -82.84  0.002720692    3.541    0.718
       126 -11.9671    186.1769    114.6237   4.3437534298e+01   2.2695934394e+01    0.4066298    0.1729591 -42.11  0.001746571    2.125    0.529
       127 -11.8535    108.9057    111.6756   5.9795646553e+01   3.8447259067e+01    0.9304951    0.3439425 -52.00  0.003067734    2.961    0.662
       128 -11.9026    218.5612    114.8684   3.8657056594e+01   1.7140836232e+01    0.2484856     0.140544  35.04  0.001249671    2.802    0.643
       129 -10.5146    203.3199    115.6552   4.0955355752e+01   1.9510072587e+01    0.1318805   0.09030878 -69.00 0.0007049528    1.727    0.421
       130 -12.0865    193.0140    113.6860   4.2133057443e+01   2.1639351194e+01    0.3200359    0.1748344 -44.26   0.00160077    1.602    0.376
       131 -11.5158     78.5336    110.7307   6.9110381003e+01   4.4367716362e+01    0.7665626    0.3782222 -66.55  0.002525519    3.284    0.696
       132 -11.7214    122.2735    110.4160   5.5837609216e+01   3.6038642827e+01    0.5467834    0.2409866 -44.11  0.002059658    2.278    0.561
       133 -11.8189     92.4711    109.2891   6.4129624396e+01   4.2164091894e+01    0.9980739    0.3309588 -50.97  0.003169567    3.132    0.681
       134 -10.5216    209.3207    112.3464   3.9433143479e+01   1.9067306035e+01    0.1212491   0.09494987 -14.36 0.0007049433    1.733    0.423
       135 -11.7441    174.8209    110.0825   4.4410474339e+01   2.5628545477e+01    0.4032168    0.2074909 -45.96  0.001857277    1.772    0.436
       136 -11.8566    159.4233    110.5016   4.7394405761e+01   2.8531668420e+01    0.4606384    0.2221868 -43.55   0.00196381    1.963    0.491
       137 -11.3841     66.2119    108.6941   7.2984708212e+01   4.6920041093e+01    0.6217828    0.2823283 -60.69  0.002219874    2.622    0.619
       138 -11.5752     14.1906    108.9490   9.3978446766e+01   5.3051208208e+01    0.5601708    0.3013739 -70.54  0.002489004    1.852    0.460
       139 -12.2131    217.3397    108.6804   3.7634322576e+01   1.8356606132e+01    0.2800407    0.1689764 -78.46  0.001367434    2.687    0.628
       140 -12.3946    189.3949    106.5683   4.1218621997e+01   2.3541136661e+01    0.4597046    0.1659813 -47.44  0.001849958    2.505    0.601
       141 -11.7325    183.0751    107.8371   4.2508536619e+01   2.4482650617e+01    0.3109857    0.1750768 -40.55   0.00152586    1.661    0.398
       142 -10.9034    133.0986    108.3839   5.2632944685e+01   3.4254673158e+01    0.3063169    0.2151245 -54.05  0.001473873    1.457    0.314
       143 -10.2802     59.4616    108.0246   7.5344842712e+01   4.8134278650e+01    0.2383262    0.1469697 -54.26   0.00104189    1.626    0.385
       144 -12.0378    139.7314    102.5095   4.9646255352e+01   3.4058340646e+01    0.5543441    0.2753159 -44.05  0.002320645    1.979    0.495
       145 -12.3202     44.9238     99.5305   7.9011272569e+01   5.2256548873e+01     1.164027    0.6236904 -75.00  0.004238144    3.050    0.672
       146 -12.9601     21.9866     99.0554   8.8735367147e+01   5.4928271014e+01     1.172268    0.5829168 -81.32  0.004326737    3.110    0.678
       147 -11.8480    166.9395    102.0257   4.4025526660e+01   2.8626415973e+01    0.4803669     0.182846 -40.32  0.001849243    2.587    0.613
       148 -12.2139    150.2576    100.6369   4.6929549461e+01   3.2246932266e+01    0.7886593    0.2300793 -45.36    0.0026012    3.305    0.697
       149 -10.8412    222.3240    103.6666   3.6045988882e+01   1.8360452862e+01    0.1248009   0.07997863 -66.31  0.000705076    1.708    0.415
       150 -12.8347    201.5739    101.4696   3.8349539508e+01   2.2221983569e+01    0.4756018    0.1681456 -37.14  0.001864585    2.999    0.667
       151 -11.9100    128.6301    100.2084   5.1656751774e+01   3.6816580323e+01    0.5200945    0.2847691 -41.58  0.002237083    1.862    0.463
       152 -11.8427    176.0215    100.3839   4.2063523779e+01   2.7143128996e+01     0.318553    0.1987511 -38.68  0.001621412    1.579    0.367
       153 -11.7681    159.8956     99.4793   4.4748999505e+01   3.0497989411e+01    0.4544604    0.1855842 -46.03  0.001813408    2.323    0.569
       154 -12.4618    108.5790     96.1204   5.5809403371e+01   4.1806713642e+01    0.8901477    0.5095673 -53.87  0.003771762    1.940    0.484
       155 -11.8412     81.8267     97.7616   6.4549755300e+01   4.6733157590e+01    0.6205779    0.2435414 -49.69  0.002195304    2.631    0.620
       156 -10.7983    217.3153     98.3482   3.5649981435e+01   2.0027781033e+01    0.1137659   0.09230734 -14.82  0.000704746    1.724    0.420
       157 -12.3640     63.4695     92.7102   6.9784669878e+01   5.1083269561e+01    0.9829956    0.3851461 -51.93  0.003549353    2.633    0.620
       158 -11.6323    234.4039     94.7823   3.3001765736e+01   1.7828040340e+01     0.166732   0.09338435 -36.93 0.0009580713    1.699    0.411
       159 -11.3712     95.1065     94.3638   5.9294491318e+01   4.4902518318e+01    0.6893586    0.3112034 -39.41  0.002567534    2.473    0.596
       160 -11.8339      6.8093    100.4140   9.5687688726e+01   5.5740395227e+01    0.6360027    0.1596966 -63.28  0.002178474    3.077    0.675
       161 -11.2109    183.5150     95.0309   3.9673604568e+01   2.6627084916e+01    0.2063223    0.1172252 -43.69  0.001035525    1.599    0.375
       162 -11.7161    164.8686     92.9228   4.2306934458e+01   3.0663923495e+01    0.3366999    0.1717844 -40.10  0.001522962    1.929    0.482
       163 -12.0115    176.9616     92.1643   4.0083559362e+01   2.8382936238e+01    0.3270976    0.1634538 -46.27  0.001533517    1.826    0.452
       164 -11.6175    138.8741     90.0820   4.6722972970e+01   3.6582962101e+01    0.4836369    0.2538059 -42.28  0.002122069    1.911    0.477
       165 -10.3114     57.9944     91.9838   7.1717378970e+01   5.2130124044e+01    0.2193143    0.2062573  14.80            0    1.049    0.046
       166 -12.3058      5.1654     88.6923   9.4319114078e+01   5.8759919251e+01    0.7275432    0.2383548 -55.50  0.002880226    2.372    0.578
       167 -11.4319     34.7261     86.6958   8.0132679424e+01   5.6578818492e+01    0.8519433    0.2806654 -55.63  0.003032902    2.875    0.652
       168 -11.5187    209.4090     88.2154   3.4650471469e+01   2.2978681680e+01    0.1845831   0.09356109 -50.86 0.0009572156    1.704    0.413
       169 -11.2114    151.0690     87.6693   4.3619631496e+01   3.4435212909e+01    0.2760399    0.2026599 -37.87  0.001365116    1.422    0.297
       170 -11.9285     85.9128     85.6133   5.9727740356e+01   4.8516964806e+01    0.4451823    0.3303364 -74.89  0.002079468    1.900    0.474
       171 -11.3462    188.4964     92.4958   3.8370892560e+01   2.6105739232e+01    0.2308007    0.1180552 -32.62  0.001038027    2.336    0.572
       172 -12.1116    240.0028     84.1276   3.0509895821e+01   1.8534833910e+01    0.2090604    0.1361819 -27.64   0.00076487    2.033    0.508
       173 -11.6454    179.3833     84.2770   3.7951601180e+01   2.9218618775e+01    0.2463446    0.1491873 -51.74  0.001289091    1.524    0.344
       174 -12.4795     48.2124     81.1636   7.2658119773e+01   5.6022233687e+01    0.8120307    0.3649093 -49.12  0.003306599    2.210    0.547
       175 -11.7871    104.7302     80.7215   5.2584900221e+01   4.5612781457e+01    0.7447414    0.3285566 -44.27  0.002929376    2.372    0.578
       176 -11.7681    141.0782     81.4948   4.4066455811e+01   3.7637538598e+01    0.4108854    0.2054237 -41.90  0.001800152    2.010    0.502
       177 -11.5305    158.6688     81.1325   4.0624403852e+01   3.3957409052e+01    0.3221616    0.1647832 -35.02   0.00142795    2.186    0.543
       178 -11.0888    150.1890     78.6863   4.1570194010e+01   3.6159613914e+01    0.3060537    0.1822066 -41.09  0.001494125    1.688    0.408
       179 -10.7451     74.3128     78.0430   6.1430315552e+01   5.2260588311e+01    0.5086454    0.1923934 -47.41  0.001839627    2.827    0.646
       180 -12.5542    125.0361     87.4350   4.9189167273e+01   4.0026333323e+01    0.8136597    0.4011187 -33.85  0.003211328    2.491    0.599
       181 -11.8558    215.8395     78.8374   3.2053832832e+01   2.3282286618e+01    0.2334692      0.13793 -24.44  0.001161817    2.734    0.634
       182 -11.3036    174.8565     76.9078   3.6987855474e+01   3.1306675388e+01    0.1904825    0.1801374 -34.57  0.001237687    1.259    0.206
       183 -11.1214    194.3970     75.8087   3.4017765795e+01   2.7641147399e+01    0.1753397    0.1112982 -33.25 0.0009564948    1.771    0.435
       184 -11.1819    189.4380     75.2755   3.4555122719e+01   2.8673450814e+01    0.2375637    0.1152994 -36.98  0.001137104    2.106    0.525
       185 -10.8519    167.6093     76.2072   3.7954607105e+01   3.2899549474e+01    0.1829721    0.1225301 -32.53 0.0009560615    1.706    0.414
       186 -12.0021     62.6841     69.7642   6.3158537086e+01   5.6001590435e+01     1.023019    0.2234409 -41.75  0.002776981    5.330    0.812
       187 -12.6608     25.4371     75.7169   8.1520773507e+01   6.0127822679e+01     1.127573    0.3554493 -43.66   0.00402778    3.009    0.668
       188 -11.0289    127.6846     74.3505   4.5044835583e+01   4.1771842684e+01    0.2850486     0.222003 -57.79  0.001440435    1.343    0.255
       189 -11.0079    128.3423     70.3365   4.3804421848e+01   4.2295235694e+01    0.3279207    0.2592725   4.44  0.001701936    1.831    0.454
       190 -10.9590      9.9239     74.5923   8.8962890849e+01   6.1785153907e+01    0.2309579    0.1602719 -41.52  0.001262393    1.267    0.211
       191 -10.7008    170.6249     82.1856   3.8852268467e+01   3.1315125306e+01    0.1863798     0.120915 -33.45 0.0009538607    1.724    0.420
       192 -11.5281     81.8883     71.5523   5.6785701482e+01   5.2029047210e+01     0.416127    0.2896037 -54.55  0.002043369    1.691    0.409
       193 -11.5942     82.2405     66.5028   5.5059297861e+01   5.2867105020e+01     0.469653    0.3013274  -8.41  0.001953411    2.656    0.623
       194 -11.1671    119.3028     78.6542   4.8187990711e+01   4.2857055323e+01    0.3859834    0.1983477 -40.94    0.0016605    2.036    0.509
       195 -10.3736    115.6315     70.9562   4.6915248450e+01   4.4990403203e+01    0.3156969    0.1348648 -40.03  0.001251846    2.482    0.597
       196 -11.3144     94.9147     68.3406   5.1699842329e+01   4.9917068550e+01      0.73926    0.2105194 -42.40  0.002404831    3.743    0.733
       197 -10.6108     42.5461     71.2210   7.2133814117e+01   5.8955764301e+01    0.3389042    0.1294792 -48.77   0.00130577    2.606    0.616
       198 -11.1705    238.9994     71.2470   2.8316715561e+01   2.0516599022e+01    0.1282137   0.08921185  74.33 0.0008935625    1.617    0.382
       199 -11.1563    105.8120     69.7929   4.9087708136e+01   4.7330449680e+01    0.4482539    0.2024378 -40.21  0.001827937    2.370    0.578
       200 -11.5937     51.1968     66.7885   6.6888463719e+01   5.8526808127e+01    0.7916396    0.2481908 -51.36  0.002627686    3.803    0.737
       201 -10.6121      5.6348     70.0306   9.0083563511e+01   6.3125876338e+01    0.3023362    0.1169367 -62.79  0.001253288    2.496    0.599
       202 -10.3804    170.5026     69.9822   3.6061633813e+01   3.3274294020e+01    0.1672175    0.1172741 -11.35 0.0008100111    2.510    0.602
       203 -10.7381    162.9972     69.9959   3.7230316898e+01   3.4837068947e+01    0.1979561    0.1656799  17.14   0.00113827    1.739    0.425
       204  -9.9068     17.0099    244.4936   1.0675822777e+02   1.7915472145e+01    0.1887547    0.1098142  28.34 0.0007891516    1.548    0.354
       205 -11.7623    203.8489     65.6618   3.0791459747e+01   2.7360329912e+01    0.2081655    0.1526539 -40.14  0.001330991    1.389    0.280
       206 -11.3628    138.5952     64.4612   4.0123766659e+01   4.0965701057e+01    0.3685214    0.1290087 -38.40  0.001397489    2.972    0.664
       207 -10.9903    110.2724     60.6653   4.5219485617e+01   4.7845170608e+01    0.4737284    0.2542913 -21.65  0.001857208    3.142    0.682
       208  -9.9151    147.6469    239.3143   7.4662239990e+01   3.9048474312e+00     0.125901   0.09948462  50.05 0.0007045822    1.734    0.423
       209 -10.5314     24.9068     56.7272   7.6016275472e+01   6.4188370734e+01    0.3269431    0.1521989 -41.85  0.001483027    2.076    0.518
       210 -11.6539      7.3289     56.1902   8.5477937826e+01   6.6014650938e+01    0.3695963    0.1728249 -62.52  0.001686666    2.389    0.581
       211 -11.0654      8.3941     50.4042   8.3095047026e+01   6.7111637012e+01    0.4057589    0.1370973 -40.69  0.001657255    2.700    0.630
       212 -11.3286     37.4843     61.2991   7.1259766120e+01   6.1668901637e+01    0.5712473     0.247478 -38.32   0.00235325    2.472    0.595
       213 -11.9785     45.1769     49.7884   6.3560865586e+01   6.2613209025e+01    0.4936148    0.2442741 -33.97 0.0006521234    2.278    0.561
       214 -10.4005     62.8379     48.8202   5.5836085631e+01   5.9640691927e+01    0.3379377    0.1821604 -27.27  0.001513188    2.351    0.575
       215 -10.5468     53.4189     48.8634   5.9617022430e+01   6.1365987814e+01    0.4225248    0.1315456 -39.15    0.0015119    3.593    0.722
       216 -10.7856     30.7540     50.5282   7.0809492564e+01   6.4632561680e+01    0.3294641    0.1854075 -56.76  0.001554921    2.358    0.576
       217 -10.7554    147.0201     65.7498   3.8893608665e+01   3.8918796194e+01    0.3211743    0.1737658 -27.99  0.001412886    2.511    0.602
       218 -10.5509     92.3785     49.5881   4.6428826727e+01   5.3451470872e+01    0.3371575    0.1914038 -56.93  0.001483695    2.509    0.601
       219 -10.8451     82.7277     42.6055   4.6844181446e+01   5.6520986642e+01     0.544302    0.2749454 -17.77  0.002092498    3.622    0.724
       220 -10.3904    113.4495     42.5526   3.9025138163e+01   4.9731253110e+01    0.3773737    0.2431871   1.34  0.001693598    2.928    0.658
       221 -10.7549    121.7426     63.3489   4.3312316143e+01   4.4877856445e+01    0.4191221    0.1954544 -30.70   0.00167841    2.796    0.642
       222 -10.7214     16.8557     42.0609   7.5243758079e+01   6.7881966226e+01    0.4927918    0.1072012 -44.83   0.00170232    4.097    0.756
       223 -10.4785    122.8957     41.9497   3.6926347270e+01   4.7672923444e+01    0.2923454    0.1843338   0.66  0.001259852    3.281    0.695
       224 -11.7791      4.9414     38.9713   8.1323606172e+01   6.9613452080e+01    0.5988213     0.172644 -56.45   0.00229786    3.748    0.733
       225 -10.4437     36.8934     38.7242   6.3143735387e+01   6.5756635477e+01      0.37786    0.1359922 -34.58  0.001458649    3.381    0.704
       226 -11.3016     73.2888     55.9106   5.4555211857e+01   5.6465496974e+01    0.7164103    0.2398644 -37.51   0.00255583    3.440    0.709
       227 -10.2705     69.3216     37.3333   4.9203692592e+01   6.0039755210e+01    0.1376529   0.09381364  22.03 0.0003500079    1.702    0.413
       228 -10.3067     95.5044     34.9947   4.0744287667e+01   5.4719394580e+01    0.1750273     0.113155   7.91  0.000810658    2.593    0.614
       229 -10.8460     27.6364     29.2011   6.3858465249e+01   6.8621666798e+01    0.4578201    0.1666252 -27.86  0.001517391    5.080    0.803
