#   1 NUMBER                 Running object number                                     
#   2 MAG_AUTO               Kron-like elliptical aperture magnitude                    [mag]
#   3 X_IMAGE                Object position along x                                    [pixel]
#   4 Y_IMAGE                Object position along y                                    [pixel]
#   5 X_WORLD                Barycenter position along world x axis                     [deg]
#   6 Y_WORLD                Barycenter position along world y axis                     [deg]
#   7 A_WORLD                Profile RMS along major axis (world units)                 [deg]
#   8 B_WORLD                Profile RMS along minor axis (world units)                 [deg]
#   9 THETA_WORLD            Position angle (CCW/world-x)                               [deg]
#  10 FWHM_WORLD             FWHM assuming a gaussian core                              [deg]
#  11 ELONGATION             A_IMAGE/B_IMAGE                                           
#  12 ELLIPTICITY            1 - B_IMAGE/A_IMAGE                                       
         1 -13.8773    214.2011     27.7059   3.5202993928e+02   2.9934580110e+01    0.8975076    0.7496844 -38.60  0.004064143    1.256    0.204
         2 -10.6881     92.0322      6.7026   3.5970124095e+02   6.0603064528e+01    0.1961217    0.1572183  71.78 0.0005192616    1.110    0.099
         3 -10.7682     68.3994      2.4004   3.1526724502e+00   6.6749522475e+01    0.2834338    0.0615291  53.05 0.0009611076    3.370    0.703
         4 -10.3390    192.9681    194.5931   3.0117958983e+01   7.7449394879e+00    0.4926454    0.2650192 -59.74  0.001926897    4.649    0.785
         5 -13.5764    246.8684    246.4561   2.9249919802e+01  -4.6818899336e+00     1.115612    0.5729514 -32.50  0.008033767    1.702    0.412
         6  -9.5028     70.2990    197.9978   5.8592926766e+01   2.3681883898e+01    0.1308768    0.1223035  86.73 0.0002431637    1.138    0.121
         7 -11.1116    154.9644    194.4755   3.7574118181e+01   1.2830497225e+01    0.3568189    0.1879357 -50.76  0.001182117    2.098    0.523
         8  -9.5775     56.2069    193.0040   6.1846639815e+01   2.6528703836e+01    0.1545418     0.108579 -73.73 0.0004306966    1.514    0.339
         9 -16.0261     66.8630    141.6831   5.1860065682e+01   3.8079014877e+01     4.163191     2.461706  81.21   0.01600998    2.482    0.597
        10 -10.3468     70.4553    233.8376   6.2026946735e+01   1.6119446675e+01    0.1329266    0.1125787 -31.33  0.000410096    1.425    0.298
        11  99.0000     50.4633    185.5113   6.2686409061e+01   2.8981332372e+01     0.412772    0.2343827  11.29  0.001826077    2.167    0.539
        12 -12.1246     60.9594    179.3446   5.9036871233e+01   2.9240570242e+01    0.5995567    0.3657793 -36.19  0.001470888    2.123    0.529
        13 -10.4765     51.4443    182.1798   6.2069082960e+01   2.9681950197e+01    0.3206155    0.1928398  50.89  0.001168014    1.595    0.373
        14 -10.5370     55.3110    181.4484   6.0888654545e+01   2.9409037766e+01    0.1934196    0.1809565  67.41 0.0005476376    1.047    0.044
        15 -10.5620     90.3953    183.6171   5.1424410375e+01   2.4320572727e+01    0.4601382    0.2683412  83.54  0.001177224    3.036    0.671
        16  -9.8578     74.2986    182.5046   5.5665520342e+01   2.6771874403e+01     0.223031    0.1858623 -84.71 0.0006509689    1.294    0.227
        17 -11.9634    173.7200    177.0244   3.0703520808e+01   1.3311599077e+01    0.6913974    0.4186914 -47.81  0.002855018    1.724    0.420
        18 -11.7829    179.4782    169.2477   2.8151706974e+01   1.3849462346e+01    0.5884952    0.4542979 -37.26  0.002787682    1.214    0.176
        19 -10.7050    160.9137    178.2912   3.3543146381e+01   1.4960895139e+01    0.2164148    0.1781731 -47.41 0.0006600589    1.316    0.240
        20 -11.9806     89.3093    217.2380   5.5920392648e+01   1.7193582825e+01    0.3812683    0.3525994  40.90 0.0007126196    1.090    0.082
        21 -12.2809     59.9691    227.5925   6.3985636794e+01   1.8521055854e+01    0.1986199    0.1763368 -13.35 0.0006791234    1.338    0.253
        22 -10.5639      1.0922    177.9154   7.6155004211e+01   3.5437853058e+01    0.1595062   0.06841611 -85.44            0    2.204    0.546
        23 -15.3798    121.6413    235.5675   5.0607937731e+01   9.8121775834e+00     5.706705     3.830174 -54.97   0.03455569    1.797    0.444
        24 -10.5984     60.2599    164.4532   5.7385765061e+01   3.3056463449e+01    0.3222194    0.2583039  72.83  0.001283738    1.289    0.224
        25 -10.8605    100.6690    162.3191   4.5268235663e+01   2.7766490734e+01     0.264772    0.2448759  57.04 0.0003056733    1.112    0.101
        26 -11.0095    126.0196    159.5022   3.8071346260e+01   2.4294743255e+01    0.2668077    0.2114196 -75.84  0.001025796    1.588    0.370
        27 -10.5214     60.9380    219.3518   6.3066353920e+01   2.0114982883e+01    0.1425288     0.122277  42.81 0.0002620621    1.021    0.021
        28  -9.6161      1.4618    155.9893   7.5013238662e+01   4.0998859468e+01    0.1944299    0.1196042 -78.63 0.0005100637    1.505    0.335
        29 -11.4017     67.9102    214.6504   6.0913069017e+01   2.0310490032e+01    0.1776166    0.1669437  56.62 0.0004202128    1.103    0.093
        30 -12.1426    133.8122    145.5333   3.3349480756e+01   2.6010694208e+01     1.354226    0.3300273 -54.00  0.003259292    6.046    0.835
        31 -11.5042    250.2207    204.6563   2.2604060346e+01  -3.9076459690e-02    0.3854752    0.1165606 -40.42  0.001875301    3.034    0.670
        32 -10.5836     89.2988    140.5752   4.4547742512e+01   3.4900414840e+01    0.3293251    0.1659466  45.43 0.0009691797    2.047    0.512
        33 -12.0666     98.4190    151.0567   4.3865421166e+01   3.0821654358e+01    0.6121888    0.4268086 -17.72  0.002694179    1.977    0.494
        34 -11.9469     91.4190    149.0956   4.5534576148e+01   3.2435670627e+01    0.5021043    0.3949288 -79.94  0.002121917    1.440    0.306
        35 -12.8346     96.2881    143.8129   4.3093049981e+01   3.2938925849e+01    0.7826684     0.607506  -8.48  0.003717767    1.635    0.389
        36 -10.3882    103.0909    152.6853   4.2850026564e+01   2.9663867699e+01    0.2490799    0.1807348  52.92  0.001182088    1.492    0.330
        37 -11.0110    111.7870    150.4511   4.0026578120e+01   2.8735647324e+01    0.3675764    0.2563145  71.20  0.001607644    2.050    0.512
        38  -9.1969    182.4536    202.4568   3.3360598650e+01   7.8169966683e+00    0.1230243    0.1009399  -6.55 0.0002583985    1.009    0.009
        39 -11.4672    105.7037    138.5087   3.9292191077e+01   3.2608132997e+01    0.3228151    0.2624456  54.53 0.0008711633    1.303    0.232
        40 -11.8486    107.4256    132.9871   3.7618669402e+01   3.3618372585e+01    0.5109233    0.3929357 -11.96  0.002377783    1.686    0.407
        41 -12.1304     96.4069    131.4140   4.0504687522e+01   3.5966326041e+01    0.4057536    0.3346542 -42.27  0.002027632    1.247    0.198
        42 -11.7113    133.7945    128.5645   2.9632884886e+01   2.9702387272e+01    0.6133832    0.4374676 -82.39  0.001882717    2.121    0.528
        43 -19.3040     22.8803    137.7199   6.6439512357e+01   4.4281247830e+01     19.82068     3.699345 -76.97   0.04781972    6.005    0.833
        44  -9.2534     51.4988    201.7414   6.3931966746e+01   2.5037336423e+01    0.2986795    0.1241364 -67.72  0.001280204    2.511    0.602
        45 -11.0367    115.0933    125.9799   3.3892983395e+01   3.3842655899e+01    0.3385605     0.272433 -22.38 0.0008360176    1.448    0.309
        46 -10.7894    135.0999    121.0504   2.7552790414e+01   3.1070801565e+01    0.4323602    0.1486798 -46.25  0.001420479    2.800    0.643
        47 -10.9266    161.3593    118.5624   2.1131138103e+01   2.6453785861e+01    0.5419469    0.3060635 -62.71  0.002143961    2.637    0.621
        48 -10.6821    102.9305    120.7398   3.6135791957e+01   3.7372567551e+01    0.3060063    0.2583612  15.49 0.0007810357    1.351    0.260
        49  -9.7659    110.3286    115.9765   3.2833202861e+01   3.7077595955e+01    0.2133102    0.1890471 -48.16 0.0003346013    1.113    0.102
        50 -11.1701    134.4440    105.5699   2.3857161377e+01   3.4480017905e+01    0.5553906    0.2431957 -50.03  0.002047164    2.323    0.570
        51 -12.0173    117.1503    109.2149   2.9226003462e+01   3.7258496911e+01     0.451962    0.3518554  64.06  0.002006183    1.450    0.310
        52 -12.1362    119.4285    104.4177   2.7357734668e+01   3.7852201349e+01    0.4480778    0.3231872 -51.35  0.001498798    1.365    0.267
        53  -8.7848    167.7281    104.3261   1.6489771875e+01   2.7896932197e+01    0.1414883    0.1043361 -66.56 0.0002791887    1.580    0.367
        54 -10.2097     86.6150    105.9705   3.7623750568e+01   4.4010094534e+01    0.2803827    0.2279284  40.51 0.0003302689    1.240    0.194
        55  -9.5053     51.0826    197.2513   6.3638405765e+01   2.6119486046e+01    0.1778424    0.1578319  81.66 0.0002852586    1.146    0.128
        56  -9.6716     90.0000    211.9987   5.5159398463e+01   1.8177986245e+01    0.2192778    0.1643383 -72.27 0.0004634121    1.580    0.367
        57 -12.6484     53.6823    230.7107   6.5719393525e+01   1.8569868203e+01     0.319446    0.2020045  80.27  0.001794477    1.857    0.462
        58  -8.9551    113.5614     87.4888   2.4225814410e+01   4.2738263222e+01    0.1533525    0.1441305 -77.76 0.0003342834    1.056    0.053
        59  -9.2717     96.8205     87.0843   2.9032152003e+01   4.6410905783e+01    0.2345793    0.2039263 -89.94 0.0005681064    1.269    0.212
        60  -8.5129    108.6993     86.2982   2.5234053273e+01   4.4047506199e+01    0.1534028    0.1198815 -87.31 0.0002500475    1.579    0.367
        61  -8.9824    150.9596     84.0088   1.4480304436e+01   3.5146827874e+01    0.1709213    0.1614878 -74.60 0.0003433949    1.040    0.039
        62 -12.0374     48.4396    228.9873   6.6839638873e+01   1.9471078507e+01    0.3011515    0.1685334 -59.08  0.001628599    2.063    0.515
        63  -9.4098    126.0043     81.7745   1.9321969348e+01   4.1134710939e+01    0.2022105    0.1905691  75.52 0.0002776221    1.061    0.057
        64 -13.0668    172.8475     67.2222   6.1870125270e+00   3.3191076172e+01    0.6462857    0.5146013 -41.93 0.0008291705    1.167    0.143
        65 -13.8663    189.5317     53.7079   5.1110505196e-01   3.1629496943e+01     1.100235    0.9182227  27.57  0.003985864    1.680    0.405
        66 -12.0662    195.3561     48.2745   3.5852307419e+02   3.1161215778e+01    0.3436443     0.301678 -26.85 0.0008511899    1.321    0.243
        67  -9.8424     68.1996     55.6463   2.8514988755e+01   5.8994088774e+01    0.3110231    0.1295003  51.74  0.001091485    2.739    0.635
        68  -9.3933     56.1083     53.1287   3.2726062373e+01   6.1829453010e+01    0.2067458    0.1870412   7.66 0.0003675831    1.142    0.124
        69 -10.6076     90.2020    222.4297   5.6273592660e+01   1.6047249227e+01    0.3547796    0.1910903  35.92  0.001593671    1.571    0.363
        70 -11.1329     61.0061     21.4764   1.5917246593e+01   6.6311552002e+01    0.2981561    0.2256762  53.50 0.0008043898    1.238    0.192
        71 -11.2439     62.8873    238.6501   6.4167673083e+01   1.6022845971e+01    0.1147913   0.08612244 -52.96 0.0003854301    1.610    0.379
