#   1 NUMBER                 Running object number                                     
#   2 MAG_AUTO               Kron-like elliptical aperture magnitude                    [mag]
#   3 X_IMAGE                Object position along x                                    [pixel]
#   4 Y_IMAGE                Object position along y                                    [pixel]
#   5 X_WORLD                Barycenter position along world x axis                     [deg]
#   6 Y_WORLD                Barycenter position along world y axis                     [deg]
#   7 A_WORLD                Profile RMS along major axis (world units)                 [deg]
#   8 B_WORLD                Profile RMS along minor axis (world units)                 [deg]
#   9 THETA_WORLD            Position angle (CCW/world-x)                               [deg]
#  10 FWHM_WORLD             FWHM assuming a gaussian core                              [deg]
#  11 ELONGATION             A_IMAGE/B_IMAGE                                           
#  12 ELLIPTICITY            1 - B_IMAGE/A_IMAGE                                       
         1 -14.5968    243.3260     71.9838   3.5934290171e+02   1.9008641229e+01     1.621521    0.8391711 -38.31  0.009539696    1.480    0.324
         2 -13.5566    243.6582     44.7943   3.5384506696e+02   2.2432855255e+01     1.035203    0.7622591 -63.48  0.007506568    1.195    0.163
         3 -13.0822    219.0900     48.9744   3.5661443236e+02   2.6288364600e+01    0.9573121     0.875719 -55.82  0.006967707    1.213    0.176
         4 -14.2422    194.8704     34.7591   3.5544531593e+02   3.2925851136e+01    0.8798751    0.5475568  86.84  0.005005744    1.644    0.392
         5 -14.5938    188.4368     22.7262   3.5301308703e+02   3.5737099309e+01    0.7281716    0.4267757 -49.82  0.004126956    1.408    0.290
         6 -12.9105    167.7061     15.6400   3.5291492074e+02   4.1163744771e+01    0.3411147    0.2809791  87.06  0.001233169    1.161    0.138
         7 -14.0281    160.5406     11.1092   3.5227721292e+02   4.3308081018e+01    0.6335524    0.4353353  58.08  0.003646526    1.619    0.383
         8 -12.6588    171.3003     34.1801   3.5765738446e+02   3.8162705616e+01    0.4593978     0.392035  82.94  0.002882848    1.179    0.151
         9 -13.6014    176.1615     16.0219   3.5228967377e+02   3.9195036454e+01    0.3818271    0.2516056 -62.48  0.001454209    1.296    0.229
        10 -14.1465    142.5867      4.1618   3.5184770744e+02   4.8280741157e+01    0.7304428    0.3664574  65.93  0.003631508    1.847    0.459
        11 -14.1077    153.6787      3.6850   3.5070317997e+02   4.5655906447e+01    0.7202475    0.3406655  83.31  0.002963328    1.949    0.487
        12 -11.9532      2.0508      4.3944   4.4298487370e+01   7.9074464892e+01    0.3890617     0.147399 -41.16  0.001783258    2.545    0.607
        13 -12.9588    162.3411      1.8840   3.4949771317e+02   4.3784846962e+01    0.3625301     0.237676  81.68  0.001379224    1.387    0.279
        14 -12.3095      7.8795      2.5830   3.6930086858e+01   7.8720030702e+01     0.296621    0.1408225  32.59  0.001514101    1.971    0.493
        15 -10.7500    212.2287    182.6004   2.4659567315e+01   7.0818915480e+00    0.1564409     0.101717  16.47 0.0009447794    1.652    0.395
        16 -12.2683    236.4239    178.3290   2.0226750250e+01   4.7996123732e+00    0.5069146    0.2485061 -39.97  0.002951247    1.765    0.433
        17 -12.6255    244.9003    175.1491   1.8502163353e+01   4.2769603155e+00    0.3721066    0.2602308 -40.27  0.002627073    1.420    0.296
        18 -11.4237    135.0988    177.4410   3.8950239385e+01   1.8990621094e+01     0.268383    0.1923583 -72.52  0.001324857    1.950    0.487
        19 -12.2819    194.9895    172.6316   2.5822720345e+01   1.0939963728e+01    0.4596532    0.3707721   3.80  0.002968513    1.214    0.176
        20 -13.4263    200.7833    151.0067   2.0777494418e+01   1.3700021012e+01    0.8370187    0.3998635  33.72   0.00397588    2.525    0.604
        21 -11.9345    215.9009    170.5324   2.1957193264e+01   8.4543492762e+00    0.7007356    0.4464388  60.38  0.003550895    3.306    0.697
        22 -13.9064    210.9050    162.0235   2.1208512610e+01   1.0449737305e+01     1.275413    0.7498847  31.85  0.007260516    1.923    0.480
        23 -11.3689    151.6797    169.6651   3.3807282094e+01   1.7955199043e+01    0.1429083    0.1014592 -11.04 0.0005802074    1.703    0.413
        24 -12.5581    169.3215    159.6720   2.8219608380e+01   1.7063498142e+01    0.5996184    0.2871387  46.54  0.002622487    2.446    0.591
        25 -11.9856     15.4745    161.1372   7.0787691302e+01   3.8832141699e+01    0.4270656    0.1634604  67.59  0.001527832    3.035    0.670
        26 -12.3132    188.9572    151.4687   2.2902871504e+01   1.5435966764e+01    0.2099358    0.1618997 -35.71  0.001245802    1.152    0.132
        27 -12.5793    161.9953    149.9240   2.7783197641e+01   2.0127859703e+01     0.522733    0.3473068 -70.31  0.002346691    2.423    0.587
        28 -12.4660    176.2784    150.6696   2.5085818766e+01   1.7607362100e+01    0.4360553    0.2468502  51.52  0.002052005    2.243    0.554
        29 -11.6285    205.0304    142.3136   1.8384928980e+01   1.4499200847e+01    0.3718694     0.247211 -54.39  0.002059223    1.732    0.423
        30 -12.1858    217.8917    141.8728   1.6328560760e+01   1.2646691741e+01    0.5140826    0.2796839  48.14  0.002790975    2.304    0.566
        31 -11.6848    210.8737    137.1813   1.6460082986e+01   1.4443652640e+01     0.353727    0.1588396 -41.45  0.001705564    1.888    0.470
        32 -12.8253    166.1970    140.2802   2.4930734129e+01   2.1267433937e+01    0.4777308    0.3124102 -13.20   0.00216153    2.228    0.551
        33 -10.4410    250.4580    141.4797   1.1897276231e+01   8.2896378039e+00    0.1139402   0.08533027 -30.17 0.0006298851    1.013    0.013
        34 -11.9187    173.8980    138.2778   2.2998753378e+01   2.0303881206e+01     0.448051     0.295892 -65.08   0.00211561    2.140    0.533
        35 -14.8615    177.5324    124.1265   1.9268637956e+01   2.2277563126e+01     1.742658      1.19263  78.02  0.008194305    2.396    0.583
        36 -12.2494    135.0342    114.4686   2.5898357852e+01   3.2424679330e+01     0.487285    0.2473368 -64.42  0.001606282    3.371    0.703
        37 -12.1702    219.4122    108.7900   9.4853603344e+00   1.7599326768e+01    0.5209884    0.1818879 -38.82  0.002265869    2.316    0.568
        38 -12.0609    223.6757    111.3432   9.4610370889e+00   1.6519232408e+01    0.3331337     0.276998  41.05  0.002259655    1.488    0.328
        39 -12.3845    223.1134    106.8486   8.6119269152e+00   1.7295576494e+01    0.4400157     0.310617 -72.96  0.002578941    1.916    0.478
        40 -14.0514    244.9609    116.6225   7.9360769491e+00   1.2544913094e+01      0.93254    0.6695819 -48.64  0.005803542    1.293    0.226
        41 -11.7492    211.6771    110.9063   1.0963966089e+01   1.8548628536e+01    0.3631121     0.232261  43.96  0.002057457    1.901    0.474
        42 -11.8977    239.0880    130.3025   1.1234739878e+01   1.1388851156e+01     0.502502    0.2864354 -15.22  0.002592344    2.499    0.600
        43 -12.1227    190.5228    107.4695   1.3341038986e+01   2.2846083131e+01    0.4578915    0.3870543  14.16  0.002725072    1.483    0.326
        44 -11.0990    203.3335    121.9607   1.4502262196e+01   1.8148581131e+01    0.1980643    0.1821575 -78.11  0.001136852    1.284    0.221
        45 -12.2831      2.4526    104.4573   7.0856718416e+01   5.5064974099e+01    0.2563008    0.2310784 -83.08  0.001507083    1.004    0.004
        46 -12.2396    236.5361    102.9766   6.2321799726e+00   1.5753121400e+01    0.3537206    0.2849064 -48.10  0.002058173    1.121    0.108
        47 -11.6825     19.4166    102.2313   6.3202516834e+01   5.4511910918e+01    0.2092986    0.1313087 -89.14 0.0008123042    1.660    0.397
        48 -12.7292     13.5015    100.9293   6.5623801899e+01   5.5331217326e+01    0.4262855    0.3084207 -61.14  0.002215106    1.282    0.220
        49 -12.9118     87.8971    117.2275   3.9817107073e+01   4.1018241945e+01    0.4991748    0.2165606 -67.26  0.001493354    3.613    0.723
        50 -11.7409    236.3904     95.0393   4.6598463566e+00   1.6920523875e+01    0.3570508     0.182715 -22.94  0.001710425    2.609    0.617
        51 -13.1485    150.5508     90.6429   1.6367488861e+01   3.3930360719e+01    0.5345039    0.1995375 -48.19  0.001886238    2.680    0.627
        52 -11.6360    198.9288     85.0478   7.0005998766e+00   2.4949257734e+01    0.4882893    0.3014016  -4.40  0.001905835    3.952    0.747
        53 -11.6048     31.5102     87.4990   5.4997738932e+01   5.7304328061e+01    0.1445549    0.1383503 -62.22 5.024876e-05    1.004    0.004
        54 -10.8955    183.5397    245.0595   3.9226234458e+01   1.3057137428e+00    0.1726584    0.1204831  14.47 0.0007164576    1.171    0.146
        55 -13.7536    159.3566    234.0863   4.2334408970e+01   5.5559222486e+00    0.4387982    0.3567624  62.95  0.002832104    2.045    0.511
        56 -11.5093    143.4925     81.0113   1.5193801868e+01   3.7279692027e+01    0.2308782    0.1369575 -43.84  0.001032212    1.601    0.375
        57 -11.8438    207.0446     73.3231   3.3028648052e+00   2.5190576551e+01    0.2457814    0.2154247 -47.28   0.00122832    1.098    0.089
        58 -12.0610    212.1841     76.1849   3.3553118261e+00   2.3806764775e+01    0.3633989    0.3221864  10.81  0.002397637    1.529    0.346
        59 -10.3149    104.5042    225.4798   5.3011563420e+01   1.3719037768e+01    0.1280228     0.108842  25.94 0.0002587414    1.005    0.005
        60 -12.7520    210.5858     43.8462   3.5619928638e+02   2.8582810348e+01    0.3007578    0.2632017  71.91   0.00117243    1.363    0.266
        61 -12.4127    214.6248     68.1021   1.2880022733e+00   2.4522875514e+01    0.5851505    0.2678849 -44.18   0.00294722    1.741    0.426
        62 -13.1740    221.0840     61.6031   3.5920763176e+02   2.4237213419e+01    0.7691174    0.6379235 -70.90  0.005324905    1.182    0.154
        63 -12.5749    151.3235     73.2682   1.1499756673e+01   3.6893027963e+01    0.4186707    0.1300701 -37.00  0.001373155    3.222    0.690
        64 -11.7777     58.5978     78.2166   4.0285179146e+01   5.5840951910e+01    0.2194203    0.1352596 -44.94  0.000757969    1.661    0.398
        65 -13.9146    194.9928     56.9269   8.3642558712e-01   2.9949241665e+01    0.8951128    0.4594501 -43.28  0.004530643    1.621    0.383
        66 -11.1697    231.8269     60.9375   3.5808533743e+02   2.2410035496e+01     0.253205    0.1306114 -35.06  0.001407683    1.636    0.389
        67 -11.7818    175.9378     46.4868   4.2341476398e-01   3.5487386714e+01    0.4462948    0.2250961 -51.51  0.002112827    1.810    0.447
        68 -11.4004     77.4976     47.5284   2.1725200823e+01   5.8605729315e+01    0.1441157    0.1377695  55.40 0.0002252029    1.007    0.007
        69 -11.8899      2.1946     45.4086   6.1675269900e+01   7.0393877997e+01     0.260373    0.0857996 -65.75  0.001025918    2.624    0.619
        70 -14.0997    190.9169     42.1266   3.5764124888e+02   3.2819953985e+01    0.7461355    0.3093221 -37.75  0.003460196    2.037    0.509
        71 -12.3665    201.6514    222.6049   3.2859337720e+01   2.4698191469e+00    0.2645763     0.190609 -30.97  0.001678018    1.335    0.251
        72 -13.0193    194.9904    219.9541   3.3628140425e+01   3.5805413770e+00    0.2820487    0.1613764 -45.45  0.001669044    1.993    0.498
        73 -12.2397    136.4825    216.1857   4.4641217981e+01   1.1343805643e+01    0.4619988    0.3005772 -60.60  0.002534487    2.005    0.501
        74 -11.9064    112.1624    214.6573   4.9926166237e+01   1.4807070607e+01    0.3423724    0.1749945 -79.96  0.001177371    5.124    0.805
        75 -10.4491     62.7254    217.3274   6.2204842964e+01   2.0427151547e+01    0.1346508   0.08456284  56.15  0.000312962    1.587    0.370
        76 -11.2925     54.6738     10.6622   1.2523563826e+01   6.9141941052e+01    0.1400106   0.09216862  28.19 0.0007051578    1.725    0.420
        77 -12.5248    232.5422    203.2159   2.4877174358e+01   1.8187127818e+00    0.4525503    0.2235418 -32.74   0.00276873    1.662    0.398
        78 -10.9100    149.9813    205.1776   4.0131036508e+01   1.1526651076e+01    0.1684425    0.1495589 -80.64  0.001052501    1.595    0.373
        79 -12.2187     82.1559    202.6662   5.5796614856e+01   2.1207443814e+01    0.2285373     0.186962  85.33  0.001065057    1.394    0.283
        80 -11.4061     94.4883    195.4882   5.1745796037e+01   2.1129180076e+01    0.1377457     0.124794  34.46 0.0005075498    1.012    0.012
        81 -11.5814    247.2025    188.1048   2.0333708031e+01   2.2871508052e+00     0.286633    0.1085543 -30.35  0.001495577    2.276    0.561
