#   1 NUMBER                 Running object number                                     
#   2 MAG_AUTO               Kron-like elliptical aperture magnitude                    [mag]
#   3 X_IMAGE                Object position along x                                    [pixel]
#   4 Y_IMAGE                Object position along y                                    [pixel]
#   5 X_WORLD                Barycenter position along world x axis                     [deg]
#   6 Y_WORLD                Barycenter position along world y axis                     [deg]
#   7 A_WORLD                Profile RMS along major axis (world units)                 [deg]
#   8 B_WORLD                Profile RMS along minor axis (world units)                 [deg]
#   9 THETA_WORLD            Position angle (CCW/world-x)                               [deg]
#  10 FWHM_WORLD             FWHM assuming a gaussian core                              [deg]
#  11 ELONGATION             A_IMAGE/B_IMAGE                                           
#  12 ELLIPTICITY            1 - B_IMAGE/A_IMAGE                                       
         1 -14.4324     68.8081    144.1437   7.3880351859e+01   3.7238249266e+01     3.152196     1.532599  76.47  0.009088891    4.396    0.773
         2 -14.8090     63.7647     58.6480   5.4263658772e+01   6.0156236675e+01     1.845406     1.074849  34.36  0.007659467    1.875    0.467
         3 -12.6111    248.6818     18.8368   1.0326166774e+01   2.4421950981e+01    0.7340173    0.2791702 -32.16  0.003992502    2.062    0.515
         4 -10.2976     60.5002     20.9980   3.7655621184e+01   6.7930423357e+01    0.2213186    0.1787587  56.01 0.0003791809    1.145    0.126
         5 -15.2878      7.3582     24.5117   7.7708781629e+01   7.6226748305e+01     10.79168     1.278772 -66.69   0.02484794    8.373    0.881
         6 -17.0053      7.0743    179.1960   9.6958999834e+01   3.4830456577e+01     5.389091     1.640753 -88.49   0.01966543    3.347    0.701
         7 -10.4511    128.1251    197.9377   6.5718663566e+01   1.6202616533e+01    0.2274069     0.194182 -59.73 0.0007511107    1.411    0.291
         8 -12.0686    167.1095    224.6263   6.1241283601e+01   6.8171199092e+00    0.2231339    0.1553961 -25.71  0.001242234    1.396    0.284
         9  -9.6668     77.3358    184.6543   7.6895867747e+01   2.5988928627e+01    0.2724362    0.1642426  80.08  0.001191573    2.303    0.566
        10 -10.8132     79.8388    181.4005   7.5796584260e+01   2.6405878160e+01    0.2319149    0.2040282 -79.31 0.0002947235    1.246    0.198
        11 -10.6521     99.1105    180.8038   7.0448285360e+01   2.3832413999e+01    0.2694781    0.2221432  18.06 0.0006854555    1.195    0.163
        12 -13.3618     74.5417    153.2165   7.3449400233e+01   3.4042226040e+01     1.863035     0.732505 -58.21  0.004059052    2.533    0.605
        13 -12.1680     60.0257    164.4279   7.9546396970e+01   3.3184692353e+01    0.8201445    0.4354899  17.72  0.002449656    2.145    0.534
        14 -12.1374     64.9813    160.4484   7.7490764410e+01   3.3545057849e+01    0.6621564    0.4261269 -44.64   0.00229583    1.813    0.448
        15 -13.3009     62.0367    147.8798   7.6701262377e+01   3.7217291167e+01    0.8257613    0.6614115  46.08  0.002109962    1.160    0.138
        16 -10.4795    142.0854    216.4182   6.5197022623e+01   1.1088079692e+01    0.1770676    0.1546997 -17.55 0.0005115618    1.180    0.152
        17 -11.5557    247.0410    163.1995   3.8408637743e+01   6.2570252327e+00    0.3596164    0.1259195 -42.51  0.001727864    2.735    0.634
        18  -9.9822     53.7442    160.5553   8.1070451591e+01   3.4977596393e+01    0.2038548    0.1222522  40.75 0.0003312649    1.489    0.329
        19 -18.3701     14.2692    234.2985   9.6802315401e+01   2.1961204623e+01     8.167933     2.761601  22.35   0.01984886    2.504    0.601
        20 -12.6432    133.5196    143.6364   5.5012561545e+01   2.6438658577e+01     1.061861    0.2887181 -54.72  0.002785675    5.267    0.810
        21 -13.4408     82.4681    147.2409   6.9991168311e+01   3.4354262243e+01    0.7683098    0.7385502 -32.57  0.001984077    1.136    0.120
        22 -11.9578     82.0085    140.5070   6.8951349340e+01   3.6144441358e+01    0.4115493    0.2442747  50.44  0.001179337    1.733    0.423
        23 -10.8848     44.3386    149.4493   8.2894596064e+01   3.9055516669e+01    0.3145142      0.21991 -25.74 0.0008163199    1.894    0.472
        24 -10.2697    130.9855    207.0411   6.6348507398e+01   1.4134688873e+01    0.1906807    0.1689941  11.61 0.0004855077    1.046    0.044
        25 -11.0931    100.0098    133.9902   6.2094979274e+01   3.4703432817e+01    0.3858628    0.2485684  -6.08  0.001390428    2.971    0.663
        26 -11.8702     85.0464    133.9030   6.6732339275e+01   3.7335003647e+01     0.304928     0.299302 -52.79 0.0004327353    1.084    0.078
        27 -13.2143    136.0853    130.1399   5.1495968696e+01   2.8855301388e+01    0.5116932    0.3696032 -51.41  0.002472747    1.383    0.277
        28 -12.3708    108.9807    127.0469   5.7965101281e+01   3.4723197675e+01    0.4017749    0.3320685  -6.37  0.001449761    1.522    0.343
        29  -9.6445    110.5701    166.7869   6.5224013813e+01   2.5220661724e+01    0.1860346    0.1418457 -73.63 0.0005812507    1.579    0.367
        30 -10.2014    148.7720    128.9877   4.8296952214e+01   2.6693459888e+01    0.1924125    0.1144659 -44.73 0.0004447184    1.615    0.381
        31 -11.2487     43.9203    129.4992   8.0492910653e+01   4.4582864882e+01    0.2343498    0.1469569  27.55 0.0008365241    1.579    0.367
        32 -10.2986     27.6458    127.7141   8.6547722470e+01   4.6851117601e+01    0.1522038    0.1091337 -34.65 0.0005586596    1.668    0.401
        33 -12.0406     38.4258    121.9636   8.1556994392e+01   4.7340976597e+01    0.4146811    0.2284835  47.81  0.001072785    1.771    0.435
        34 -12.5375     32.6751    118.4624   8.3400168409e+01   4.8960504379e+01    0.5445716    0.2879346  35.58  0.001270149    1.771    0.435
        35 -12.6979    115.2738    122.6566   5.5184942054e+01   3.4542738592e+01    0.3654462    0.3304728 -52.44  0.001370224    1.107    0.097
        36 -11.9092     95.9422    121.9725   6.0745121825e+01   3.8410656275e+01    0.6569531    0.3202353 -45.40  0.001929677    2.219    0.549
        37 -11.3082    105.9897    116.9688   5.6509259980e+01   3.7702262482e+01    0.2367218    0.2290263  81.16 0.0003589647    1.004    0.004
        38 -11.9266    105.4960    130.0188   5.9629757238e+01   3.4666044762e+01    0.4470332    0.3342092 -82.19  0.001812479    1.650    0.394
        39 -10.7091    138.8013    112.2270   4.6639576394e+01   3.2109159549e+01    0.2491604    0.1618942 -83.66  0.000944179    2.748    0.636
        40  -9.7346     75.8350    110.8506   6.4990846345e+01   4.4919128798e+01    0.2256533    0.1791236  65.77 0.0003793901    1.330    0.248
        41 -10.0773    205.3901    110.1622   3.3899041151e+01   1.9795442763e+01     0.187723     0.173029  14.80 0.0006307145    1.262    0.208
        42 -11.3936     84.5134    248.9509   8.1408212438e+01   1.2287580756e+01    0.5532352    0.2195408  34.76  0.002810203    1.850    0.459
        43 -11.8527     54.4735     96.6024   7.0114217500e+01   5.2268826012e+01     0.583678    0.3358814  35.03  0.002420027    1.698    0.411
        44 -11.1250     44.1963     89.9153   7.3178846311e+01   5.5582947997e+01     0.411109    0.1902754  58.57  0.001320974    3.176    0.685
        45 -12.9611     54.3479     81.8100   6.6357950334e+01   5.6228675417e+01    0.5140442    0.4028275 -41.63  0.002469749    1.374    0.272
        46 -13.7506     31.6700     67.5690   7.4042835810e+01   6.3201759446e+01    0.7342881    0.5084525 -60.81  0.003542214    1.397    0.284
        47  -9.6153    111.6522    241.2616   7.4726277695e+01   1.0571344015e+01    0.1406405    0.1062574 -36.93 0.0005333695    1.552    0.356
        48 -13.3673    222.8879     41.7236   1.6693426237e+01   2.6391782812e+01    0.6051286    0.5712818 -16.05  0.002670738    1.409    0.290
        49 -11.8655    199.8652     57.9589   2.2555957233e+01   2.8734108143e+01    0.2999712    0.2460447 -54.70 0.0008454269    1.021    0.020
        50 -12.9561    210.3959     51.0374   1.9860850902e+01   2.7586498781e+01    0.7002135    0.5903574 -42.96  0.003863719    1.145    0.127
        51 -16.3373     35.6616    174.3477   8.8086833944e+01   3.3490981837e+01     6.997012     2.159154  51.58   0.02366219    3.185    0.686
        52 -10.5916    103.1107    236.7932   7.6163959604e+01   1.2293846868e+01     0.251386    0.1929107 -65.22  0.001645707    1.693    0.409
