#   1 NUMBER                 Running object number                                     
#   2 MAG_AUTO               Kron-like elliptical aperture magnitude                    [mag]
#   3 X_IMAGE                Object position along x                                    [pixel]
#   4 Y_IMAGE                Object position along y                                    [pixel]
#   5 X_WORLD                Barycenter position along world x axis                     [deg]
#   6 Y_WORLD                Barycenter position along world y axis                     [deg]
#   7 A_WORLD                Profile RMS along major axis (world units)                 [deg]
#   8 B_WORLD                Profile RMS along minor axis (world units)                 [deg]
#   9 THETA_WORLD            Position angle (CCW/world-x)                               [deg]
#  10 FWHM_WORLD             FWHM assuming a gaussian core                              [deg]
#  11 ELONGATION             A_IMAGE/B_IMAGE                                           
#  12 ELLIPTICITY            1 - B_IMAGE/A_IMAGE                                       
         1 -13.9148    179.0649     42.2857   6.3848526321e+01   3.5044610164e+01     1.210938     1.020551  -5.50 0.0009570043    1.254    0.203
         2 -14.2450    189.5709     33.4598   5.9316832682e+01   3.3450450908e+01     1.706892     1.269086 -14.81  0.004889604    1.409    0.290
         3 -15.0318    197.8378     22.5517   5.4713821703e+01   3.2577905680e+01      2.73662     1.788625  20.07  0.001608395    1.959    0.489
         4 -10.1574     65.3463      2.3070   7.4913183830e+01   6.6693078605e+01    0.1357784   0.08750173  12.04 0.0007043112    1.698    0.411
         5 -13.2462     47.5006    216.0489   1.2663194932e+02   2.6287971118e+01    0.4928437    0.1872647  60.65  0.002030944    2.274    0.560
         6 -13.5563     66.8560    194.5648   1.2162759125e+02   2.7706125683e+01    0.7291669    0.5876061 -83.73  0.005474031    1.256    0.204
         7 -12.6106     67.7259    243.7581   1.2511678785e+02   1.9571281097e+01    0.4769159    0.2917886  89.35  0.002724296    1.643    0.391
         8 -13.9112     57.6665    207.9781   1.2435294301e+02   2.6471467277e+01     1.616821     0.471922  47.42  0.003722082    2.541    0.606
         9 -12.3581     69.1997    217.9740   1.2311122749e+02   2.3380189372e+01      0.32917    0.1894887  53.28 0.0004995172    1.329    0.248
        10 -11.8893     73.5943    212.6292   1.2193922678e+02   2.3706562078e+01    0.2456617    0.1920444  77.27 0.0006494765    1.129    0.114
        11 -15.3902    111.1675    245.6866   1.1844960324e+02   1.3680932265e+01     5.495527      1.44868  36.41   0.01912409    5.993    0.833
        12 -11.3121     44.2142    210.3821   1.2683035577e+02   2.7615204857e+01    0.2402458     0.105831  49.04 0.0008918098    1.747    0.428
        13 -11.0173     54.6185    222.6396   1.2587003335e+02   2.4384322607e+01     0.169825    0.1415774  57.19  0.001013315    1.327    0.246
        14 -11.1351     85.1233    235.4300   1.2179397133e+02   1.8619809402e+01    0.3125425    0.1601952 -76.00  0.001103939    2.286    0.563
        15 -11.9224    184.1474    215.3238   1.0295955918e+02   6.6338825428e+00    0.2888685    0.2691839 -88.00   0.00151588    1.443    0.307
        16 -10.1802    164.1631    216.0163   1.0645958906e+02   9.7759876650e+00    0.1742488     0.141051  24.85   0.00122482    1.293    0.227
        17 -12.1577    116.2130    211.4623   1.1431678424e+02   1.7951104672e+01    0.3542385    0.2115935  86.09  0.001979912    2.396    0.583
        18 -11.3668     93.0985    236.3254   1.2057407896e+02   1.7439673053e+01    0.1951489    0.1413292  70.19 0.0003201328    1.206    0.171
        19 -10.6361     39.2767    212.7852   1.2780774019e+02   2.7750561795e+01    0.1607099   0.09254595  57.79 0.0003839157    1.295    0.228
        20 -11.0651    108.0035    210.6104   1.1568660505e+02   1.9302557328e+01    0.3875734    0.1570633  44.07  0.002023621    2.001    0.500
        21 -11.5237    105.1265    207.7489   1.1590232841e+02   2.0186613230e+01    0.3729106    0.1840995  39.36  0.002073471    1.888    0.470
        22 -10.4255     35.5249    205.9944   1.2804227700e+02   2.9320195966e+01    0.1785956   0.09658947  57.64 0.0006085768    1.403    0.287
        23 -12.3020    193.8571    194.3889   9.8132449225e+01   7.6988136697e+00    0.8729787    0.5469001 -60.84  0.004431045    2.920    0.658
        24 -13.2356    113.1278    196.7547   1.1320974122e+02   2.0817583254e+01    0.4836967    0.3857287  87.51  0.003324199    1.290    0.225
        25 -10.1029     82.1593    195.2250   1.1884056777e+02   2.5576674073e+01    0.2803096    0.2286433  15.92  0.001876084    1.970    0.492
        26  -9.5991    180.1322    192.8029   1.0030163660e+02   1.0294886679e+01     0.185004    0.1526551  57.28 0.0007949742    1.299    0.230
        27  -9.4830     24.7865    191.6088   1.2907311037e+02   3.2992072347e+01    0.1322857   0.07265529  54.58 0.0002341609    1.448    0.309
        28 -10.0390     48.9230    237.0988   1.2763321441e+02   2.2764180242e+01    0.1481158   0.09654829  67.86 0.0005171826    1.118    0.106
        29 -11.3753    207.7042    183.5795   9.3902441968e+01   6.6996601484e+00    0.2979295    0.2906324  27.38  0.001210851    1.268    0.211
        30 -11.2513    211.1283    179.8772   9.2653121890e+01   6.5757157835e+00    0.3776118    0.2740051 -15.86  0.001842595    1.492    0.330
        31 -11.7046    103.9526    199.1618   1.1519362577e+02   2.1791118079e+01    0.3138541    0.2690066 -85.13  0.001332254    1.233    0.189
        32 -11.0493     99.5547    180.6593   1.1388003325e+02   2.5731511346e+01    0.2248037    0.1949954  55.44 0.0006266044    1.148    0.129
        33 -12.0454    144.4734    177.9906   1.0463447870e+02   1.8852580392e+01     0.390697    0.3191219 -22.07  0.002384982    1.622    0.383
        34  -9.7672     69.0367    177.9229   1.1964077047e+02   3.0531070755e+01    0.1780443    0.1408571  70.80 0.0004800594    1.021    0.021
        35 -10.2384    197.6203    176.2150   9.4363174962e+01   9.5090708718e+00    0.3393326    0.2034752  58.94  0.001318619    2.156    0.536
        36 -11.0723    196.0441    170.9388   9.3683735657e+01   1.0550742598e+01     0.324562    0.2955946  24.69  0.001067505    1.059    0.056
        37 -10.4462    193.8267    165.2443   9.3019875908e+01   1.1801420766e+01     0.347034    0.2692912 -48.84  0.001388243    1.557    0.358
        38  -9.8889     85.8737    201.3815   1.1875345268e+02   2.3988232457e+01    0.3344941    0.1201952  59.52  0.001396218    3.467    0.712
        39 -10.3965    229.7702    165.9851   8.6883697046e+01   5.0205677643e+00     0.162135    0.1004018 -26.59 0.0007353002    1.647    0.393
        40 -10.5566    183.2731    234.0133   1.0558882359e+02   4.5434969001e+00     0.273112    0.1190589  52.09  0.001410965    2.400    0.583
        41  -9.7112     36.0818    233.9878   1.2945210662e+02   2.4653325555e+01    0.1480556   0.08928595  65.18 0.0004821475    1.160    0.138
        42 -19.4010      9.3023    133.2195   1.2828680954e+02   4.5975873770e+01     16.50674     1.714896 -76.98   0.04047069    9.678    0.897
        43 -10.5848    165.1859    152.8268   9.6120295442e+01   1.9334801383e+01    0.3425003    0.2254081  75.88  0.001516327    2.496    0.599
        44 -11.3500    133.8415    144.7812   1.0113024916e+02   2.6828116594e+01     0.948805    0.2429664 -53.53  0.002784794    4.929    0.797
        45 -10.8611    174.5363    148.5385   9.3406412049e+01   1.8220035466e+01     0.316661    0.2586654 -48.89  0.001293917    1.354    0.261
        46 -10.9660    144.3397    146.4209   9.9183560879e+01   2.4531583853e+01     0.401682     0.238323 -78.58  0.001501298    3.514    0.715
        47 -12.4948     94.8414    141.8688   1.0939057955e+02   3.4149712178e+01    0.2510301    0.2425925 -59.88 0.0004919916    1.233    0.189
        48 -12.8951     51.9402    227.8717   1.2662888463e+02   2.3856268278e+01    0.3793636    0.1642364  61.72  0.001449681    1.894    0.472
        49 -11.4701    106.8606    141.4379   1.0655424211e+02   3.2289434167e+01    0.4898507    0.3263834 -33.04  0.002391692    2.211    0.548
        50 -10.9059    114.5261    131.4490   1.0293447683e+02   3.3043720008e+01     0.376957    0.2971046  15.20  0.001148929    1.777    0.437
        51 -10.7915    119.8332    129.8108   1.0136754135e+02   3.2426441419e+01    0.3297044    0.2518431 -67.60  0.001184508    1.361    0.265
        52 -11.0624    119.2010    125.4007   1.0061303919e+02   3.3458957802e+01    0.6101889    0.3585168 -20.16  0.001938594    4.942    0.798
        53 -10.7199    106.0832    130.7694   1.0479870514e+02   3.4657524460e+01    0.3250712    0.2672857  87.97  0.001127716    1.235    0.190
        54 -11.1489    102.1389    127.6704   1.0515650568e+02   3.5985283950e+01     0.253125    0.2289129 -16.24 0.0005212663    1.432    0.301
        55 -10.5731    160.4830    128.1671   9.1927265477e+01   2.4715720626e+01    0.4005779    0.2621165 -29.88  0.001866572    1.773    0.436
        56 -10.8942    136.0000    128.5871   9.7392493405e+01   2.9608700932e+01     0.503074    0.1709221 -53.70  0.001634833    3.590    0.721
        57 -10.5023    135.4036    121.9053   9.6066816893e+01   3.1066877005e+01     0.516063    0.1312432 -51.57  0.001399559    4.885    0.795
        58 -10.0832    125.3519    127.0386   9.9510189750e+01   3.1971863582e+01    0.2608507    0.1904169  73.19  0.000952998    1.627    0.385
        59 -10.1403    109.9333    119.9754   1.0171359974e+02   3.6285662649e+01    0.2021679    0.1900514 -87.54  0.000341688    1.014    0.014
        60 -10.6629     70.9246    228.9691   1.2362618146e+02   2.1409587915e+01    0.1569508    0.1098459  63.43 0.0004631759    1.049    0.047
        61 -10.2121    167.8423    112.6799   8.6702183514e+01   2.5991041457e+01     0.279872    0.2302808 -62.58  0.000695729    1.393    0.282
        62 -10.0650    135.0000    112.0025   9.3864302849e+01   3.3152553968e+01    0.3533841    0.0819298 -45.46 0.0009781156    4.293    0.767
        63 -11.2030    120.4530    111.1376   9.7164300526e+01   3.6215100114e+01    0.3901712    0.2543102  56.06  0.001784325    1.645    0.392
        64  -9.3272    104.7278    111.5650   1.0120393609e+02   3.9019034601e+01    0.1847947    0.1294034  57.77 0.0004976059    1.526    0.345
        65 -10.1099    205.6105    110.1260   7.8702691374e+01   1.7961800186e+01    0.2701011    0.2037991  40.53 0.0005985693    1.318    0.241
        66 -11.2223     67.3246    103.3474   1.0947661383e+02   4.6669234129e+01    0.4876961    0.2411753 -51.57  0.002294079    1.886    0.470
        67  -9.7217    134.5193    102.9951   9.1746625639e+01   3.5080868681e+01     0.227308    0.1432347 -43.77 0.0006765768    1.567    0.362
        68  -8.9518    128.3296     94.6492   9.1071398313e+01   3.8070833540e+01    0.1555549    0.1167737 -82.95 0.0007047962    1.769    0.435
        69  -9.0225    154.3362     79.2984   8.0523411119e+01   3.5260780612e+01    0.1578912    0.1201188  15.37 0.0004385829    1.655    0.396
        70  -9.0130    184.3436     77.3114   7.3764808714e+01   2.8326815864e+01    0.1619301    0.1171383  19.74  0.000704596    1.703    0.413
        71 -11.4264    166.3679     66.6659   7.4077594745e+01   3.4554098273e+01    0.4194939    0.3127296 -77.01 0.0007109295    1.795    0.443
        72  -9.3429    104.4234     60.8195   8.7305931652e+01   4.9768044974e+01     0.199859    0.1325661 -31.21 0.0005456569    1.543    0.352
        73  99.0000     43.3996    226.2880   1.2790471387e+02   2.5072841903e+01    0.5096046    0.2540047 -84.98  0.003505216    1.928    0.481
        74 -14.4030    112.0823    229.0907   1.1681772650e+02   1.5882567192e+01      4.61906    0.7044409  41.95   0.01590503    5.059    0.802
        75 -16.0923     74.1797    152.6849   1.1565768744e+02   3.4906932432e+01     5.643568     2.861424  72.81   0.01324365    2.697    0.629
        76 -11.7574     41.1246     16.6460   9.2375157435e+01   6.8214767101e+01    0.2607698    0.1536879 -35.42  0.001373844    1.409    0.290
