#   1 NUMBER                 Running object number                                     
#   2 MAG_AUTO               Kron-like elliptical aperture magnitude                    [mag]
#   3 X_IMAGE                Object position along x                                    [pixel]
#   4 Y_IMAGE                Object position along y                                    [pixel]
#   5 X_WORLD                Barycenter position along world x axis                     [deg]
#   6 Y_WORLD                Barycenter position along world y axis                     [deg]
#   7 A_WORLD                Profile RMS along major axis (world units)                 [deg]
#   8 B_WORLD                Profile RMS along minor axis (world units)                 [deg]
#   9 THETA_WORLD            Position angle (CCW/world-x)                               [deg]
#  10 FWHM_WORLD             FWHM assuming a gaussian core                              [deg]
#  11 ELONGATION             A_IMAGE/B_IMAGE                                           
#  12 ELLIPTICITY            1 - B_IMAGE/A_IMAGE                                       
         1 -12.8414    237.9600     20.5093   3.0519280865e+01   2.5278713776e+01    0.6051454    0.2551878 -48.09  0.003282062    1.918    0.479
         2 -11.8855    248.7218     22.8072   3.0174506651e+01   2.2944248664e+01    0.4889989    0.1702031 -52.93  0.001741057    2.342    0.573
         3 -11.5538    249.4808     16.9954   2.9055913011e+01   2.3482885710e+01     0.269265    0.2181267 -16.81  0.001622491    1.973    0.493
         4 -11.2308    249.3507     10.8205   2.7945660546e+01   2.4206988261e+01    0.2900493    0.2121891 -87.15  0.002140046    1.208    0.172
         5 -10.7958      2.5192     26.0677   9.1727557498e+01   7.0689124004e+01    0.2826781   0.09437915 -51.14  0.001341476    2.651    0.623
         6 -11.5450     30.6910     21.1407   7.4487929102e+01   6.8645412559e+01    0.4522318    0.3233774 -42.19    0.0028633    1.721    0.419
         7 -10.7623     36.1252     18.0703   7.0469680661e+01   6.8320439160e+01     0.344036     0.195687  -8.46 0.0009753177    2.056    0.514
         8 -11.6040    111.9413     18.9378   4.6137188487e+01   5.3649598501e+01    0.3732548    0.2548009  66.59  0.001068187    1.378    0.274
         9 -10.9860    155.6052     14.2729   3.7300310326e+01   4.3951650786e+01    0.4441482     0.256987  -2.54  0.002069979    3.056    0.673
        10 -11.0125    100.8365     15.7047   4.7479933102e+01   5.6452762509e+01    0.3337226    0.2123187  37.24  0.001322485    1.521    0.343
        11 -11.8097    227.4020     14.2062   3.0079929976e+01   2.8097556052e+01    0.3140497    0.2130329 -20.91   0.00171202    2.177    0.541
        12 -10.2107     19.8778     15.2187   7.7319142349e+01   7.0780401220e+01    0.2106143    0.1484469 -41.85 0.0008561646    1.727    0.421
        13 -10.4568     16.0807     13.6363   7.8650607991e+01   7.1419745640e+01    0.2091687    0.1513584  -4.09 0.0003586335    1.094    0.086
        14 -10.8724     10.0102     14.8429   8.2670334003e+01   7.1859962699e+01    0.2940308    0.2562527  36.70  0.002151945    1.778    0.437
        15 -10.8970     57.3032     13.1208   5.9311191965e+01   6.5494312534e+01    0.4407208    0.2644424  35.18  0.002551416    1.421    0.296
        16 -11.9519    187.7567     10.5712   3.2690739113e+01   3.6947021065e+01    0.4666773    0.3194407  28.38  0.002000268    2.404    0.584
        17 -11.4957    182.5233     12.5741   3.3688658360e+01   3.7918634742e+01    0.3158157     0.233332  64.64   0.00112081    1.311    0.237
        18 -11.7040     24.3489     12.1016   7.3448292345e+01   7.0661058060e+01    0.2446847    0.1735138 -20.85 0.0001904566    1.286    0.223
        19 -11.6197    123.3636     10.1116   4.1012715342e+01   5.1863499492e+01    0.4737755     0.306725  30.20  0.002602254    1.839    0.456
        20 -11.1177    127.4885      4.3423   3.8513041202e+01   5.1401977839e+01    0.2278073     0.204427  74.99 0.0003968434    1.079    0.073
        21  -9.9989     47.7513      8.7818   6.1007558206e+01   6.7597686901e+01    0.2877407    0.1628954   1.85  0.001512026    2.149    0.535
        22 -11.6739    211.5110      6.9606   2.9827422162e+01   3.2157041158e+01    0.3834334    0.3123018  18.46  0.002538343    2.050    0.512
        23 -10.9660     13.2356      4.2589   7.5586337999e+01   7.2966845571e+01    0.2509848    0.1675511 -19.80  0.001544858    1.296    0.228
        24 -10.7277    238.1326      7.1012   2.7972434242e+01   2.6751740378e+01     0.249004    0.1339994 -37.14   0.00152268    1.864    0.464
        25 -11.3797     13.6417      8.0118   7.7276367238e+01   7.2442043831e+01    0.2823365     0.164124  20.61  0.001796992    1.524    0.344
        26 -10.0227     40.7061      5.1164   6.2174892816e+01   6.9124211329e+01    0.1746877    0.1369641  32.00 0.0002781771    1.204    0.170
        27 -10.6507      3.0835      3.6653   8.1421877308e+01   7.4068617342e+01    0.2238404    0.1973675  40.92  0.001680339    2.014    0.503
        28 -11.4580     90.3324      2.9075   4.5182149731e+01   5.9852823790e+01    0.2953077    0.2311198  77.06 0.0005730005    1.417    0.294
        29 -10.0498    250.4976      2.9608   2.6477727497e+01   2.4849224009e+01     0.157637   0.08887095 -42.93  0.000811875    1.596    0.373
        30  -9.9612     25.0285      1.6788   6.7786069794e+01   7.1805338739e+01    0.1597538     0.135399  13.85 0.0006286755    1.279    0.218
        31  -9.1505     84.3469      1.2489   4.5975774853e+01   6.1253426567e+01    0.1285716   0.07169997  39.69 0.0002662177    1.581    0.367
        32 -10.2775     45.5509    102.0613   9.4567415387e+01   5.1090763066e+01    0.2232804    0.1908526  47.39 0.0003821862    1.349    0.259
        33  -9.8438     13.7424    100.9396   1.0602020758e+02   5.4267510041e+01    0.1823882    0.1423207 -59.19  0.000338435    1.081    0.075
        34  -9.5534     97.3910     98.4799   7.5870223921e+01   4.3867712595e+01    0.1494708    0.1431708 -30.50 2.212072e-05    1.027    0.026
        35  -9.6384     73.1221     98.1426   8.3752436791e+01   4.8211929741e+01    0.2253954    0.1820651  75.56 0.0004240554    1.669    0.401
        36  -9.7148     69.6554     96.0008   8.4380748162e+01   4.9245594452e+01    0.2108987    0.1807574 -41.19 0.0007474649    1.102    0.093
        37  -9.1881    106.9975     97.7454   7.2746823116e+01   4.2140306938e+01    0.1876056    0.1303878  41.38 0.0001894797    1.445    0.308
        38  -9.9932     53.4764     96.9837   9.0448267416e+01   5.1321936118e+01    0.2237338    0.1309072 -54.11 0.0004846766    1.588    0.370
        39 -10.0873     16.2648     95.2326   1.0403580842e+02   5.5458096647e+01    0.1611531    0.1449711  84.99  0.000404793    1.284    0.221
        40 -11.0183    116.5476     93.5556   6.8807337674e+01   4.1048617055e+01    0.2718748    0.2504382  89.36 0.0004379014    1.215    0.177
        41 -10.0299      8.5105     92.0032   1.0638068098e+02   5.6728520897e+01    0.1796733    0.1557882 -34.21  0.001170474    1.132    0.116
        42  -9.1273    126.4971     91.5107   6.5526047228e+01   3.9319027664e+01    0.1493113    0.1484147  48.82 -4.123343e-05    1.008    0.008
        43 -10.7021     34.6871     89.9299   9.5809071431e+01   5.5127505526e+01    0.2385387    0.1963698   9.83            0    1.297    0.229
        44 -10.8340    120.8739     87.5459   6.5888195062e+01   4.1333919227e+01    0.2791967    0.2515822 -65.34 1.971721e-05    1.205    0.170
        45  -9.6258    139.0820     86.8936   6.1063199906e+01   3.7410454463e+01    0.2168225    0.1954458 -85.79            0    1.197    0.165
        46  -9.8322    131.4679     86.0463   6.2691917734e+01   3.9287524330e+01    0.2191727    0.1477883 -41.60 0.0003039282    1.500    0.333
        47 -11.6029     76.1252     83.4001   7.8516240956e+01   5.0959278823e+01    0.2977467    0.2721972 -27.01 0.0003780263    1.047    0.045
        48 -11.5387     80.0129     80.9618   7.6431224093e+01   5.0794217562e+01    0.2509252    0.2349435  -4.52            0    1.007    0.007
        49 -10.6191     28.8477     85.0965   9.6952278440e+01   5.6800819852e+01    0.2713683    0.1894922  21.72 0.0008933054    1.560    0.359
        50  -9.9653     54.3019     80.4230   8.5660685149e+01   5.4937878925e+01    0.2177467    0.1701511 -72.23 0.0005574445    1.667    0.400
        51  -9.5992    155.0075     79.2866   5.5388422558e+01   3.5148923325e+01    0.2010672    0.1850994  65.54  0.000302821    1.067    0.063
        52 -10.5007     72.7612     77.0409   7.7765256086e+01   5.2840625444e+01    0.2462827    0.2015202 -26.99 0.0003736162    1.184    0.156
        53 -11.2236     77.4726     75.1753   7.5513565658e+01   5.2409042914e+01    0.4238548    0.2325773  40.25  0.001351261    1.834    0.455
        54 -10.1843      4.8030     75.6394   1.0468257615e+02   6.0694485419e+01    0.2249063    0.1449427 -57.36 0.0006392454    1.279    0.218
        55  -9.5740      2.0159     73.2129   1.0535243663e+02   6.1380244327e+01    0.1481488    0.1449583  71.24 0.0004087602    1.292    0.226
        56 -10.8594    104.5439     79.3600   6.8076588545e+01   4.6398738797e+01    0.2894745     0.253406 -63.89  0.001359371    1.310    0.237
        57 -10.3632     63.3270     70.4484   7.9155501475e+01   5.5686934152e+01    0.2564661    0.2212584  43.04 0.0005993343    1.321    0.243
        58 -11.2031    136.9980     69.5646   5.6582702857e+01   4.1004539693e+01    0.2477031     0.224737 -34.82 0.0006522478    1.155    0.134
        59  -9.1809    140.6886     68.6628   5.5486273318e+01   4.0301203691e+01    0.1507878    0.1423758  83.68 0.0008427871    1.054    0.052
        60 -10.6189     97.1477     69.4784   6.7209189270e+01   4.9765395654e+01    0.3035675    0.2646565 -42.14   0.00111753    1.206    0.171
        61 -11.4234    100.6279     67.1980   6.5416454394e+01   4.9461235533e+01    0.4364701    0.2388056 -54.51  0.001763345    2.475    0.596
        62 -11.2542     80.1971     69.7757   7.2833396525e+01   5.2971274048e+01    0.2501586    0.2280599  31.39 0.0002839533    1.116    0.104
        63  -9.7710     17.8530     70.1888   9.7842618427e+01   6.1040752072e+01    0.1840799    0.1591337 -53.35 0.0006913463    1.179    0.152
        64 -10.9696    155.7164     68.7574   5.2356213992e+01   3.6777557465e+01    0.3046278    0.2285476 -74.79 0.0007997612    1.557    0.358
        65  -9.5104     34.2575     69.5715   9.0614941372e+01   5.9675773446e+01    0.1713406    0.1181902   0.76 0.0004891625    1.544    0.352
        66  -9.8609     89.9772     67.6523   6.8875451677e+01   5.1523884355e+01    0.1956399    0.1721293  33.44 0.0002902379    1.100    0.091
        67 -10.4884    121.4143     66.1220   5.9320033566e+01   4.5142907007e+01    0.2495032    0.2142162  30.88 8.797964e-05    1.196    0.164
        68 -10.0532    110.9874     65.9065   6.2022353629e+01   4.7485511225e+01    0.2081884    0.2025066  41.28 0.0003122101    1.044    0.042
        69 -10.2682     71.0713     63.5294   7.3990115351e+01   5.5746313854e+01    0.4282368    0.1725494 -45.06  0.001685701    2.543    0.607
        70  -9.8867     49.0474     66.0324   8.3355902783e+01   5.8629305408e+01      0.20951    0.1842577 -17.17 0.0007774557    1.014    0.014
        71 -10.0593    202.2438     64.4097   4.3554550513e+01   2.6840124475e+01    0.1889144    0.1221237  79.78 0.0009574855    1.682    0.405
        72 -10.2400     43.4570     62.6473   8.4584827172e+01   6.0022711488e+01    0.2883918    0.2240852 -87.69  0.001503528    2.239    0.553
        73  -9.4518      1.6763     64.6693   1.0364099321e+02   6.3260063381e+01    0.1356723   0.06771432 -37.06 0.0007050136    1.701    0.412
        74  -9.1812    147.2126     61.9833   5.2168714967e+01   3.9860817196e+01    0.1839528    0.1151269 -37.53 0.0005414525    1.661    0.398
        75 -11.1909     59.7608     58.4557   7.6522290263e+01   5.8523776503e+01    0.3223111    0.2393996 -34.07  0.000652529    1.295    0.228
        76 -10.1045      4.0539     59.6582   1.0135996625e+02   6.4194348764e+01    0.1641902    0.1320438 -23.00 0.0004103385    1.139    0.122
        77 -10.7177    101.7718     58.4922   6.2221307604e+01   5.0703843698e+01    0.3621527    0.1849184  49.30  0.001563026    1.882    0.469
        78 -10.7778     95.5915     57.2175   6.3628637381e+01   5.2201652323e+01    0.3431904    0.2256645  -2.16  0.001522595    2.231    0.552
        79 -10.4738    160.1174     57.0744   4.8314970215e+01   3.7577467229e+01    0.2098916    0.1869167  36.23 0.0004998912    1.276    0.217
        80  -9.7220      7.8779     56.8684   9.8849807166e+01   6.4544276543e+01    0.1467871     0.135466 -51.44            0    1.258    0.205
        81 -10.2100    200.6140     55.4438   4.1684394686e+01   2.8529830065e+01    0.2413862    0.1851879 -53.79 0.0006580885    1.194    0.163
        82  -9.8393    112.0124     55.6758   5.8450764896e+01   4.8935887232e+01    0.1994663    0.1682191  48.10  0.000291335    1.116    0.104
        83  -9.9670     25.8791     56.3464   9.0305412420e+01   6.3213892639e+01    0.2899621    0.1250861  34.85   0.00132724    2.625    0.619
        84  -9.5900     58.7509     66.3701   7.9590832024e+01   5.7186842294e+01    0.1853513    0.1237979  21.23 0.0009371674    1.548    0.354
        85  -9.4491    150.6893     57.6896   5.0251861659e+01   3.9705999868e+01    0.1403172    0.1084479  26.93 0.0004554154    1.625    0.384
        86  -9.7678      1.6976     51.6112   1.0038627645e+02   6.5976035923e+01    0.1586066    0.1160334 -37.77 0.0005294669    1.067    0.062
        87  -9.3320    116.6084     51.2744   5.5836783355e+01   4.8578383329e+01    0.1419836    0.1086511 -89.73 0.0006992883    1.731    0.422
        88 -10.5909     55.0452     50.0212   7.5386502712e+01   6.0741052785e+01    0.2192852    0.1789953 -30.34 0.0003419482    1.204    0.169
        89 -10.1512     58.9065     47.6923   7.2975904544e+01   6.0529270912e+01    0.2192337    0.1492787  29.31 0.0008142961    1.393    0.282
        90 -10.1218    212.3956     49.8673   3.8974803237e+01   2.6766912162e+01    0.2064162    0.1650533  85.72 0.0003705431    1.180    0.153
        91 -10.5682    203.1425     49.7930   4.0057178965e+01   2.8777536503e+01    0.1713881    0.1536085  50.47  0.001079217    1.365    0.267
        92  -9.5466    126.8037     50.1656   5.3047520359e+01   4.6412014881e+01    0.1854484    0.1552695  27.69  0.001021928    1.299    0.230
        93 -10.1032      5.7380     48.5955   9.7554191823e+01   6.6340860921e+01    0.2622984    0.1269079 -49.15            0    1.645    0.392
        94  -9.2403    105.5213     49.5008   5.8147496123e+01   5.1299166954e+01    0.1394902    0.1276339  34.22 -9.946388e-05    1.015    0.015
        95 -11.0070     85.0444     47.5030   6.3530979259e+01   5.5861073386e+01    0.3955228    0.1898707 -30.36  0.001705587    2.316    0.568
        96 -10.4816     24.9102     48.9835   8.8346650546e+01   6.4724196862e+01    0.2105787    0.1536931 -11.92 0.0003358861    1.248    0.198
        97  -9.6440    121.5721     48.4652   5.3725258837e+01   4.7859582258e+01    0.1374643    0.1288716  54.87 5.383351e-05    1.021    0.021
        98 -10.8205    136.7659     46.6405   4.9808361240e+01   4.4587997696e+01    0.2356467    0.2134384 -85.58 0.0003177418    1.138    0.121
        99  -9.6062     45.9101     47.1164   7.8132514326e+01   6.2569004261e+01    0.1746669    0.1621898   1.19  0.000281393    1.202    0.168
       100 -11.2293    235.5865     42.8967   3.5113469789e+01   2.2950235987e+01    0.2554204    0.2284545 -88.33  0.001191254    1.226    0.184
       101 -10.4026    141.2717     43.5679   4.7992006162e+01   4.3945512991e+01    0.2390403    0.1581511 -47.44 0.0005443131    1.624    0.384
       102 -11.0941    108.2771     43.2310   5.5292487322e+01   5.1589683733e+01    0.3528343    0.2230651  57.23 0.0009763903    1.529    0.346
       103  -9.5139    166.4775     43.5127   4.3586656289e+01   3.7999953198e+01    0.1347876    0.1215548  85.64  5.46582e-05    1.011    0.011
       104  -9.7928     77.4808     43.4430   6.4544840122e+01   5.7935292664e+01    0.1341289    0.1193123  19.98 4.069929e-05    1.019    0.019
       105 -10.7983     62.8911     38.1113   6.7744432414e+01   6.1362496801e+01    0.2901478    0.2589031 -18.42  0.001084785    1.186    0.157
       106 -10.6827     56.5945     42.0209   7.1737429329e+01   6.1813365912e+01    0.3131537    0.1878333  23.26  0.001167187    1.710    0.415
       107  -9.9639     60.9242     41.4618   6.9810952314e+01   6.1192724567e+01    0.1936688     0.163677  70.39  0.001117551    1.824    0.452
       108  -9.4163     33.5076     43.4928   8.2341132994e+01   6.4787867829e+01     0.128413    0.1039039 -11.88 0.0008104123    1.030    0.030
       109 -11.3730    247.5452     41.1983   3.3728414263e+01   2.0866844375e+01    0.3519321    0.2600539  59.40  0.002346168    1.676    0.403
       110  -9.5168     18.8475     42.6306   8.9099496621e+01   6.6471639070e+01    0.1542986    0.1038195  27.87 0.0005289325    1.635    0.388
       111  -9.6335     91.1923     40.1946   5.8974945586e+01   5.5674031577e+01     0.167236     0.156689  82.17 0.0002400472    1.296    0.229
       112 -10.4547     76.0709     38.6131   6.3199190823e+01   5.8901593913e+01    0.2183098    0.1772617 -11.57 0.0003639982    1.244    0.196
       113 -11.2564    228.7395     36.9638   3.4542499195e+01   2.5094356258e+01    0.4333322    0.2319066 -74.11  0.002262512    2.000    0.500
       114  -8.8882     35.6960     38.6803   7.9483468829e+01   6.5338345938e+01    0.1306431   0.08356951 -10.62 0.0003188077    1.630    0.387
       115 -10.3814    194.7149     37.0838   3.8125631018e+01   3.2344634538e+01    0.3454145    0.1933754 -64.32  0.001717659    1.898    0.473
       116  -9.9890    128.1026     37.0207   4.8641025783e+01   4.7885793729e+01    0.2519435    0.1921963  75.57  0.001384791    1.354    0.262
       117 -10.1469    106.9359     34.5221   5.2653418444e+01   5.3027843731e+01    0.2225753    0.1825406 -54.70 0.0005714434    1.455    0.313
       118 -11.3098    239.9287     32.4564   3.2672440133e+01   2.3446724533e+01    0.4206366    0.2327213  87.62   0.00241876    1.826    0.452
       119 -11.6395    237.2606     27.2797   3.1880775831e+01   2.4607531309e+01    0.3458198    0.2016395  51.72   0.00169504    2.352    0.575
       120 -12.1645     68.2925    218.0258   1.0640012364e+02   1.9359566841e+01    0.8418872    0.6025783  52.31  0.004722058    1.273    0.214
       121 -10.0544     48.1490     36.9411   7.3229071394e+01   6.3906258912e+01    0.1846279    0.1502097 -65.26 0.0008194748    2.048    0.512
       122 -10.3801     78.7967     30.9651   5.9344304550e+01   5.9396397570e+01    0.2017476    0.1557989  17.38 0.0005862474    1.271    0.213
       123 -10.6412     81.5749     27.3667   5.7067952718e+01   5.9285580602e+01    0.2817613    0.2504983  74.17  0.001730661    1.416    0.294
       124  -9.4198    200.8551     29.0194   3.5581578855e+01   3.1984546367e+01    0.1869556    0.1163705 -81.52 0.0004900156    1.591    0.371
       125  -9.7875    153.5955     29.5280   4.1794490432e+01   4.2785136735e+01    0.1302897    0.1160905  83.33 -6.420313e-05    1.023    0.023
       126 -10.0200    109.7258     29.4085   5.0215377730e+01   5.3018524340e+01    0.2613929    0.1223103  62.71 0.0009679194    2.154    0.536
       127 -11.2368     47.6227     28.6967   7.0041486828e+01   6.5195784032e+01    0.2505632     0.198521  33.89  0.000304322    1.300    0.231
       128 -11.0568     14.3544     28.3059   8.6042982743e+01   6.9363757619e+01    0.3090613    0.1978269  27.62  0.001932757    1.682    0.406
       129 -11.4701     76.5021    219.5278   1.0466084224e+02   1.7900852209e+01    0.4502447    0.3797078   9.30  0.002633554    1.464    0.317
       130 -10.3113     58.9336    208.3745   1.0754177349e+02   2.2805180618e+01    0.2768831    0.2101478  73.78  0.001566115    1.270    0.212
       131 -11.3939    249.1765    183.5138   6.1551037624e+01  -2.0719257516e+00    0.2918879    0.1613891 -43.61  0.001557343    1.689    0.408
       132 -11.9374    235.2576    178.6735   6.2938327499e+01   7.0799001777e-01    0.5378317    0.2505406  52.29  0.002184027    3.721    0.731
       133  -9.8593     54.4906     26.0144   6.6055063325e+01   6.4458916387e+01    0.1891511    0.1454736  27.86 0.0003199411    1.144    0.126
       134 -11.5463    226.5412     23.5891   3.2019217895e+01   2.7193184239e+01     0.269529    0.2450258 -15.89  0.001925153    1.602    0.376
       135  -9.6885      2.7225    167.0488   1.1743490116e+02   3.8611814567e+01    0.1721961    0.1359804 -83.17 0.0002689898    1.044    0.042
       136 -12.6697    217.0090    158.5214   6.2114375807e+01   7.2058190247e+00    0.5915108     0.302978 -45.65  0.002680681    1.826    0.452
       137  -9.6618     98.8649     23.8964   5.0923780095e+01   5.6045341064e+01    0.1710099    0.1510284  81.37 0.0006190235    1.309    0.236
       138  -9.9198    163.9243     22.6597   3.8427859673e+01   4.1132630409e+01    0.2121448     0.173363  35.31 0.0009185687    1.512    0.339
       139  -9.8083    117.8302     23.3785   4.6386027725e+01   5.1846674756e+01    0.1908064    0.1022204  51.58 0.0004511649    1.614    0.381
       140  -9.1343    142.2913     21.3611   4.1261036697e+01   4.6355588935e+01    0.1316679   0.09152385  35.48 0.0001509016    1.697    0.411
       141 -10.1678    183.8440     26.0514   3.6780185081e+01   3.6146472124e+01    0.2341981     0.171308  59.06  0.001395695    1.393    0.282
       142  -9.4826      2.3370    153.7128   1.1638144478e+02   4.1930877915e+01    0.1310177   0.08243597  64.58 0.0004417487    1.632    0.387
       143 -10.4440     55.0403     19.4344   6.2981019792e+01   6.5183926271e+01    0.1994483    0.1497605  -1.19 0.0004442781    1.277    0.217
       144 -11.2017    149.9652     18.7069   3.9316224035e+01   4.4826554277e+01    0.2812575    0.2046957  72.48 0.0005056341    1.201    0.167
       145  -9.5050    119.5134     19.4497   4.4750957165e+01   5.1867337159e+01    0.1310124    0.1117796  55.03 7.064791e-05    1.033    0.032
       146 -14.9928    220.9573    133.7458   5.6236286502e+01   1.1091914110e+01     2.742235     1.881588  34.17   0.01430711    1.765    0.433
       147  -9.5322     43.5416     18.4700   6.7297290003e+01   6.7172702775e+01    0.1223204   0.09845603  10.81 0.0002365046    1.006    0.006
       148 -10.1968     21.0277    141.9032   1.0975873643e+02   4.3499229095e+01    0.2002035    0.1777378 -73.90 0.0005122514    1.034    0.033
       149 -10.2131     29.3121    137.9588   1.0669872198e+02   4.3774731820e+01    0.1867952    0.1853283  45.56 0.0003581191    1.150    0.130
       150 -10.6770     14.6113    122.9010   1.0919130752e+02   4.8801483523e+01    0.4983743    0.1791935 -47.11  0.001445344    2.567    0.611
       151 -11.4342     11.9208    129.0878   1.1089188135e+02   4.7441143355e+01    0.2373799    0.1995221 -60.78 0.0002778753    1.066    0.062
       152 -10.2474     15.7921    128.8293   1.0963833838e+02   4.7226301729e+01     0.194529    0.1872636 -82.94 0.0003059205    1.134    0.118
       153  -9.2868     33.3201    128.6987   1.0399892730e+02   4.5758623700e+01    0.1392127    0.1005906  68.38 0.0007025332    1.625    0.385
       154  -9.9093     24.0309    125.5268   1.0651255343e+02   4.7405351863e+01     0.203969     0.160473 -67.99 0.0003917472    1.111    0.100
       155 -14.1202    220.3923    115.9047   5.2489964890e+01   1.4433196185e+01     1.884433     1.366459   0.77  0.009239032    2.187    0.543
       156  -9.4441    119.1820    121.9039   7.5662073191e+01   3.4271879699e+01    0.2074383    0.1815992 -12.04 0.0002993086    1.271    0.213
       157  -9.9387     97.6294    117.8833   8.0932344217e+01   3.9376380018e+01    0.2616731    0.2053316  22.94 0.0006572523    1.396    0.283
       158 -10.3264     70.6998    117.2156   8.9344450971e+01   4.4049435166e+01    0.2872199     0.235597 -13.90  0.000710422    1.369    0.269
       159  -9.6526     93.7637     10.6019   4.7280550649e+01   5.8470923887e+01    0.1700424    0.1098489  68.80  0.000551376    1.613    0.380
       160 -10.0549     27.1467    116.3734   1.0397427954e+02   4.9437653600e+01    0.2090611    0.1606749 -26.24 0.0009443467    1.405    0.288
       161 -10.2893    129.0385    109.0844   6.9674749617e+01   3.5100887596e+01    0.2234785    0.2203423 -43.31 0.0003111438    1.006    0.006
       162  -9.0727    100.3610    109.2690   7.7886281305e+01   4.0877714120e+01    0.1561957    0.1203676  -1.97 0.0006114216    1.647    0.393
       163 -10.0941     11.8087    107.3235   1.0778548053e+02   5.2847894699e+01    0.2259336    0.1547327 -75.61 0.0006090398    1.374    0.272
       164  -9.2347    119.6666    107.7292   7.1853163157e+01   3.7371700910e+01    0.1546454     0.122614   3.76 0.0001368288    1.592    0.372
       165  -8.9212     71.2760    107.6804   8.6856935007e+01   4.6271683966e+01    0.1432482    0.1170547  82.52 0.0002769683    1.574    0.365
       166 -10.5441      2.6301    111.8772   1.1162216440e+02   5.2286467112e+01    0.2000748    0.1797512  34.54 0.0005863621    1.331    0.248
       167  -9.7139     88.0736    105.7317   8.0797108934e+01   4.3948797026e+01    0.2022338    0.1899064  14.06 0.0002575541    1.080    0.074
       168 -10.5238     80.7412    103.0784   8.2491408256e+01   4.5828250703e+01    0.3004809    0.2170983  22.46  0.000377961    1.518    0.341
       169  -9.8438    249.0648    103.0100   4.5775609812e+01   1.1407748359e+01    0.1902913    0.1533991  -4.85  0.001137913    1.755    0.430
