#   1 NUMBER                 Running object number                                     
#   2 MAG_AUTO               Kron-like elliptical aperture magnitude                    [mag]
#   3 X_IMAGE                Object position along x                                    [pixel]
#   4 Y_IMAGE                Object position along y                                    [pixel]
#   5 X_WORLD                Barycenter position along world x axis                     [deg]
#   6 Y_WORLD                Barycenter position along world y axis                     [deg]
#   7 A_WORLD                Profile RMS along major axis (world units)                 [deg]
#   8 B_WORLD                Profile RMS along minor axis (world units)                 [deg]
#   9 THETA_WORLD            Position angle (CCW/world-x)                               [deg]
#  10 FWHM_WORLD             FWHM assuming a gaussian core                              [deg]
#  11 ELONGATION             A_IMAGE/B_IMAGE                                           
#  12 ELLIPTICITY            1 - B_IMAGE/A_IMAGE                                       
         1  -8.1747    248.0000     11.9756   5.7815558698e+01   2.2854965621e+01    0.1897257   0.06329686 -34.51 0.0008130657    3.017    0.669
         2  -8.4967    243.0227      7.5248   5.7326113879e+01   2.4441741388e+01    0.1848387    0.1024497  78.09  0.001034548    1.598    0.374
         3  -8.4981    127.6638      4.0130   7.0327465746e+01   5.1676803397e+01    0.1960261   0.08915404  13.61 0.0007050817    4.357    0.770
         4  -8.4171    232.5290    223.4957   1.0523163497e+02  -8.2801459163e+00    0.1279906    0.1078694   8.11 0.0001396188    1.007    0.007
         5  -9.6278    203.6805    218.8197   1.0983591908e+02  -2.6715783028e+00      0.25282    0.1720324  62.28  0.001238979    2.142    0.533
         6  -8.6108    182.4187    217.7903   1.1386349965e+02   1.3450355485e+00    0.1820216    0.1281696 -28.48  0.000640585    1.659    0.397
         7  -9.0864    194.8581    215.6453   1.1099717549e+02  -5.5654611268e-01    0.2297418    0.1841545 -19.07  0.001123594    1.355    0.262
         8  -8.1467    243.6674    214.3038   1.0151331694e+02  -8.7035242631e+00    0.1117583    0.1043375  87.08 0.0005206646    1.659    0.397
         9  -9.5181    235.2544    211.1635   1.0244280862e+02  -6.8705684757e+00    0.3692171    0.2262865   4.10   0.00177359    2.170    0.539
        10  -8.3553    227.2643    210.3953   1.0377354415e+02  -5.4126276767e+00    0.1818329     0.119084  47.52 0.0009493987    1.701    0.412
        11  -9.7624    205.0191    204.8021   1.0697701935e+02  -5.4500975692e-01    0.3143771    0.1909314 -57.70  0.001406925    2.394    0.582
        12  -8.7009    184.5013    202.9859   1.1076159909e+02   3.6334930592e+00     0.196578    0.1256886 -69.75 0.0008102981    2.691    0.628
        13  -8.5193    230.8356    198.9613   1.0090229508e+02  -4.1863118593e+00    0.2624125    0.1571583 -36.01   0.00132362    1.634    0.388
        14  -9.3828    212.3270    197.6531   1.0416245183e+02  -6.4809364030e-01    0.4743263    0.2167093 -56.38  0.001533375    4.489    0.777
        15  -9.1033    151.7510    194.0165   1.1603748435e+02   1.1764633505e+01     0.191746    0.1250439 -51.05 0.0008963186    1.618    0.382
        16  -9.1358    232.4718    188.9919   9.8612631057e+01  -2.8180626795e+00    0.3187393    0.2430892  71.65  0.001625045    2.109    0.526
        17  -8.4448    193.0000    186.9314   1.0589082191e+02   5.0082307832e+00    0.2323775   0.08194245 -43.22 0.0007973626    2.907    0.656
        18 -10.7015    180.4341    184.8293   1.0808603783e+02   7.9278520310e+00     0.563743     0.369794 -71.94  0.002331113    2.468    0.595
        19  -8.9931    242.8409    184.0132   9.5724681244e+01  -3.8083116516e+00    0.2349227    0.1456297 -12.21    0.0010966    2.034    0.508
        20  -8.5537    236.3190    182.6778   9.6623000527e+01  -2.4356980312e+00    0.1289031     0.110153 -74.32 0.0003176356    1.669    0.401
        21  -8.7664    194.2129    181.3841   1.0451022051e+02   5.8330993532e+00    0.2034571    0.1353599  52.60  0.000934759    1.622    0.383
        22  -8.6231    142.9936    176.4954   1.1467654407e+02   1.7261614749e+01    0.2261242    0.1228553  63.00 0.0008106352    2.652    0.623
        23  -8.2805    155.2780    173.6783   1.1132244737e+02   1.5388837575e+01    0.1507445    0.1184797  88.09 0.0006988064    1.582    0.368
        24  -8.3455    222.2500    170.4191   9.6662463050e+01   2.3483139689e+00    0.1947265    0.1377176  55.01 0.0008208044    1.655    0.396
        25  -9.0186    209.7045    168.7133   9.8714621438e+01   5.1487479890e+00    0.3391626    0.2222435 -55.45  0.001539003    1.820    0.451
        26  -8.7949    141.5141    167.5444   1.1322589015e+02   1.9557769042e+01    0.1520409     0.144735  77.89 0.0008087827    1.016    0.016
        27  -7.8980    198.6555    164.3074   9.9968973914e+01   8.2700605428e+00    0.1499472    0.1203451 -88.56 0.0007043369    1.695    0.410
        28 -11.0863    177.3172    157.2481   1.0289824278e+02   1.4256768673e+01    0.4735365    0.3320294  -4.74  0.001932171    2.262    0.558
        29  -8.7219    231.2512    157.8062   9.2276673756e+01   2.8999106767e+00    0.2907642    0.1955229  35.91  0.001425807    1.615    0.381
        30  -9.8925    216.9946    156.7132   9.4678541649e+01   5.9525208984e+00    0.5667068    0.3628877  38.07  0.002632377    1.668    0.400
        31 -10.9326    171.5477    153.8545   1.0340143094e+02   1.6230748151e+01    0.4326537    0.4003912 -46.98  0.002271041    1.078    0.072
        32  -8.0590    126.3311    156.3337   1.1452563360e+02   2.5169130463e+01    0.1539762    0.1234931 -11.69 0.0007052168    1.727    0.421
        33  -8.6346    155.0332    159.3083   1.0834816674e+02   1.8593725214e+01    0.2516011    0.1245497  25.92 0.0003622208    4.254    0.765
        34  -8.7699    141.8074    152.0283   1.0985305868e+02   2.3015533234e+01    0.2613384    0.1847572 -21.18   0.00109204    2.025    0.506
        35  -9.7659    212.9590    149.6837   9.3876030764e+01   8.1374836742e+00    0.3439957    0.2715108  15.35  0.001701848    1.518    0.341
        36  -9.2702    246.4042    146.9129   8.7274185011e+01   1.9379859339e+00    0.3418387    0.2455295  61.56  0.001762282    1.755    0.430
        37  -8.3107    158.0000    146.9890   1.0489918299e+02   2.0683896909e+01    0.2609289   0.08864722 -45.89 0.0008004083    2.928    0.659
        38  -9.3215    196.7351    144.9681   9.5999379054e+01   1.2559842831e+01    0.2212451    0.2088121 -40.60  0.001181403    1.031    0.030
        39  -9.8872    170.2289    142.0227   1.0095911595e+02   1.9065989159e+01    0.4590793    0.2383604 -51.47  0.001741025    2.041    0.510
        40  -8.4670    205.5397    143.4630   9.3892851640e+01   1.0940052924e+01    0.1502493    0.1441155 -27.94 7.632876e-05    1.022    0.022
        41 -10.9829    182.4276    141.9742   9.8282264391e+01   1.6348520142e+01    0.4561713    0.3673541  68.17  0.002190239    1.405    0.288
        42  -8.0970    156.3218    135.3059   1.0252954136e+02   2.3634318603e+01    0.1581482    0.1276729   1.73 0.0005230987    1.639    0.390
        43  -9.4300    240.9236    139.2085   8.6497854259e+01   4.3764593506e+00    0.2647731    0.1964156  25.16  0.001345568    1.653    0.395
        44  -8.7476    150.0009    127.4849   1.0210534876e+02   2.6765397580e+01    0.2219876    0.1393541  22.91  0.000809569    2.483    0.597
        45  -9.3339    208.4046    126.3851   8.9326566255e+01   1.3669201645e+01    0.3722816    0.1500956  56.06  0.001260396    2.911    0.656
        46  -9.9179    221.9802    121.9666   8.5811991898e+01   1.1509592227e+01    0.2966166    0.2041055 -89.95  0.001273346    2.197    0.545
        47  -8.0829    235.6953    123.3384   8.3800624118e+01   8.3228609589e+00    0.1489515    0.1074983 -67.10 0.0005460851    1.674    0.403
        48 -10.9713    244.0833    118.2234   8.1303195258e+01   7.5101568746e+00    0.7657387    0.4322332 -59.06  0.003267111    2.201    0.546
        49  -9.9040    199.6516    119.8101   8.9410670753e+01   1.6946900264e+01    0.4501263    0.2626749 -28.46     0.001793    2.051    0.513
        50  -9.1476    148.4500    118.7178   1.0025695151e+02   2.9027290409e+01    0.2814158    0.1983461  25.86  0.001191602    1.818    0.450
        51  -8.2677    189.6195    114.3014   9.0023292350e+01   2.0371966010e+01    0.1639771    0.1213488 -82.77 0.0007023594    1.772    0.436
        52  -8.4668    100.4937    110.5138   1.1066821676e+02   4.0721652712e+01    0.1481216    0.1400331 -58.84 0.0008100474    1.047    0.045
        53 -10.5545    242.7424    108.7192   7.9369352485e+01   9.4732580529e+00    0.6505817     0.263952  53.53   0.00256648    2.693    0.629
        54  -8.8424    171.1194    107.0270   9.2011583795e+01   2.6208290066e+01    0.3476487    0.2177451 -24.80  0.001375085    2.078    0.519
        55  -7.7954    222.6672    107.6825   8.2323018328e+01   1.4014338072e+01    0.1463667    0.1178256   9.04 0.0006192075    1.691    0.409
        56  -9.6970    184.7426    105.5268   8.8772178257e+01   2.3258441832e+01    0.3829046    0.2996975 -29.81   0.00182502    1.376    0.273
        57  -9.3323    165.8385    105.3908   9.2735110585e+01   2.7790783513e+01    0.2297172    0.1444645  40.50 0.0009494549    1.730    0.422
        58  -8.6784    101.3355    105.3301   1.0907892888e+02   4.1716849931e+01    0.1534567    0.1155401 -11.74 0.0007052103    1.729    0.422
        59  -9.5660    243.3142    103.8162   7.8176676574e+01   1.0214243665e+01    0.5357202     0.174494 -47.69   0.00181337    3.057    0.673
        60 -10.0549    213.3324     99.0528   8.1822728105e+01   1.7723908239e+01    0.5880004    0.4034979 -31.74  0.002757775    1.540    0.351
        61  -9.3597    218.7868     96.1688   8.0210557330e+01   1.6985587032e+01    0.4503195    0.2895108  78.32  0.001977631    1.994    0.498
        62  -9.2696     82.4991     95.0064   1.1182122686e+02   4.7199450674e+01     0.223308     0.130119 -47.76  0.001030137    1.582    0.368
        63  -9.3973    231.5276     90.5294   7.6879133326e+01   1.5087506808e+01     0.455796    0.1438393 -44.96  0.001549302    2.904    0.656
        64  -8.7157    177.5202     93.4987   8.7082505906e+01   2.7310812191e+01     0.151566    0.1506952  85.19 0.0008096992    1.057    0.054
        65  -8.1954    165.5081     92.4898   8.9329412774e+01   3.0404623421e+01     0.153084    0.1506729  89.83 0.0003391544    1.017    0.016
        66  -9.7968    245.7855     84.9159   7.3580308784e+01   1.2914882264e+01    0.3851273    0.2093983 -42.82   0.00180943    1.626    0.385
        67  -9.1570    205.1884     84.4751   7.9594207563e+01   2.2256156494e+01    0.3454265    0.2500478  -6.86  0.001533957    2.107    0.525
        68  -9.0251    210.1182     85.6203   7.9057202294e+01   2.0880999104e+01     0.443601    0.2440248 -53.30  0.001856269    1.909    0.476
        69  -8.0868    192.3218     88.3217   8.2849307026e+01   2.4674938361e+01    0.1516212    0.1214075  16.93 0.0005722002    1.675    0.403
        70  -8.7154    189.2333     90.0443   8.3873963295e+01   2.5110664206e+01    0.2105734    0.1257458 -38.34 0.0008893951    1.670    0.401
        71  -9.3540     50.5096     85.4746   1.1937769878e+02   5.3647033330e+01    0.1319585    0.1109959 -38.32 0.0008099715    1.022    0.021
        72  -9.4513    188.8695     83.2816   8.2170712199e+01   2.6417593462e+01    0.3953263    0.2348482  84.21  0.001469896    2.650    0.623
        73  -9.4200    232.7209     82.3884   7.4811383465e+01   1.6206266233e+01    0.2637945    0.1539112 -50.21  0.001223527    1.600    0.375
        74  -9.7549    239.5990     79.7950   7.3260785671e+01   1.5107322008e+01    0.2967489     0.231575 -48.31  0.001644964    1.156    0.135
        75 -10.4751    240.5192     75.2349   7.2106462301e+01   1.5649577117e+01    0.4084793    0.3092202  27.41  0.002094153    1.998    0.499
        76  -8.7859    197.3298     79.6834   7.9720278379e+01   2.4985594103e+01    0.1578144    0.1112161 -73.55  0.000333148    1.682    0.405
        77  -9.1477     64.7299     78.9779   1.1292644055e+02   5.3172823999e+01    0.2730849    0.1636312  -0.61  0.001176728    2.721    0.633
        78  -7.9753    228.3514     78.2933   7.4480881610e+01   1.7879794182e+01    0.1368437    0.1124651  24.35 0.0007030809    1.678    0.404
        79  -9.1728    182.5997     73.6032   8.0754960051e+01   2.9632495242e+01    0.4410538    0.2150342 -41.80  0.001763935    2.025    0.506
        80  -8.3882    188.9816     74.0334   7.9713264777e+01   2.7990258859e+01    0.2317897     0.185402  13.39  0.001119896    1.711    0.415
        81  -9.9868    211.3913     71.8723   7.5452759103e+01   2.2907730352e+01    0.2823072    0.2322192 -25.54  0.001495811    1.408    0.290
        82 -10.2656    243.6482     66.1038   6.9667763970e+01   1.6411565242e+01    0.4253214    0.2384659 -58.39  0.002019478    1.779    0.438
        83  -8.8565    220.3964     65.8059   7.2653815700e+01   2.1749967141e+01    0.1960881    0.1354003 -26.34 0.0009520833    1.731    0.422
        84  -9.5719    121.1703     58.6635   8.9722030617e+01   4.6652695119e+01    0.3299531    0.1555577  31.95  0.001166959    3.054    0.673
        85 -10.4328    206.3041     57.1708   7.2570653874e+01   2.6451277696e+01    0.3978118    0.2453662  85.47  0.001801755    1.895    0.472
        86  -9.4465    238.3199     66.9542   7.0522642238e+01   1.7458457481e+01    0.2759275    0.2171386 -75.55  0.001558338    1.209    0.173
        87 -10.2319    226.1191     55.2708   6.9402942359e+01   2.2031017036e+01    0.5397109    0.3010252  71.51  0.002545191    1.830    0.453
        88  -8.0522    203.2930     49.6296   7.1123984027e+01   2.8295083080e+01    0.1517853    0.0970791 -66.60 0.0004348597    1.724    0.420
        89  -8.4661    197.5058     48.4834   7.1673286552e+01   2.9871151208e+01    0.2533749     0.112266 -45.94  0.001026867    2.257    0.557
        90  -9.3158    167.8710     48.2296   7.6430932075e+01   3.7215710527e+01    0.3112314    0.1890588  57.71   0.00146163    1.523    0.343
        91  -9.6817    223.9705     45.4050   6.7385154884e+01   2.3962981136e+01    0.3954381    0.2732018  32.08  0.001936575    2.282    0.562
        92  -9.1863    212.1710     44.6345   6.8686735098e+01   2.6861136099e+01     0.327723    0.1193693 -47.80  0.001239427    2.739    0.635
        93  -8.3553    163.2571     43.9721   7.6047885356e+01   3.8937545394e+01     0.180582    0.1228671 -33.65 0.0008929247    1.574    0.365
        94  -8.7985    159.6240     39.8389   7.5510261028e+01   4.0374394016e+01    0.2024927    0.1218446 -44.47 0.0009514602    1.789    0.441
        95  -9.4018    168.6157     37.8078   7.3357570751e+01   3.8434693330e+01    0.1952197    0.1229162 -44.85 0.0009479635    1.681    0.405
        96  -9.2055    243.4090     35.8000   6.3113769719e+01   2.0866128681e+01    0.2096509    0.1470432  52.97  0.001185586    1.725    0.420
        97  -9.4560    108.3912     33.6021   8.4590771890e+01   5.2915613561e+01     0.255944    0.1256047  66.97 0.0009634511    3.340    0.701
        98  -9.0608    236.9838     30.9141   6.2714217968e+01   2.2942241912e+01    0.3056571    0.2259564  -5.87  0.001641769    2.292    0.564
        99  -8.1071    183.1827     25.6073   6.7808370044e+01   3.6347971201e+01    0.1963954     0.107717  57.01 0.0009391987    1.663    0.399
       100  -8.8474    225.8809     22.7468   6.2054009301e+01   2.6494666927e+01    0.2797742    0.1585921  41.93  0.001302406    2.707    0.631
       101  -8.5611    209.4386     21.2666   6.3461569868e+01   3.0514728621e+01    0.2398677     0.141667 -82.03  0.001190861    1.787    0.440
       102  -8.5055    193.8245     20.8200   6.5188574300e+01   3.4309045169e+01    0.1903277    0.1402708 -72.00 0.0007480989    1.338    0.253
       103  -7.8129    223.3126     18.3564   6.1343189470e+01   2.7610707113e+01    0.1218807   0.09488391  41.24 0.0007044023    1.738    0.425
       104  -8.1383    241.3219    240.3233   1.0662821151e+02  -1.1977500744e+01    0.1264396   0.08009025   6.05 0.0003457816    1.679    0.404
       105  -8.6297    221.5983    234.7540   1.0924617586e+02  -8.1572066264e+00     0.164037    0.1176584 -44.04 0.0009604028    1.697    0.411
