#   1 NUMBER                 Running object number                                     
#   2 MAG_AUTO               Kron-like elliptical aperture magnitude                    [mag]
#   3 X_IMAGE                Object position along x                                    [pixel]
#   4 Y_IMAGE                Object position along y                                    [pixel]
#   5 X_WORLD                Barycenter position along world x axis                     [deg]
#   6 Y_WORLD                Barycenter position along world y axis                     [deg]
#   7 A_WORLD                Profile RMS along major axis (world units)                 [deg]
#   8 B_WORLD                Profile RMS along minor axis (world units)                 [deg]
#   9 THETA_WORLD            Position angle (CCW/world-x)                               [deg]
#  10 FWHM_WORLD             FWHM assuming a gaussian core                              [deg]
#  11 ELONGATION             A_IMAGE/B_IMAGE                                           
#  12 ELLIPTICITY            1 - B_IMAGE/A_IMAGE                                       
         1 -16.7995    223.1784    139.0759   5.1106237339e+01   1.2223422975e+01     1.420713     1.259535 -59.12  0.009328279    1.736    0.424
         2 -14.7062    221.1599     43.7433   2.9534317691e+01   2.4838831804e+01    0.4335042    0.1988196 -43.35   0.00205061    1.959    0.489
         3 -14.0315    248.5331    249.3966   6.5293543916e+01  -2.8914991412e+00    0.3234883    0.1492197  17.79  0.002258559    1.612    0.380
         4 -14.9066    214.7049    245.3515   7.0093799413e+01   9.2601330296e-01    0.7704474    0.4050007   2.76  0.005015563    1.825    0.452
         5 -15.0218    192.6587    247.5072   7.4137834736e+01   3.1483380095e+00    0.7089793    0.3243828  31.49  0.004432278    1.672    0.402
         6 -14.2090     83.6903    243.7921   9.5060465444e+01   1.6438135315e+01     0.465373    0.3555743  60.41  0.002875151    1.452    0.311
         7 -14.1546     45.0896    239.4164   1.0286955576e+02   2.1178935182e+01    0.6562868    0.2821138  50.00   0.00386823    1.844    0.458
         8 -15.1791    107.7408    235.6426   8.9347028301e+01   1.4861051229e+01     1.351243    0.4313279  43.74  0.006030702    2.862    0.651
         9 -14.6587    243.9993    237.3405   6.4344375398e+01  -1.3959152436e+00    0.2782364    0.1365774  22.19  0.001940445    1.532    0.347
        10 -15.1243    128.5105    224.9154   8.3853777419e+01   1.3857351492e+01    0.9601156    0.5222392  38.90  0.005591001    1.525    0.344
        11 -15.1904      7.2657    132.5442   1.0760331356e+02   4.6236426615e+01     1.095679    0.7860826  81.81  0.006576091    1.266    0.210
        12 -15.0068     46.1791    215.5329   1.0143387025e+02   2.5166568664e+01     1.009959    0.4244315  65.76  0.004926013    2.805    0.644
        13 -16.1037     34.0133    191.5831   1.0303030160e+02   3.0942342892e+01      2.57874    0.9149815  71.45   0.01030592    3.750    0.733
        14 -14.4658     29.9816    221.4790   1.0534594678e+02   2.5649481257e+01     0.751803    0.3395456  44.14  0.004446974    1.583    0.368
        15 -14.0932     32.9985    211.7654   1.0426304337e+02   2.7132827742e+01    0.7978401    0.2681705  77.00  0.003273801    4.252    0.765
        16 -15.5121     20.4860    203.1908   1.0681422074e+02   2.9861243936e+01     1.062074    0.6512742  73.58  0.006820991    1.568    0.362
        17 -15.0713      8.7530    198.7854   1.0942025645e+02   3.1654080901e+01      2.28813    0.4700135  71.65  0.007381848    6.334    0.842
        18 -15.0183     16.7564    185.9747   1.0709063450e+02   3.3588283283e+01     1.199461    0.4830666  70.06  0.005393686    2.469    0.595
        19 -15.2369      5.1366    168.2858   1.0950355018e+02   3.8182512218e+01     1.432688    0.6974873  83.30  0.007691679    1.953    0.488
        20 -14.0963    116.6660    223.8016   8.6266450704e+01   1.5544360698e+01    0.5797506    0.3007968  30.91  0.002802414    1.450    0.310
        21 -14.2962     77.6228    191.5466   9.2037132244e+01   2.6160656370e+01     1.645527    0.5108513  47.82  0.006127318    3.309    0.698
        22 -14.9672     65.0943    199.7411   9.5884815078e+01   2.6077346233e+01     1.507457    0.7565161  82.03  0.007097007    2.955    0.662
        23 -14.8203     60.8191    178.6660   9.5157017836e+01   3.0800545451e+01     1.073686    0.5096757  64.28  0.004674761    2.685    0.628
        24 -15.4684     59.2588    168.5567   9.4621757871e+01   3.3148335195e+01     1.615531    0.8162981  76.43  0.006945058    2.767    0.639
        25 -12.0477     86.8308    214.8575   9.2036958473e+01   2.0743713168e+01    0.1748278     0.115743  45.92 0.0007738781    1.317    0.240
        26 -13.6497     78.0650    213.1305   9.3907124652e+01   2.2098444894e+01    0.3202686    0.2465123  36.22  0.001927167    1.007    0.007
        27 -15.9286    162.0803    181.4004   7.0604951884e+01   1.5781527243e+01      1.17503    0.7211952 -29.33  0.006374786    1.807    0.446
        28 -13.1045    115.4940    156.9876   7.7561229000e+01   2.7640975129e+01    0.2026559    0.1422167 -51.71  0.001041339    1.615    0.381
        29 -14.2035    237.9907    248.5287   6.6780166793e+01  -1.7870732697e+00    0.2657878    0.1378739  15.42  0.001924559    1.387    0.279
        30 -14.1388    111.6319    135.5920   7.4710140653e+01   3.2757042705e+01    0.5158381     0.298531 -57.03  0.002272597    1.993    0.498
        31 -13.9565     47.2918    120.5528   9.2851175045e+01   4.5868927342e+01    0.6359906    0.4438514 -87.72  0.003240654    1.514    0.340
        32 -14.1065     40.0158    116.1346   9.4896478773e+01   4.7754429691e+01    0.4171839    0.2191931  36.70   0.00191048    1.765    0.433
        33 -14.5724     65.1955    118.1366   8.6138912864e+01   4.4247983259e+01    0.9805579    0.6101204  72.72   0.00423568    2.121    0.529
        34 -13.1612     48.6710    150.3366   9.5888082157e+01   3.8473278492e+01     0.471913    0.1429836  29.78  0.001778409    2.720    0.632
        35 -15.5240     17.2018    154.1476   1.0559593389e+02   4.0479720617e+01      1.94674    0.5948157  73.61  0.006782912    4.134    0.758
        36 -14.3306     77.9591     95.3425   7.6795760445e+01   4.7910679263e+01    0.5672613    0.4006236 -60.34  0.002671114    1.488    0.328
        37 -14.1333     39.6873     93.1091   9.1637967036e+01   5.3701595498e+01    0.2642961    0.1887982  39.51  0.001350422    1.389    0.280
        38 -15.9899     11.1614     80.1818   1.0249977483e+02   5.9229523347e+01     1.581565    0.5430937 -57.26  0.006340849    2.522    0.603
        39 -13.6523    163.5047     54.0043   4.0125375483e+01   3.6822089629e+01    0.2323073    0.1429277 -30.80  0.001044939    1.626    0.385
