#   1 NUMBER                 Running object number                                     
#   2 MAG_AUTO               Kron-like elliptical aperture magnitude                    [mag]
#   3 X_IMAGE                Object position along x                                    [pixel]
#   4 Y_IMAGE                Object position along y                                    [pixel]
#   5 X_WORLD                Barycenter position along world x axis                     [deg]
#   6 Y_WORLD                Barycenter position along world y axis                     [deg]
#   7 A_WORLD                Profile RMS along major axis (world units)                 [deg]
#   8 B_WORLD                Profile RMS along minor axis (world units)                 [deg]
#   9 THETA_WORLD            Position angle (CCW/world-x)                               [deg]
#  10 FWHM_WORLD             FWHM assuming a gaussian core                              [deg]
#  11 ELONGATION             A_IMAGE/B_IMAGE                                           
#  12 ELLIPTICITY            1 - B_IMAGE/A_IMAGE                                       
         1 -14.3871     68.7617    145.1014   1.0143320429e+02   3.7148019495e+01     5.198618     2.718732  72.49  0.005593701    3.876    0.742
         2 -14.2750    208.0709     37.7885   4.1037406253e+01   2.8930948951e+01     1.845043     1.525973  17.63  0.008291039    1.710    0.415
         3 -13.9191    223.4232     22.3716   3.5869896519e+01   2.7389978110e+01    0.9394039    0.8629847  47.42  0.002856221    1.412    0.292
         4 -12.0399    248.1437      3.2862   3.0032704153e+01   2.4342247441e+01    0.4063095    0.3029991  60.82  0.002501575    1.646    0.393
         5 -11.9887    244.1758      2.3894   3.0105126983e+01   2.5234538425e+01    0.3983915    0.2064019  79.23  0.001683346    1.793    0.442
         6 -10.4639     49.0988      2.9034   6.3109857889e+01   6.8314027102e+01    0.2846348    0.1700088  56.95  0.001326221    2.363    0.577
         7 -10.2647      2.4021      2.7141   8.7098070554e+01   7.4204695654e+01      0.19966   0.09170301 -45.05  0.001141605    2.167    0.538
         8 -10.9412    109.2736    201.7179   1.0017784729e+02   1.7414459437e+01    0.4099769    0.2842013 -44.41  0.001375015    1.638    0.389
         9 -10.3022    140.1303    249.8739   1.0014953284e+02   3.3155253147e+00    0.1973342    0.1523103  50.32  0.001241653    1.269    0.212
        10 -12.9666     64.3805    174.0692   1.0713398601e+02   3.0550075870e+01     1.214389    0.5793467 -34.18  0.003884018    4.801    0.792
        11 -15.3555      3.6447    180.8596   1.2235328183e+02   3.5319686618e+01     9.350412     0.158097 -74.83  0.001296489   11.015    0.909
        12 -13.4310     85.8549    222.0005   1.0808071481e+02   1.6680495835e+01     1.175359    0.7882537  46.93  0.000515539    1.309    0.236
        13 -13.9577     17.2599    217.4339   1.2192604234e+02   2.6030909365e+01    0.9116188    0.4894243  47.64  0.002690155    1.613    0.380
        14 -14.9387      9.2579    207.4468   1.2289414995e+02   2.8921369258e+01     1.203067     1.039778 -29.03  0.006768507    1.767    0.434
        15 -13.2693     34.2568    203.2471   1.1739368039e+02   2.7342782563e+01    0.5341008     0.362092 -50.94  0.001197045    1.808    0.447
        16 -15.7282     42.2146    193.1475   1.1471060345e+02   2.8748343413e+01     5.076345     2.218827  72.18   0.01985661    3.226    0.690
        17 -11.0013    207.0717    196.4892   7.7854852102e+01   1.6745330516e+00    0.4480349    0.2083101 -22.25  0.001619991    3.415    0.707
        18 -16.1528     46.0921    246.9692   1.1837031474e+02   1.6923896610e+01     9.245213       2.9033  26.07   0.02538948    9.147    0.891
        19  -9.0762    120.0194    194.0046   9.6460910548e+01   1.7315574995e+01    0.1636524    0.1575453  60.78            0    1.027    0.026
        20  -9.5556     99.3741    180.7874   9.9318234786e+01   2.3752365580e+01    0.2361575    0.1821258  49.77 0.0006865403    1.261    0.207
        21  -8.9896    149.2511    176.6418   8.6417706291e+01   1.5861658071e+01    0.1443771    0.1177946 -88.39 0.0003960443    1.607    0.378
        22 -13.5274     64.0548    157.7379   1.0483898340e+02   3.4619066334e+01    0.5251474    0.3558219 -46.61  0.001267056    1.564    0.360
        23 -12.4956     84.0093    155.3467   9.8997985252e+01   3.2349431590e+01    0.8796111    0.4871696 -42.35   0.00153763    2.059    0.514
        24 -12.2146     76.8931    161.4526   1.0197098626e+02   3.1904507247e+01    0.4882011    0.4181789 -39.39 0.0005891429    1.304    0.233
        25  -9.4311    134.2757    246.6441   1.0091726907e+02   4.7438661723e+00    0.1225098   0.08956069  64.86 0.0007006255    1.650    0.394
        26  -9.9715    174.5668    149.0267   7.4723240623e+01   1.6769477164e+01    0.2721017    0.2628537  71.74  0.000863989    1.153    0.133
        27 -10.2844    134.0000    146.4760   8.3818944253e+01   2.5580054441e+01    0.8341762    0.1548631 -50.91  0.001829302    6.122    0.837
        28 -10.1474    133.0000    140.4807   8.2709955518e+01   2.7166934356e+01    0.6498356    0.1694126 -50.47  0.001741584    4.026    0.752
        29 -10.4100    127.0009    173.5162   9.1169450096e+01   2.0673987309e+01    0.2376966    0.1439855  38.45   0.00104241    1.620    0.383
        30 -10.3780     31.5886    143.7770   1.1178005593e+02   4.1822134806e+01    0.3342418    0.2509761 -41.81   0.00191696    1.474    0.322
        31 -10.2741     98.4718    141.5195   9.2285640445e+01   3.3408763302e+01    0.3238756    0.2787932 -28.62 0.0008276906    1.278    0.218
        32  -9.7920    101.3587    138.3437   9.0792497895e+01   3.3683613900e+01    0.3325456    0.2348373 -22.76 0.0008253314    1.893    0.472
        33 -12.5303     86.3261    140.1244   9.5449050279e+01   3.5773367415e+01    0.3208072    0.2714003 -45.74  0.000519878    1.176    0.150
        34  -9.0113    199.1912    141.2610   6.7793674286e+01   1.3331407674e+01      0.19999    0.1697051 -61.36 0.0008127516    1.353    0.261
        35 -10.6361     75.6274    136.5151   9.7836893620e+01   3.8321427323e+01    0.3674962    0.2059412  56.21  0.001343377    2.290    0.563
        36  -9.8988     26.0356    134.6772   1.1214236855e+02   4.4592834950e+01    0.2501072     0.168781  56.01  0.001369478    1.639    0.390
        37 -10.9243    107.5289    130.8380   8.7357408845e+01   3.4389994197e+01    0.5819469     0.347948  34.43  0.002448568    1.787    0.440
        38 -10.8081    135.4980    128.1516   7.9113145398e+01   2.9488187577e+01    0.4778013    0.2532462 -49.70  0.001850902    1.893    0.472
        39 -10.9916     96.8847    126.4821   8.9409445876e+01   3.7366157779e+01    0.3461193    0.2713598   3.87  0.001409183    1.616    0.381
        40  -9.1188    115.6633    124.6960   8.3597797881e+01   3.4303967058e+01    0.1598154    0.1239058  -8.66  0.000674125    1.669    0.401
        41  -9.9933    146.1239    171.6946   8.6174983561e+01   1.7524863445e+01    0.2651051    0.2078974 -63.14  0.001302407    1.445    0.308
        42  -9.7581    106.5176    119.2082   8.4838705959e+01   3.7356591592e+01    0.2344118    0.2096607  35.09 0.0003005129    1.159    0.137
        43  -9.2105    168.0471    112.9989   6.7405462965e+01   2.5660296341e+01     0.253989    0.1926849 -77.92  0.001125823    1.768    0.434
        44  -9.3177    135.0000    112.9691   7.5349387969e+01   3.2996481822e+01    0.2653506   0.08855712 -44.67  0.000801602    2.937    0.659
        45 -10.0385    205.3604    110.2399   5.9296435641e+01   1.7944420589e+01    0.2869327     0.207167  45.48 0.0009396523    1.506    0.336
        46 -11.5287    195.5024    199.0191   8.0641936626e+01   3.1618330133e+00    0.6755468    0.4468511  57.97  0.002670432    2.313    0.568
        47  -9.4161    134.5071    105.5171   7.3464693871e+01   3.4724244192e+01    0.2923787    0.1454505 -53.49  0.001038954    2.334    0.572
        48 -11.4491    241.4225     99.2629   5.1080815502e+01   1.2473836183e+01    0.2547162    0.1678966 -61.45 0.0002582191    1.713    0.416
        49 -10.7001     53.3490     91.1819   9.4899525326e+01   5.2411163410e+01    0.3426458    0.2367748 -64.14  0.001147902    1.508    0.337
        50  -9.8667     41.7711     91.9691   9.9271672127e+01   5.3555551898e+01    0.2093938    0.1913784  -9.70 0.0004884998    1.167    0.143
        51 -10.9614    249.0223     84.2004   4.6790611376e+01   1.3422878051e+01    0.3174723    0.1339063 -55.55  0.001237014    2.935    0.659
        52  -9.1322     71.7674     82.8470   8.6024024973e+01   5.1713727152e+01    0.1823803    0.1690332  82.25 0.0004918209    1.337    0.252
        53  -8.9724    160.4901     82.4574   6.0765914514e+01   3.3346740510e+01    0.1489253    0.1484466 -71.81 0.0002635532    1.021    0.020
        54  -9.7225     46.8039     61.8359   8.8927104016e+01   5.9600773448e+01    0.2013813    0.1855698  23.92  0.000437844    1.264    0.209
        55 -10.7571     13.5311     59.9758   1.0249577782e+02   6.3123052836e+01    0.2428437    0.1805839 -50.69 0.0004211502    1.129    0.115
        56 -13.4658    199.1640     43.4788   4.3543576639e+01   3.0243538231e+01     1.311069    0.7047638  43.34  0.002904383    2.431    0.589
        57  -9.7823    173.4644    242.9823   9.2519402279e+01  -6.4227880918e-01    0.1988194    0.1848207 -69.16 0.0008948239    1.480    0.324
        58 -12.4989    216.3278     29.5196   3.8175916809e+01   2.8102734065e+01    0.4533198    0.3749257  50.02  0.001042239    1.465    0.317
        59  -9.3794    171.1500    239.1026   9.2401819903e+01   3.2368578124e-01    0.2088626    0.1839853 -78.42  0.001002276    1.640    0.390
        60 -10.2552    136.3520     42.6426   5.3842515322e+01   4.5560926894e+01    0.2611956    0.2159402 -84.56 0.0004661308    1.406    0.289
        61  -8.7109    138.3194     36.6471   5.1484446693e+01   4.5879644200e+01     0.145586    0.1052282 -69.25 0.0007047105    1.747    0.428
        62  -9.5423    189.5288     15.0529   3.7493690273e+01   3.5946586671e+01    0.1821191    0.1230774 -34.48 0.0006573399    1.563    0.360
        63 -15.8157      8.0991    241.0731   1.2491792451e+02   2.2169155805e+01     2.081475     1.692582 -76.29   0.01626859    1.432    0.302
        64 -10.8736    192.3639    193.5369   8.0239641801e+01   4.6745366618e+00    0.6442612    0.3684055 -65.75  0.002135675    4.795    0.791
        65 -11.6590     58.8725    220.6777   1.1369978452e+02   2.0625823501e+01    0.3156244    0.2931372  41.42  0.001454769    1.283    0.220
