#   1 NUMBER                 Running object number                                     
#   2 MAG_AUTO               Kron-like elliptical aperture magnitude                    [mag]
#   3 X_IMAGE                Object position along x                                    [pixel]
#   4 Y_IMAGE                Object position along y                                    [pixel]
#   5 X_WORLD                Barycenter position along world x axis                     [deg]
#   6 Y_WORLD                Barycenter position along world y axis                     [deg]
#   7 A_WORLD                Profile RMS along major axis (world units)                 [deg]
#   8 B_WORLD                Profile RMS along minor axis (world units)                 [deg]
#   9 THETA_WORLD            Position angle (CCW/world-x)                               [deg]
#  10 FWHM_WORLD             FWHM assuming a gaussian core                              [deg]
#  11 ELONGATION             A_IMAGE/B_IMAGE                                           
#  12 ELLIPTICITY            1 - B_IMAGE/A_IMAGE                                       
         1 -14.4477     68.7507    145.3959   1.0199816164e+02   3.7524377600e+01     5.191508     2.646042  74.04  0.004680169    4.244    0.764
         2 -13.7841    228.7340     18.3477   3.5173794551e+01   2.6729953786e+01     1.049511     0.895348  49.03  0.002603096    1.533    0.348
         3 -13.7909    202.2052     41.2437   4.3304926132e+01   2.9948036669e+01     1.369999     1.176866  -2.07  0.004683929    1.537    0.349
         4 -13.8025    210.8608     36.0692   4.1006273105e+01   2.8600412173e+01     1.247513    0.9992239 -44.36  0.005023775    1.214    0.176
         5 -10.2666    124.2250      4.6047   4.3691512639e+01   5.2916453157e+01    0.2880785    0.1910279 -73.72  0.001261561    1.918    0.479
         6 -11.1647    248.7407      2.1061   3.0375974271e+01   2.4303365266e+01    0.3705651    0.2006647  87.96  0.002190633    1.699    0.411
         7  -9.8649      2.0000      3.0024   8.7054094788e+01   7.4708679093e+01    0.1741677   0.05060183 -43.73 0.0008108785    3.001    0.667
         8 -13.3499     31.1432    205.7355   1.1862008797e+02   2.7712538816e+01    0.6538709    0.4519528 -48.44  0.003559041    1.937    0.484
         9 -13.5526     45.4596    217.0486   1.1657266440e+02   2.3610521521e+01     1.380777    0.7336383  80.12  0.007171434    1.946    0.486
        10 -13.5853      4.9413    184.5725   1.2263674919e+02   3.5001059094e+01     1.552383     0.653506  89.95  0.003448194    2.136    0.532
        11 -13.6908     85.8485    226.7125   1.0912084335e+02   1.6199810333e+01     1.057929    0.8796972  81.71  0.006826143    1.151    0.131
        12 -15.6330     57.8496    246.9619   1.1654891149e+02   1.6047942815e+01     8.953501     2.648799  28.45   0.01365929    9.302    0.892
        13  -9.1819     99.4824    181.0022   9.9942889880e+01   2.4085696419e+01    0.2060937    0.1376228 -60.43 0.0004550806    1.498    0.332
        14 -12.0365     59.3813    178.5763   1.0944269609e+02   3.0609892453e+01    0.4252451    0.3020038 -36.32  0.001134056    1.935    0.483
        15 -11.9792     64.8621    173.0363   1.0735117811e+02   3.1216483825e+01    0.3261538     0.267812 -46.31 0.0005353987    1.405    0.288
        16  -9.6553    150.2954    178.8194   8.7444914495e+01   1.5470626298e+01    0.4035625    0.2293588 -72.75  0.001352208    3.634    0.725
        17  -9.6659    144.1577    179.1537   8.8921562109e+01   1.6554880945e+01    0.2302866     0.203739  -2.48 0.0007707704    1.271    0.213
        18 -13.5171     62.0557    159.3227   1.0610058804e+02   3.4962789308e+01    0.5574871    0.3633839 -47.79  0.001843186    1.652    0.395
        19 -11.8454     74.9503    163.4205   1.0333510047e+02   3.2145720938e+01    0.3944994     0.312896  45.47 0.0003895946    1.285    0.222
        20 -12.7456     82.0102    157.2217   1.0043384945e+02   3.2614088422e+01    0.8810772    0.6884218 -47.99  0.001372116    1.338    0.253
        21 -15.2404      7.8774    239.9162   1.2519142323e+02   2.3065554805e+01     2.187595     1.448023 -77.36   0.01568305    1.489    0.328
        22 -12.6868     17.4760    217.4654   1.2220518794e+02   2.6625733164e+01    0.3528233    0.2886091 -58.35  0.002503952    1.596    0.373
        23 -10.1662    124.5725    153.5087   8.8529245095e+01   2.6082359886e+01    0.2913471    0.2430883  84.79 0.0002004772    1.370    0.270
        24  -9.1993    174.9852    149.2557   7.5638265489e+01   1.6809629276e+01    0.1945123    0.1310171  44.14 0.0003730042    1.523    0.344
        25 -10.3238    134.2692    147.4558   8.4764450263e+01   2.5586597256e+01    0.8996214     0.197077 -53.41  0.001937719    6.500    0.846
        26  -8.4731     46.2681    167.3207   1.1129382060e+02   3.4964968104e+01    0.1296232   0.09444027 -47.73  0.000226031    1.562    0.360
        27  -9.6844    230.3153    166.3100   6.8570828939e+01   2.9978714511e+00    0.1389753   0.09817883  -3.03 0.0003424758    1.634    0.388
        28 -10.8196     29.9890    143.7746   1.1260529903e+02   4.2519694230e+01     0.351911    0.3132405  12.70  0.001487975    1.426    0.299
        29 -10.8557     97.1667    142.8292   9.3557894202e+01   3.3688019229e+01    0.3929283    0.3267813 -14.44  0.001341297    1.520    0.342
        30  -9.9435    100.0223    139.5143   9.2067156415e+01   3.4000655193e+01    0.3251046    0.2391734   8.24  0.001451109    1.934    0.483
        31 -12.3725     85.0956    141.2522   9.6607646089e+01   3.6094233399e+01    0.3181638    0.2624645 -48.66 0.0004966669    1.208    0.172
        32 -11.4542     75.2524    136.1552   9.8413554700e+01   3.8894649470e+01    0.3502593    0.2676628  68.48 0.0009294963    1.477    0.323
        33 -10.8672    107.3152    131.3939   8.8224066628e+01   3.4644447560e+01    0.5090967     0.361282  38.30  0.001675816    1.476    0.323
        34 -11.5474     67.7242    129.0128   9.9214283185e+01   4.1777174004e+01    0.4411775    0.2497587  56.27  0.001625614    2.234    0.552
        35 -10.1765     66.5077    125.4844   9.8866452154e+01   4.2828804215e+01    0.2561971    0.2290966  38.84  0.001361911    1.226    0.184
        36 -14.6512     10.0037    207.2512   1.2304370536e+02   2.9528835932e+01    0.9722338    0.8235784  46.86  0.002983249    1.372    0.271
        37  -9.7634    135.6148    128.4256   7.9947808743e+01   2.9679791404e+01    0.3221209    0.1391265 -58.70 0.0009584205    3.389    0.705
        38 -11.1221     95.8255    127.6171   9.0607766935e+01   3.7650299965e+01    0.3209972    0.2699096 -22.09 0.0006919936    1.386    0.278
        39 -10.2051    115.6467    125.3152   8.4465946063e+01   3.4489529349e+01    0.3051017    0.2238474  -9.99  0.001017393    1.989    0.497
        40 -10.1255    109.8907    201.6538   1.0066460733e+02   1.7728263648e+01    0.2169197     0.182366 -53.35 0.0005535005    1.293    0.226
        41  -9.5371    106.0350    119.9383   8.5827135469e+01   3.7625450716e+01    0.2202061     0.209723 -38.29            0    1.055    0.052
        42 -10.3457    209.7994    199.6635   7.8988148818e+01   8.3214550824e-01    0.2385779    0.2060626 -43.14 0.0007961384    1.355    0.262
        43  -9.3164    168.0289    113.0519   6.8318397205e+01   2.5843278923e+01    0.2575313    0.1923119 -77.09  0.001130335    1.769    0.435
        44  -9.2849    135.0000    112.0034   7.5870831672e+01   3.3491256824e+01    0.2712492   0.08826628 -44.62 0.0008104219    2.998    0.666
        45 -10.1377    205.2791    110.5459   6.0371232481e+01   1.7971170960e+01    0.3315853    0.2599308  30.94  0.001010833    1.516    0.340
        46 -10.9603    245.0166    109.5110   5.3891916151e+01   1.0014936345e+01    0.1894314    0.1373587  57.11  0.001042436    1.621    0.383
        47  -9.6092    134.5003    106.5065   7.4505611243e+01   3.4798791228e+01    0.1562495    0.1526135 -47.42 -9.231474e-05    1.001    0.001
        48  -9.0548    130.5573     96.7540   7.2781038991e+01   3.7747833243e+01    0.2292256    0.1446797 -54.22  0.000948744    1.727    0.421
        49 -11.4574     53.5452     92.8154   9.5657644058e+01   5.2471961905e+01    0.6542643    0.2854381 -63.97  0.002494071    2.646    0.622
        50  -9.8942     41.8002     92.1373   9.9674261295e+01   5.4003810277e+01    0.1932256     0.173644 -70.18  0.000458849    1.157    0.136
        51 -10.3732    250.0038     87.9902   4.8478159306e+01   1.2546285061e+01    0.2149189    0.1383672 -60.75 0.0005201632    1.631    0.387
        52  -9.4184    160.8120     82.3967   6.1472677996e+01   3.3510497095e+01    0.2123959    0.1406254  44.16  0.000402012    1.598    0.374
        53 -10.3247     11.0068     76.5021   1.0769882242e+02   6.0219349574e+01    0.1634642    0.1222547   9.47 0.0007643888    1.586    0.369
        54 -10.6224      5.5985     69.7882   1.0841313572e+02   6.2032976032e+01     0.173808    0.1022472 -73.99 0.0009547513    1.711    0.416
        55  -8.8927     36.5154     63.5549   9.3968324904e+01   6.0908514394e+01    0.1291731     0.111259 -35.23 0.0001650177    1.044    0.042
        56 -11.3197     13.2216     59.9949   1.0284769087e+02   6.3681917730e+01     0.280268     0.232108  80.75 0.0005018737    1.658    0.397
        57 -10.4096     40.4845     58.6876   9.0760379727e+01   6.1461279588e+01    0.2969633     0.200293  45.25  0.001609958    1.950    0.487
        58  -9.2991     21.9712     56.9434   9.8154889800e+01   6.3654596229e+01    0.1736093    0.1494534  73.82   0.00062813    1.665    0.400
        59 -10.0384     17.8425     55.1499   9.9447425659e+01   6.4354282903e+01    0.1692028    0.1573034 -46.76 0.0005282401    1.227    0.185
        60 -10.9516    193.3720    195.4756   8.1409603673e+01   4.3305411753e+00    0.8437402     0.452031 -64.76  0.002420362    6.503    0.846
        61  -9.8179    170.9482    233.4821   9.2447676986e+01   1.5745663318e+00    0.1813936    0.1663839 -20.37  0.000460416    1.199    0.166
        62 -11.1466     42.8957    230.9565   1.1818987401e+02   2.1027768545e+01    0.2606732    0.2340964  31.89  0.001872792    1.482    0.325
        63 -12.6840    218.5169     28.3437   3.8363230541e+01   2.7817484868e+01    0.5965294     0.438524  49.95  0.001197092    1.661    0.398
        64 -10.8957     11.9796     52.8297   1.0140854549e+02   6.5254273476e+01    0.2225581     0.148636 -51.47 0.0008687493    1.231    0.188
        65  -9.5687      4.9826     49.7908   1.0376063402e+02   6.6311356154e+01     0.135783   0.09083483   6.58 0.0003583381    1.675    0.403
        66 -10.6701    134.1883     41.0633   5.4309329956e+01   4.6611906086e+01    0.3659166    0.2508846 -82.59   0.00103673    2.029    0.507
        67  -9.5460    134.7305     33.3951   5.1626774297e+01   4.7468798041e+01     0.206251    0.1795366 -50.12  0.001179398    1.235    0.190
        68 -10.1627    189.8237     15.3270   3.8077142337e+01   3.6013394378e+01    0.2223948    0.1615675 -50.84 0.0008353649    1.325    0.245
        69 -11.6785    183.4882    215.6398   8.7041092062e+01   2.5047897461e+00    0.3811986    0.2090095  42.48  0.001863531    1.762    0.432
        70 -16.0004     37.0582    190.6278   1.1602549245e+02   3.0468863181e+01     9.525587     3.604408  82.62   0.02998024    5.033    0.801
