#   1 NUMBER                 Running object number                                     
#   2 MAG_AUTO               Kron-like elliptical aperture magnitude                    [mag]
#   3 X_IMAGE                Object position along x                                    [pixel]
#   4 Y_IMAGE                Object position along y                                    [pixel]
#   5 X_WORLD                Barycenter position along world x axis                     [deg]
#   6 Y_WORLD                Barycenter position along world y axis                     [deg]
#   7 A_WORLD                Profile RMS along major axis (world units)                 [deg]
#   8 B_WORLD                Profile RMS along minor axis (world units)                 [deg]
#   9 THETA_WORLD            Position angle (CCW/world-x)                               [deg]
#  10 FWHM_WORLD             FWHM assuming a gaussian core                              [deg]
#  11 ELONGATION             A_IMAGE/B_IMAGE                                           
#  12 ELLIPTICITY            1 - B_IMAGE/A_IMAGE                                       
         1 -13.0522    248.5484    114.0420   8.1458328964e+01   7.1114305075e+00     1.530678    0.9371343 -23.79  0.006936146    1.979    0.495
         2 -14.2628    201.1606     17.3645   6.5163586059e+01   3.2964104555e+01     2.383475     1.527062  31.47  0.009682341    2.351    0.575
         3 -13.7132    206.7312     10.3030   6.2826046334e+01   3.2396227293e+01     1.400786    0.7058849  50.08  0.001351082    2.201    0.546
         4 -11.6938      2.1653     22.8873   1.2170146306e+02   6.8958126086e+01    0.5981548   0.07887327 -52.37   0.00193889    6.544    0.847
         5 -13.0549      2.1906      5.4031   1.1506646097e+02   7.1538340291e+01    0.7763376    0.5393189 -14.12  0.006207585    1.094    0.086
         6 -12.4578    247.3499    240.7968   1.0731723767e+02  -1.2778581621e+01    0.5138871    0.3879201  41.88  0.003379135    1.519    0.342
         7  -9.4668    205.4434    250.4752   1.1647414404e+02  -7.4913549156e+00    0.1236135    0.0999966  27.17 0.0003268336    1.016    0.015
         8 -10.2542    193.0202    249.1203   1.1856902872e+02  -5.2454330278e+00    0.1927724     0.177863  -7.30 0.0007939339    1.228    0.185
         9  -9.7547    184.0222    250.3136   1.2042730553e+02  -3.9027023113e+00    0.1777113    0.1405975  35.95 0.0005151225    1.038    0.036
        10 -11.4813    149.5773    248.5891   1.2666256050e+02   2.2559194109e+00    0.4694461    0.2473747  49.64     0.002437    1.619    0.382
        11 -11.0185    143.3752    249.2927   1.2792063268e+02   3.1995729928e+00    0.2583511    0.1995982  75.15 0.0008598198    1.432    0.302
        12 -11.1454    131.6790    248.5422   1.3001736095e+02   5.3041495916e+00    0.4375656     0.210781  56.72  0.001505957    2.087    0.521
        13 -10.3159    126.5225    248.5421   1.3097959632e+02   6.1670640430e+00    0.3532208    0.2235446  75.33  0.001664641    1.938    0.484
        14 -10.9511    121.6363    244.9726   1.3146573530e+02   7.6012244938e+00    0.4045892    0.1925285  39.09  0.001771626    1.982    0.495
        15 -12.0792    126.3040    240.9262   1.3008837353e+02   7.5352640091e+00    0.4359266     0.376901 -72.29   0.00193791    1.308    0.235
        16 -10.7115    122.5182    249.9873   1.3189359490e+02   6.5826959570e+00    0.5583831    0.1829457  39.58   0.00225613    2.877    0.652
        17  -9.9045    108.6531    242.5012   1.3360887713e+02   1.0175050080e+01    0.2767077    0.1420187 -68.95  0.001402951    2.303    0.566
        18 -10.8667    113.9657    250.0698   1.3347770830e+02   7.9665039800e+00    0.4190357    0.2348149  34.21  0.002181761    2.044    0.511
        19 -11.1825    109.8630    247.7031   1.3396787586e+02   9.0452095181e+00    0.4581423    0.3141542  38.22  0.002649636    1.513    0.339
        20  -9.6767     93.2126    232.7788   1.3542634907e+02   1.4457060559e+01    0.3007168    0.1036864  51.91  0.001247228    2.630    0.620
        21 -11.5752     98.4540    247.4430   1.3602565199e+02   1.0900766016e+01    0.5744483    0.2888854  53.83  0.003082306    1.654    0.395
        22 -10.8264    103.4450    244.6303   1.3481243379e+02   1.0623559162e+01    0.4004986      0.20531  75.46  0.001787287    2.885    0.653
        23 -11.3946     96.6146    239.4538   1.3551619287e+02   1.2656170594e+01    0.4075708    0.2733012 -87.08  0.001934459    1.561    0.359
        24 -10.5557    104.3295    237.9051   1.3389829828e+02   1.1720153122e+01    0.2267148    0.1859352  59.66  0.001044833    1.070    0.065
        25  -9.9549     87.9032    250.6071   1.3823473728e+02   1.1946650517e+01     0.421735    0.1300638  39.55  0.001342075    3.206    0.688
        26 -10.6143     88.4976    247.1587   1.3779381842e+02   1.2481656011e+01    0.3280996    0.1994651  35.66   0.00158658    1.914    0.478
        27  -8.9870     74.6597    250.5826   1.4055291165e+02   1.3895061100e+01     0.223727    0.1007858  40.09  0.001154857    2.182    0.542
        28 -11.3925     59.5873    245.6571   1.4273311115e+02   1.6899199249e+01    0.4565275    0.3086502 -68.61  0.001770113    1.597    0.374
        29  -9.8500     63.2189    249.9258   1.4246158087e+02   1.5617310114e+01    0.2272666    0.1710657 -58.87  0.001083494    1.783    0.439
        30 -10.9608     66.7252    244.1065   1.4136728518e+02   1.6210680843e+01    0.3707359    0.1888434  36.04  0.001971575    2.326    0.570
        31 -14.7958     15.9559    168.5552   1.4420020588e+02   3.7996288652e+01     3.073075     1.070981 -60.87   0.01481571    2.373    0.579
        32 -13.7759     21.7665    153.4208   1.4135226846e+02   4.0867197336e+01     1.350745    0.9005821  40.59  0.008540038    1.715    0.417
        33 -14.4791     30.5342    246.3277   1.4760564593e+02   2.0436108323e+01      1.97192     1.033685  60.58   0.01282894    1.475    0.322
        34 -13.6493      8.8287    206.9375   1.4865466421e+02   3.0463648552e+01     1.284353    0.8050035  46.95  0.008902063    1.629    0.386
        35 -14.2645      6.4727    246.3571   1.5135411696e+02   2.3077405600e+01     1.011844    0.6016716  72.57  0.007519356    1.181    0.153
        36 -13.5034     12.9251    237.8705   1.4989677236e+02   2.3975184922e+01    0.9331529    0.3804939  74.92  0.005133971    2.262    0.558
        37 -12.9744     42.7707    228.3974   1.4426150829e+02   2.2397221405e+01      0.38019    0.3605695  69.26  0.001226873    1.514    0.339
        38 -14.6615     48.6889    218.8890   1.4239247439e+02   2.3571202436e+01     1.858906     1.479252  48.44   0.01284126    1.401    0.286
        39 -10.4953    145.2568    240.6248   1.2641747055e+02   4.3326068968e+00    0.3148052    0.1296725  52.37  0.001333059    2.394    0.582
        40 -10.5916    115.7868    239.9650   1.3197066911e+02   9.4688620480e+00      0.23498    0.1868724  59.29 0.0006717324    1.023    0.023
        41  -8.9489    150.6992    239.3158   1.2518785744e+02   3.6056766011e+00     0.128891   0.09135296  68.57 0.0007020482    1.615    0.381
        42 -11.0675     89.9529    236.9941   1.3649293283e+02   1.4153938462e+01    0.3400808    0.2621608 -77.64  0.002219305    1.324    0.245
        43  -9.7392     83.2696    238.3451   1.3786612813e+02   1.4909777239e+01    0.3283377    0.1438864  49.10  0.001538461    1.888    0.470
        44  -9.4563     86.3690    237.1928   1.3717827613e+02   1.4662676382e+01    0.2556516    0.1508823  79.71  0.001389622    1.823    0.451
        45 -10.3427    165.8445    235.2688   1.2166071065e+02   1.6102583159e+00    0.2345742    0.2141208 -13.73  0.001383757    1.304    0.233
        46 -10.4134    161.9340    232.8971   1.2206944358e+02   2.7077634996e+00     0.296513     0.186497  65.16  0.001102192    2.056    0.514
        47 -11.4350    122.4863    232.7380   1.2978585153e+02   9.6735888880e+00    0.3661872    0.3201026 -73.67  0.001788601    1.265    0.210
        48 -11.1146     98.4233    231.4113   1.3427965573e+02   1.3899576019e+01    0.3741111    0.2624919 -82.79 0.0007770559    1.462    0.316
        49 -11.4002    111.6327    230.5029   1.3161897692e+02   1.1922942239e+01    0.5048455    0.3659776  47.85  0.001734246    1.228    0.185
        50  -9.7228    104.4160    229.3189   1.3287830911e+02   1.3338788006e+01    0.3842236    0.1696203  56.64  0.001270782    2.271    0.560
        51  -9.2325     78.0719    233.3760   1.3832544222e+02   1.6636024486e+01    0.1795809    0.1463635 -76.93 0.0004506262    1.301    0.232
        52 -11.0310    156.6529    231.6883   1.2292755440e+02   3.8615751562e+00     0.235332    0.2265429  26.06 0.0005255456    1.170    0.145
        53 -10.2254    135.7113    250.6738   1.2952759469e+02   4.2674697517e+00    0.2273458     0.177371 -44.68 0.0005457797    1.664    0.399
        54 -11.6325    249.7171    229.5582   1.0494305503e+02  -1.1690523917e+01    0.4037192    0.1629518 -37.88  0.001916686    2.626    0.619
        55 -10.0905    152.5598    243.9467   1.2547135545e+02   2.5042285298e+00    0.1718055    0.1276934 -54.75  0.001032587    1.613    0.380
        56 -10.6581    141.7584    230.6557   1.2571846664e+02   6.7016319068e+00    0.3018498     0.244805 -10.91 0.0009304957    1.836    0.455
        57 -10.0759    165.2081    242.0829   1.2278812376e+02   6.0459073132e-01    0.2223462    0.1594653  25.56 0.0004891956    1.516    0.340
        58 -10.5287     84.6299    229.7055   1.3671853523e+02   1.6375732962e+01     0.240392      0.20898  81.23 0.0007764807    1.158    0.137
        59 -10.6997     80.3496    227.6215   1.3730836041e+02   1.7430280136e+01    0.3070399    0.2760698 -21.78  0.000797464    1.835    0.455
        60 -10.1439     78.9669    224.5478   1.3724638677e+02   1.8249949765e+01    0.2211383    0.2020676   5.28 0.0007961894    1.750    0.428
        61 -10.6150     77.6473    221.0720   1.3712786971e+02   1.9148498643e+01    0.2724348    0.1740988  64.32  0.000751571    1.382    0.276
        62 -10.6918     80.8546    245.8249   1.3903066698e+02   1.3866712293e+01    0.5074908    0.2480169  87.07  0.002389276    2.812    0.644
        63 -10.4395    165.6872    227.4364   1.2049286452e+02   2.9685305562e+00    0.4036695    0.2559688 -68.40    0.0016572    2.349    0.574
        64 -10.9868    160.9252    223.3255   1.2080014932e+02   4.5597285808e+00    0.5243135    0.2921661  29.62  0.001973221    2.123    0.529
        65  -9.5092    179.8030    228.4582   1.1786767501e+02   2.4005897831e-01    0.2373661    0.1686007  82.44  0.001157676    2.383    0.580
        66  -9.5988    197.5214    226.9682   1.1416729146e+02  -2.6882263323e+00    0.2788921    0.1992577  72.10  0.001401765    2.300    0.565
        67  -9.6433     93.9089    217.3638   1.3350423437e+02   1.7413716312e+01    0.3053686    0.1769962  85.66  0.001466881    2.140    0.533
        68 -10.5208     92.7491    226.0866   1.3476288026e+02   1.5838985313e+01    0.2795444    0.1776584  57.26 0.0004414273    1.352    0.261
        69 -11.7467     98.7125    223.5693   1.3330251630e+02   1.5391876296e+01     0.516207    0.2979154  43.50  0.001284481    1.598    0.374
        70 -10.4978    149.1752    223.2979   1.2316120861e+02   6.7111639149e+00    0.4050384    0.2882005   4.34   0.00193917    2.438    0.590
        71 -10.8705    117.2677    224.3449   1.2972188518e+02   1.2159628394e+01    0.2586183    0.2074644  48.24 0.0003466864    1.163    0.140
        72  -8.8527    220.1557    223.4078   1.0923258083e+02  -6.0770049877e+00    0.1649498    0.1123313  46.24 0.0001770774    1.520    0.342
        73 -11.6325    142.1102    221.6713   1.2434533286e+02   8.2948688187e+00    0.3753895    0.3149506  47.64  0.000261283    1.071    0.066
        74 -11.1860    137.7807    214.4924   1.2415126995e+02   1.0456451904e+01     0.589658    0.3465081  37.37  0.001786434    1.690    0.408
        75 -10.3461    105.6084    219.6765   1.3144862441e+02   1.5044593528e+01    0.3833294    0.2181915  75.75 0.0006574621    2.303    0.566
        76 -11.6249    132.5982    224.3945   1.2665914131e+02   9.4833710816e+00    0.5788862    0.3275925  70.49  0.002514499    2.572    0.611
        77 -11.5332    135.6906    241.0565   1.2831140754e+02   5.9120066484e+00    0.3429804     0.271434  25.13 0.0004108161    1.541    0.351
        78 -12.2933    134.9805    237.0665   1.2792350342e+02   6.7380944878e+00    0.4238018    0.3761138  27.73  0.001244362    1.327    0.247
        79  -9.5652    190.7154    228.0216   1.1566351723e+02  -1.6460759277e+00    0.1726949    0.1590394  20.34 0.0002911697    1.084    0.078
        80 -10.6485    246.4338    218.8498   1.0359342290e+02  -9.7314222825e+00    0.2603833    0.1452476  23.45  0.001335197    1.866    0.464
        81  -9.6710    110.9448    221.5785   1.3062373907e+02   1.3774041138e+01    0.2857166    0.1709777 -60.71  0.001383734    1.797    0.443
        82  -8.5201     89.5356    218.4831   1.3450895853e+02   1.7873062504e+01    0.1306925    0.1067527  71.96 0.0001551417    1.008    0.008
        83  -8.9366     83.8003    242.1668   1.3814917466e+02   1.4109752602e+01    0.1474559    0.1319732  62.91 0.0006340306    1.285    0.222
        84  -9.1972    183.2196    213.9800   1.1476162351e+02   2.0754408399e+00    0.1651593    0.1134992 -44.01   0.00042626    1.623    0.384
        85  -9.9857     88.1813    212.9366   1.3411703655e+02   1.9229805576e+01    0.2425732    0.1690593 -78.24 0.0006898105    1.399    0.285
        86  -9.7291    102.2661    212.1618   1.3115203559e+02   1.7130962759e+01    0.3664324    0.1891847  60.47  0.001668834    2.058    0.514
        87 -11.1678     70.4879    219.2532   1.3831512007e+02   2.0559418018e+01    0.5103991    0.3033592 -80.69  0.002628484    1.630    0.387
        88 -10.9134     72.6315    210.1437   1.3691230770e+02   2.2150371190e+01    0.3701037    0.2703442  50.93  0.002257868    1.299    0.230
        89  -9.3829     68.4610    211.4953   1.3788802595e+02   2.2460417109e+01    0.2268402    0.1403888 -76.48  0.000955989    1.512    0.338
        90  -9.7450     33.4534    211.4971   1.4456755384e+02   2.6934716006e+01    0.1720335    0.1420247  56.02 0.0002523564    1.340    0.254
        91 -10.5613    175.1710    205.4015   1.1489127386e+02   5.1448499707e+00    0.3259003    0.2459849  -5.00   0.00152993    1.806    0.446
        92  -9.1062    178.2962    204.7179   1.1412535237e+02   4.6701613599e+00     0.199928     0.170226 -69.56 0.0002303111    1.415    0.293
        93  -9.2587    119.9140    208.7388   1.2701262797e+02   1.4821146873e+01    0.1930806    0.1584333  56.83 0.0003194901    1.081    0.075
        94  -9.9349    108.9550    207.4149   1.2912005767e+02   1.6997128858e+01    0.2654068    0.1804573 -64.71 0.0009500616    1.520    0.342
        95  -9.4361    135.3115    207.9349   1.2365433443e+02   1.2207954175e+01    0.2819752    0.1807611  28.21  0.001321605    1.961    0.490
        96  -9.5077     97.1614    207.4009   1.3157839607e+02   1.8964354082e+01    0.2337813    0.1682486  84.00 0.0007261292    1.392    0.282
        97 -11.7907     92.9418    203.1203   1.3189337053e+02   2.0557964231e+01    0.4890398     0.429942 -25.79  0.001744492    1.674    0.403
        98 -11.4752    247.2352    205.9972   1.0104808210e+02  -8.0121116773e+00    0.4492297    0.2610298  20.30  0.002250809    1.947    0.486
        99 -10.8131    172.9044    240.0332   1.2100871841e+02  -4.1438415123e-01     0.295906    0.2266227  82.10 0.0009364124    1.850    0.459
       100  -9.5053    125.9025    205.7252   1.2529987904e+02   1.4372497110e+01    0.1991418     0.161283  55.79 0.0004651692    1.104    0.094
       101  -9.0595    149.1791    205.1907   1.2028598584e+02   1.0163570860e+01    0.2382009    0.1620792  -1.77 0.0009676354    3.008    0.668
       102 -10.9837    102.4382    202.5301   1.2980940370e+02   1.9130766902e+01     0.470147    0.2710359  60.68  0.001705876    1.774    0.436
       103 -10.5570     98.7019    196.7551   1.2979360236e+02   2.0999982988e+01    0.4784184    0.2603669  52.07  0.001691029    1.733    0.423
       104  -9.5663    166.9791    203.2395   1.1620885952e+02   7.1302849985e+00     0.195531    0.1644475  45.97            0    1.086    0.079
       105  -9.5680    133.0841    202.8374   1.2332086867e+02   1.3654965832e+01    0.2220623    0.2016996 -70.00 0.0004124729    1.168    0.144
       106 -10.2202    133.9133    197.5060   1.2227674958e+02   1.4605661305e+01    0.3616907    0.2255553 -74.08  0.001383197    2.089    0.521
       107  -9.1381     76.7593    202.9195   1.3523594094e+02   2.3092723453e+01    0.2093593    0.1254255  80.04 0.0007728025    1.818    0.450
       108 -10.3551    138.0493    201.5957   1.2205838212e+02   1.2985618216e+01    0.2352728    0.2027966 -66.07 0.0003057561    1.231    0.188
       109  -9.9480     63.8747    201.9699   1.3776134416e+02   2.5133991699e+01    0.2283066    0.2114818  40.60  0.001073737    1.427    0.299
       110  -8.9074     32.8515    201.9050   1.4386591338e+02   2.9016258012e+01    0.1601186    0.1302291 -84.02 0.0003381315    1.187    0.157
       111 -10.1129    197.4089    200.8114   1.0951854244e+02   1.7081610781e+00    0.2793174    0.1888691  35.12 0.0008594734    1.398    0.284
       112 -10.3575    112.7723    193.4621   1.2624130908e+02   1.9316473676e+01    0.4577787    0.2697993 -61.71  0.001204945    1.749    0.428
       113 -11.1741    115.2626    200.2073   1.2673296042e+02   1.7425837355e+01    0.2561679    0.2306157 -67.81 0.0002360716    1.193    0.162
       114 -10.4800    119.9958    199.0965   1.2554339501e+02   1.6821205208e+01    0.3411646     0.219757  62.79 0.0003713238    1.618    0.382
       115  -9.2600    169.3600    200.1346   1.1515639651e+02   7.2618203813e+00    0.1830558    0.1788719  83.13 0.0004497911    1.097    0.088
       116 -10.1068     44.2307    199.2836   1.4141478653e+02   2.8251257742e+01    0.2711455    0.1999418  49.87 0.0009250866    1.386    0.278
       117  -8.8977    158.7978    199.4094   1.1725677811e+02   9.4589041151e+00    0.1972929    0.1286982  34.85 0.0003241995    1.560    0.359
       118  -9.4553     85.9577    195.9632   1.3242154142e+02   2.3217359865e+01    0.2429022    0.1726651 -72.96 0.0003588511    1.340    0.254
       119 -11.4943     53.2329    198.0597   1.3949137889e+02   2.7395946836e+01    0.5491942    0.2176005  45.87  0.002598623    2.329    0.571
       120 -10.1135     56.5742    194.2079   1.3839051018e+02   2.7807812097e+01    0.3221411     0.191102 -74.57  0.001087003    1.506    0.336
       121  -9.0404     86.2592    199.2848   1.3279606074e+02   2.2442812150e+01    0.1688341     0.151673  59.16 0.0001741149    1.192    0.161
       122 -11.7031     67.5539    195.1595   1.3621702281e+02   2.6113032076e+01    0.4037467    0.2729471 -49.30  0.001403711    1.833    0.454
       123  -9.8270     72.9550    193.2378   1.3484179768e+02   2.5770254945e+01    0.1961459    0.1626945  83.60  0.001212927    1.011    0.011
       124 -11.8956     72.9292    187.4655   1.3410873263e+02   2.7064331799e+01    0.3580634    0.2372887 -53.21 0.0008961736    1.658    0.397
       125  -8.9583    107.4099    196.2284   1.2783270944e+02   1.9647241316e+01     0.184513    0.1255257 -77.14 0.0004967367    1.570    0.363
       126 -10.5621     38.7117    192.5202   1.4185015062e+02   3.0371953355e+01    0.2725906    0.1581375 -59.87  0.001558014    1.733    0.423
       127  -9.4493     31.0947    195.1788   1.4360688778e+02   3.0650579603e+01    0.2274782    0.1240268  59.24 0.0009346228    1.698    0.411
       128  -9.9725    159.8644    194.0858   1.1607611319e+02   1.0308753839e+01    0.2496734    0.2026452  59.22 0.0004568855    1.230    0.187
       129 -10.3748    120.7130    191.6909   1.2421185619e+02   1.8280919193e+01    0.5004684     0.352783 -44.29   0.00196093    1.664    0.399
       130  -9.9449    118.0113    190.0147   1.2453771093e+02   1.9134986169e+01    0.2124033    0.1872072  75.03            0    1.041    0.039
       131  -9.7031     82.9379    193.7128   1.3276905907e+02   2.4179906256e+01    0.3288534    0.2405899  -4.26  0.001018816    2.899    0.655
       132  -9.7939     26.0640    193.0736   1.4439880501e+02   3.1643752285e+01    0.2208185    0.1354358 -86.05 0.0009244319    1.321    0.243
       133  -9.3494     47.7627    192.8204   1.4004909768e+02   2.9229351258e+01    0.1797364    0.1393954 -70.56   0.00114622    1.261    0.207
       134  -9.8895     20.6303    192.0269   1.4535982619e+02   3.2427003170e+01    0.2874435    0.1424098 -89.93  0.001571051    1.810    0.448
       135 -10.1525    191.4060    191.5073   1.0895561840e+02   4.5582812031e+00    0.2585364    0.2343047  12.68  0.000617011    1.108    0.097
       136  -9.2319    172.8148    192.2427   1.1297365985e+02   8.1080125996e+00    0.2246172    0.1652268   0.78  0.001041225    1.965    0.491
       137  -9.2976    135.2949    190.1162   1.2072560599e+02   1.5904654728e+01    0.1945444    0.1771211 -89.38 0.0004249158    1.094    0.086
       138 -10.0249     32.2453    189.6183   1.4286522288e+02   3.1731184324e+01    0.3389452    0.2460093  19.51  0.002092829    2.152    0.535
       139 -12.0383    249.7157    187.5208   9.6999789033e+01  -5.6076818132e+00     0.855378    0.2760989 -38.03   0.00327525    2.950    0.661
       140 -12.4896    248.1696    171.8231   9.4073596311e+01  -2.8032982351e+00    0.7839104    0.5267873 -24.00  0.004112673    1.469    0.319
       141 -13.7925    244.8444    158.0357   9.1748704489e+01   1.3932287318e-01     2.435486    0.9530935 -44.12  0.009408136    2.553    0.608
       142  -9.9666    140.1449    183.1495   1.1840827764e+02   1.6462306795e+01    0.2407908    0.2011944  49.42 0.0003328313    1.133    0.117
       143  -9.9210    143.3157    181.3456   1.1736499965e+02   1.6227897834e+01    0.2708387    0.1855386 -39.11   0.00111506    1.699    0.411
       144 -10.8271     25.5619    184.4079   1.4371687048e+02   3.3577872237e+01    0.3182508     0.187192  59.52  0.001613729    1.609    0.378
       145 -10.0964     29.8989    182.8190   1.4268587501e+02   3.3476262761e+01     0.358384    0.2025643  65.39  0.002036051    1.716    0.417
       146  -9.6646     86.1145    183.3742   1.3063572258e+02   2.6009065845e+01    0.3342966    0.2224274  31.37  0.001216519    1.840    0.457
       147  -9.3130     37.4481    184.2036   1.4127131188e+02   3.2347280024e+01    0.2195824    0.1523547  44.08  0.001369569    1.553    0.356
       148 -10.1148     54.0425    182.0635   1.3752552818e+02   3.0844755861e+01    0.2190293    0.2035349  12.85 0.0009973912    1.537    0.349
       149  -9.4844     65.9438    181.9691   1.3492110332e+02   2.9293135786e+01     0.192307    0.1647447 -89.07 0.0002978471    1.051    0.049
       150 -12.6273    248.3085    101.5696   7.8694425828e+01   9.3226104090e+00    0.8943973    0.5177571 -37.36  0.004215675    1.604    0.376
       151  -9.4328    174.4412    180.0711   1.1026529289e+02   1.0193020152e+01    0.3702524    0.1921137  43.18  0.001532998    1.841    0.457
       152  -9.4819    170.0980    180.1146   1.1121139204e+02   1.1075161282e+01    0.2128107    0.1936625  11.38            0    1.200    0.167
       153  -8.8070    104.4142    180.5714   1.2606541016e+02   2.3639350720e+01    0.1414538    0.1255637  81.36 0.0001633773    1.016    0.015
       154  -9.2861     48.0102    179.6041   1.3853707414e+02   3.2147101353e+01    0.1649968    0.1167652  43.95 0.0004418222    1.516    0.340
       155  -9.4928    135.3338    178.3050   1.1860503544e+02   1.8454128278e+01    0.1437846    0.1195401  -1.12 0.0004950391    1.664    0.399
       156  -9.0178    109.3834    178.1595   1.2452816547e+02   2.3319074441e+01    0.2007087     0.130858 -71.10 0.0006421423    1.635    0.388
       157 -11.4405     82.3868    175.7277   1.3035371570e+02   2.8335513214e+01    0.3862993    0.3424669  47.41  0.001108072    1.246    0.198
       158  -9.7587     77.1954    175.6189   1.3152602071e+02   2.9141619001e+01    0.2090008    0.1621078 -85.40 0.0005511637    1.181    0.153
       159  -9.4722    114.9573    176.4805   1.2295529082e+02   2.2701166664e+01     0.271211    0.1917311 -79.48   0.00074573    1.583    0.368
       160 -11.7768     68.8382    173.6050   1.3314636139e+02   3.0809048090e+01    0.5298214    0.2655964 -52.51  0.001558385    2.059    0.514
       161 -10.8577     68.9566    166.8716   1.3215319094e+02   3.2355907700e+01    0.2845911    0.2039625 -54.79 0.0003622173    1.415    0.293
       162 -10.0795    169.3477    248.9161   1.2298011197e+02  -1.1908138859e+00    0.2553814    0.1754147  16.21 0.0009523312    1.926    0.481
       163  -9.6875     95.4930    172.8705   1.2687126980e+02   2.6909217550e+01    0.2484449    0.1764154  63.12 0.0005874949    1.427    0.299
       164 -10.2961     80.8021    163.9286   1.2889448089e+02   3.1322905733e+01     0.226468    0.1942738  57.68  0.001319776    1.179    0.152
       165  -9.5163     90.9857    172.6873   1.2789357426e+02   2.7687661489e+01    0.2767928    0.2040197 -39.52 0.0009567031    1.722    0.419
       166 -11.4562     95.9313    157.1588   1.2405853616e+02   3.0505162532e+01    0.5418642    0.3167558 -58.28  0.001468595    1.624    0.384
       167 -11.1925    101.1363    150.8265   1.2157698315e+02   3.1110364681e+01    0.4732502    0.4135614  31.77  0.002592852    1.304    0.233
       168 -10.0411    103.9661    144.9073   1.1968730474e+02   3.2008309788e+01    0.5206484    0.2208973 -47.38  0.001947436    2.385    0.581
       169 -12.5131     87.9191    166.9830   1.2769279450e+02   2.9504681608e+01    0.7845249    0.6773006 -61.14  0.004551242    1.177    0.150
       170 -11.2960     28.3308    171.5164   1.4187220174e+02   3.6154782551e+01    0.3855482    0.2273251 -66.74  0.001214919    1.436    0.304
       171  -8.6228    167.0000    170.0578   1.0985413865e+02   1.3795848726e+01    0.2414396   0.08658647 -46.40 0.0007944118    2.887    0.654
       172  -8.8667    100.5505    170.4925   1.2528835879e+02   2.6610093037e+01     0.143856    0.1289219  86.96 -0.000298874    1.012    0.012
       173 -10.7282     43.7773    168.8129   1.3818645407e+02   3.5101682726e+01    0.3364356    0.3111091 -62.76  0.001444944    1.300    0.231
       174  -9.9281     49.0685    169.0000   1.3702100046e+02   3.4438217951e+01    0.2289288    0.1764386  48.42  0.000675709    1.385    0.278
       175  -9.2292    126.5095    167.9943   1.1871167430e+02   2.2465505341e+01    0.2070234    0.1283697 -81.18  0.000808344    2.401    0.583
       176  -9.6003    107.3340    168.1642   1.2327894238e+02   2.5971188039e+01     0.219718    0.1938491  43.19 0.0003904687    1.212    0.175
       177  -8.9746     58.4974    167.4988   1.3467291219e+02   3.3612684512e+01     0.132898    0.1113461 -86.38 0.0008106906    1.003    0.003
       178 -11.0303     89.8686    160.4067   1.2611822870e+02   3.0735311655e+01    0.4235695    0.2522326 -67.24  0.001975616    1.663    0.399
       179  -9.0411    136.0800    165.3244   1.1594321571e+02   2.1191694596e+01    0.2090425    0.1856888  58.87 0.0002821822    1.086    0.080
       180  -9.1356     53.9391    164.7372   1.3535096475e+02   3.4829578102e+01    0.1762314    0.1486615  88.60 0.0002623993    1.043    0.041
       181  -9.3691     77.0584    188.7895   1.3338554182e+02   2.6163151713e+01    0.2012404    0.1539474  73.44 0.0003458965    1.193    0.161
       182  -9.7667     46.9616    163.0350   1.3673769408e+02   3.6062944417e+01    0.1927558    0.1569927 -85.60  0.000347281    1.023    0.023
       183  -8.9333    154.6259    161.7984   1.1091615708e+02   1.8165201760e+01    0.2052167    0.1432457 -60.99 0.0002869185    1.585    0.369
       184 -12.1796     51.7276    237.8763   1.4345676784e+02   1.9412710204e+01    0.9040973    0.5960516 -80.68  0.004944274    1.382    0.276
       185 -11.2011     73.6268    157.6759   1.2961989348e+02   3.3852686567e+01     0.442713    0.3512549 -84.60   0.00193336    1.177    0.151
       186  -9.5562     78.8753    158.8761   1.2853680605e+02   3.2800889138e+01    0.1982324    0.1776102 -64.23 0.0003872042    1.136    0.120
       187  -8.8569     52.4705    158.4421   1.3482964205e+02   3.6474308322e+01    0.1306939    0.1102724 -80.03 0.0002303118    1.025    0.024
       188 -11.5332     42.6345    237.2201   1.4496916982e+02   2.0693775348e+01    0.2909818    0.2082058  67.67    0.0012994    1.085    0.078
       189  -9.3454    228.3614    155.2930   9.4107403596e+01   3.8390384795e+00    0.2489836    0.1696991 -45.82 0.0006324721    1.480    0.325
       190  -8.5711    175.7034    155.2538   1.0475984794e+02   1.5042205758e+01    0.1476783    0.1203149  82.27 0.0001831146    1.494    0.331
       191  -9.6120    134.4733    155.5273   1.1432687121e+02   2.3728856983e+01    0.1508854    0.1461052  82.71 -1.605423e-05    1.029    0.028
       192 -10.7109    113.7127    151.1313   1.1849553401e+02   2.8778373950e+01    0.4016567    0.3086832 -50.86 0.0008349178    1.298    0.229
       193  -9.3414     53.0126    146.4522   1.3293656301e+02   3.9215816963e+01    0.2072878    0.1639166 -54.12 -1.640982e-05    1.257    0.204
       194 -10.3644     60.2503    150.9786   1.3184025378e+02   3.7252613230e+01    0.3058747    0.2060203  75.03 0.0009586695    1.665    0.399
       195 -10.8746     55.9207    150.2262   1.3279337581e+02   3.7975434692e+01    0.3458429    0.2662365 -84.35  0.001349728    1.192    0.161
       196  -9.2613    132.2616    152.4015   1.1420308974e+02   2.4887192154e+01    0.2024655    0.1405786  55.43  0.000263743    1.488    0.328
       197  -9.6786     90.1954    149.8442   1.2414418580e+02   3.3176193703e+01    0.2206952    0.2148626  38.59 0.0005360647    1.185    0.156
       198 -13.1608     67.6177    144.2636   1.2888592574e+02   3.7863568062e+01    0.9925451    0.6247022  84.93  0.003982118    2.037    0.509
       199  -8.9022     49.5006    150.5232   1.3441377100e+02   3.8677661987e+01    0.1310274    0.1101952 -73.89 0.0008098491    1.044    0.042
       200 -10.6500    134.0000    145.0160   1.1218363111e+02   2.6220731266e+01    0.7511728    0.2098821 -51.74  0.002130351    3.785    0.736
       201 -10.6315    133.2001    140.4066   1.1135132977e+02   2.7436702894e+01    0.4034903    0.3689756 -58.89  0.001525677    1.078    0.072
       202 -10.6792     34.9274    148.8854   1.3771562153e+02   4.0646872332e+01     0.244448    0.1942129  18.08  0.001181501    1.710    0.415
       203 -10.9517     32.1792    145.7299   1.3796124613e+02   4.1647867072e+01    0.3061671    0.1575333 -61.37  0.001620401    1.596    0.373
       204 -11.1157     32.3549    140.2560   1.3717814768e+02   4.2891868170e+01     0.325683    0.1655054 -82.65  0.001004961    2.088    0.521
       205 -11.7351     26.7812    139.2595   1.3842198340e+02   4.3642295340e+01    0.3291787    0.2496509   1.53  0.002057615    1.934    0.483
       206  -9.0573    122.0306    148.0239   1.1578680390e+02   2.7919847607e+01    0.1769663     0.168046  75.64 0.0009553804    1.031    0.030
       207 -10.7023     37.1601    143.8643   1.3649135858e+02   4.1580303406e+01    0.1889121    0.1496354  88.31 0.0003958906    1.175    0.149
       208 -10.9814      9.2221    127.2194   1.4123450306e+02   4.7775051797e+01    0.1806706    0.1254497 -72.12  0.001186793    1.106    0.096
       209 -12.9719      2.7837    128.3088   1.4296123236e+02   4.7967351035e+01      1.13047    0.2784423 -73.78  0.004292257    3.568    0.720
       210 -12.2364      2.5099    143.1319   1.4463511408e+02   4.4707754045e+01    0.7780666    0.1962249 -71.13   0.00327781    2.883    0.653
       211 -10.5732    236.3679    145.9431   9.0603996007e+01   3.9202598935e+00    0.3348727    0.2070582  46.27  0.000856772    1.716    0.417
       212  -9.3554    158.9394    145.1489   1.0626415688e+02   2.0881540485e+01    0.2244978      0.20093  83.10            0    1.193    0.162
       213 -10.8871     61.0621    137.4966   1.2941096003e+02   4.0326320246e+01    0.2842048    0.1757621  45.54 0.0008807015    1.762    0.432
       214 -12.0662     73.8649    139.4104   1.2640560006e+02   3.8139973317e+01    0.7189233    0.5255649 -82.75  0.003369305    1.440    0.306
       215 -11.2142     42.3701    140.8818   1.3476255281e+02   4.1726877317e+01    0.3436962    0.1997935  58.95   0.00153063    2.023    0.506
       216 -11.8331     17.9245    140.6724   1.4075650217e+02   4.4086813486e+01    0.3760096    0.1829495  55.52  0.001930259    2.446    0.591
       217  -9.9292     36.9535    140.4825   1.3606411932e+02   4.2384521910e+01    0.1687627    0.1253529  36.20 0.0009413034    1.587    0.370
       218 -10.6253    111.9090    136.0664   1.1577381659e+02   3.2632619961e+01    0.4154818    0.3249331  17.66  0.001509449    1.651    0.394
       219  -9.1277     98.3748    134.3997   1.1895152781e+02   3.5456943628e+01    0.3475343    0.1879305 -35.15   0.00133234    2.572    0.611
       220 -12.5013     45.6735    131.8687   1.3250096174e+02   4.3468032204e+01    0.5902893    0.4352118  53.76  0.003492222    1.515    0.340
       221 -11.9341     21.0301    133.8900   1.3913717926e+02   4.5367325894e+01    0.2948579    0.2109994  29.59 0.0003596348    1.746    0.427
       222 -10.7672     33.9808    132.3750   1.3563271219e+02   4.4551438881e+01    0.3136584     0.130249  24.02  0.001399668    3.257    0.693
       223  -9.2849     41.9613    188.6314   1.4079882936e+02   3.0848810377e+01    0.2084199    0.1382857  82.91 0.0006228989    1.328    0.247
       224 -11.8725     67.7370    128.2458   1.2592814280e+02   4.1623812955e+01    0.4422477    0.3896971  58.07 0.0004293541    1.230    0.187
       225  -9.7247    117.5227    128.9491   1.1270327599e+02   3.3208362742e+01    0.2223475    0.1268176 -30.26 0.0008095614    2.601    0.616
       226 -10.4352    209.8526    125.7723   9.0841029719e+01   1.3370588876e+01    0.2980817    0.2472821 -34.59 0.0005070473    1.197    0.164
       227 -12.0929     38.4482    124.0152   1.3313346637e+02   4.6039053517e+01    0.5452236    0.2827809 -62.41  0.002804639    1.576    0.365
       228 -11.8401     31.4633    126.9896   1.3547427484e+02   4.6026218797e+01    0.3520896    0.2276737  35.90  0.001453763    1.816    0.449
       229 -11.4597     25.9094    126.0921   1.3679950988e+02   4.6727147953e+01    0.3026697    0.1699995  37.93  0.001463327    2.067    0.516
       230 -13.0798     20.3491    121.4241   1.3757968674e+02   4.8244581346e+01    0.6255658    0.3467197 -48.09  0.002626656    1.696    0.410
       231 -11.0118     24.8465    121.3479   1.3637032956e+02   4.7894696544e+01    0.2591913    0.2003729 -13.62   0.00128936    1.729    0.422
       232  -8.7187     85.4686    126.5796   1.2074743504e+02   3.9419706290e+01    0.1416595    0.1309585 -68.49 0.0002791948    1.018    0.017
       233  -9.4983    105.9967    127.8196   1.1547954880e+02   3.5641297413e+01    0.3750911    0.1809359 -56.42 0.0009850463    2.099    0.524
       234 -10.4228     55.1217    120.8665   1.2798480162e+02   4.4946736146e+01     0.265405     0.199216  18.88   0.00150664    1.670    0.401
       235 -11.7952      9.3744    118.8763   1.4011288711e+02   4.9620501378e+01    0.3928905    0.1927649 -33.27  0.001982963    2.829    0.647
       236 -11.7525     31.2018    117.4759   1.3402722809e+02   4.8219691199e+01    0.4032319      0.26354 -47.19  0.001676294    1.434    0.302
       237  -9.6136    231.9753    116.5108   8.4688926501e+01   1.0187740981e+01    0.2087073    0.1458537  54.50  0.000522173    1.530    0.346
       238 -11.6374     15.3813    114.4630   1.3788659602e+02   5.0180330254e+01      0.28518    0.1769661 -68.40  0.000985018    1.274    0.215
       239 -11.1784    168.1031    113.2734   9.6391478444e+01   2.5615113978e+01    0.3958277    0.3201243 -83.98  0.000728288    1.482    0.325
       240 -11.0844     64.7626    112.5469   1.2355426014e+02   4.5656152893e+01    0.3777294    0.1791684 -47.48  0.001203218    1.921    0.479
       241 -12.6955      8.0400    142.3303   1.4328009641e+02   4.4487839960e+01      0.60534    0.3537946 -81.49  0.003676027    1.400    0.286
       242  -9.9885     50.1521    112.8809   1.2784182644e+02   4.7354925646e+01    0.1926092    0.1634689 -77.60 0.0004338035    1.178    0.151
       243  -9.4716    203.7436    111.4291   8.8530237646e+01   1.7543649387e+01    0.2139702      0.14411  42.30 0.0009467808    1.607    0.378
       244  -8.9830     83.9385    111.2345   1.1772692287e+02   4.3196932260e+01    0.1719668    0.1198581  39.07 0.0004376706    1.553    0.356
       245 -10.2873     69.9604    111.0558   1.2172125398e+02   4.5296968375e+01    0.2023092    0.1835888 -56.16  0.001215111    1.019    0.019
       246 -11.4138     57.0313    110.2785   1.2531715907e+02   4.7146038819e+01    0.4180263     0.243196  22.10  0.001677343    2.203    0.546
       247 -11.3782     27.5831    106.4750   1.3316126994e+02   5.1006761238e+01    0.3041211    0.2183069 -35.54  0.001892126    1.473    0.321
       248 -10.2947     13.5239    108.0124   1.3742006849e+02   5.1739483883e+01    0.1837598   0.09323291 -66.05 0.0004435001    1.532    0.347
       249  -9.5045    114.4240    107.2074   1.0816471649e+02   3.8704313775e+01    0.2033869    0.1413285 -57.99 0.0003724766    1.528    0.345
       250 -10.8510     31.3929    110.7314   1.3281996716e+02   4.9725614590e+01     0.263043    0.1892251  50.73 0.0008006055    1.674    0.403
       251  -9.1807    175.4863    186.5016   1.1130825499e+02   8.6988922946e+00    0.1461108    0.1368074  56.81 0.0008095161    1.071    0.067
       252  -9.5910     33.0036    100.0182   1.3035465391e+02   5.1966002556e+01     0.158915    0.1150642 -58.33  0.000373747    1.130    0.115
       253  -8.5633     21.7198     98.2881   1.3341248695e+02   5.3278317274e+01    0.1109894   0.08526754  85.60 0.0001650297    1.522    0.343
       254  -8.7326     72.0172     90.2540   1.1605662663e+02   4.9592994520e+01    0.1543672    0.1179949  30.21 0.0002278063    1.435    0.303
       255 -11.7774    248.0684    142.3680   8.7810983110e+01   2.2436996990e+00    0.6317599    0.5020528 -23.39  0.002980282    1.235    0.190
       256 -12.6242    248.3392    134.4795   8.6035861745e+01   3.5711628187e+00     1.191371    0.6241054 -38.50  0.005363134    1.733    0.423
       257  -8.9159    123.9742     51.0248   8.8926132641e+01   4.7275588466e+01    0.1653797    0.1565801   8.57 -0.002661949    1.044    0.042
       258 -14.0657      2.6891    222.2135   1.5064236602e+02   2.8004498296e+01     2.809938    0.4104163 -71.94   0.01099155    4.597    0.782
       259  -9.9106    199.9975    245.7820   1.1675356516e+02  -5.9371949379e+00    0.1845533    0.1501033  47.42  0.000533967    1.273    0.214
       260 -10.4271    222.8703    244.7013   1.1235839494e+02  -9.5234473558e+00    0.2054535    0.1304191  23.34  0.001189718    1.454    0.312
