#   1 NUMBER                 Running object number                                     
#   2 MAG_AUTO               Kron-like elliptical aperture magnitude                    [mag]
#   3 X_IMAGE                Object position along x                                    [pixel]
#   4 Y_IMAGE                Object position along y                                    [pixel]
#   5 X_WORLD                Barycenter position along world x axis                     [deg]
#   6 Y_WORLD                Barycenter position along world y axis                     [deg]
#   7 A_WORLD                Profile RMS along major axis (world units)                 [deg]
#   8 B_WORLD                Profile RMS along minor axis (world units)                 [deg]
#   9 THETA_WORLD            Position angle (CCW/world-x)                               [deg]
#  10 FWHM_WORLD             FWHM assuming a gaussian core                              [deg]
#  11 ELONGATION             A_IMAGE/B_IMAGE                                           
#  12 ELLIPTICITY            1 - B_IMAGE/A_IMAGE                                       
         1 -14.8960    187.4547    143.5663   4.9592767431e+01   1.4286221977e+01     14.46872     7.718494 -62.78   0.04849603    3.073    0.675
         2 -15.1413    244.1853     83.5448   2.6450499549e+01   1.3679491813e+01     3.749868     1.768865  47.64   0.01253182    2.784    0.641
         3 -12.8286    176.9388     89.9988   3.8632663519e+01   2.7564007759e+01     1.929378     1.097052 -26.21  0.007535085    2.410    0.585
         4 -15.0779    234.7337    102.6888   3.1765856421e+01   1.2296271041e+01      6.45572     1.531327 -46.04    0.0011099    3.784    0.736
         5 -12.5707     49.0571    134.0007   8.4893144216e+01   4.2735502173e+01     1.766931    0.8832034 -38.03  0.002270744    2.365    0.577
         6 -13.6759    200.3807     55.4475   2.6132015401e+01   2.7733257356e+01     5.494531     1.892972 -32.15   0.01921143    3.675    0.728
         7 -13.6784    220.1174     29.0629   1.7931857003e+01   2.6843406040e+01     1.994967     1.269523 -15.85  0.009971768    2.888    0.654
         8 -13.4389    246.1660     19.7439   1.3786553671e+01   2.2487320204e+01     2.307561    0.7238973 -52.47  0.008593385    2.729    0.634
         9 -14.2070    249.1910     70.6192   2.3237829664e+01   1.4762874400e+01     2.170131    0.6423107 -42.02  0.008523366    2.857    0.650
        10 -10.9189    187.9733     45.9506   2.5651783563e+01   3.2027079167e+01     1.299122    0.7674215 -18.07  0.005740764    2.743    0.635
        11 -11.5184    139.2414     44.6872   3.3845515190e+01   4.3956147965e+01    0.5095968    0.3622347 -20.02  0.002211127    1.706    0.414
        12 -13.2748    249.5930     33.0260   1.5950304217e+01   2.0113144784e+01     2.273076    0.7629619 -30.05  0.007221033    6.601    0.849
        13 -10.2498    120.3029      9.4241   2.6916987936e+01   5.2182306671e+01    0.2938513    0.2834622  -8.81 0.0009827572    1.245    0.197
        14  -9.3094    208.8735      3.1186   1.3677399904e+01   3.2281519206e+01    0.2808317    0.2163935  -8.89   0.00154232    2.133    0.531
        15  -9.9794    181.7962      4.0466   1.6510518442e+01   3.8329986886e+01    0.5293677    0.3535988  86.94  0.003203618    1.276    0.216
        16  -8.4511    138.5038      5.9882   2.2696143730e+01   4.8283625914e+01    0.1638407    0.1280216 -21.85  0.001031337    1.586    0.369
        17  -8.8428     93.1738      5.5408   3.1504358646e+01   5.8405741701e+01    0.2296448    0.1407803  16.27    0.0011264    1.861    0.463
        18 -10.0917    204.1700      7.8543   1.5082566415e+01   3.2842740449e+01    0.2786306    0.2212051  21.44 0.0008495833    2.081    0.520
        19  -8.4137    171.6776      2.0595   1.7174528226e+01   4.0861434234e+01    0.1639556    0.1436452 -85.57 0.0007040957    1.139    0.122
        20 -14.6317    233.8753     39.1464   1.8590619749e+01   2.2544090800e+01     3.634761     1.965664 -25.65   0.01699337    2.957    0.662
        21 -10.2916    203.5884    152.1600   4.8203303325e+01   9.1098317510e+00     0.364306    0.3078413 -57.50 0.0009820468    1.251    0.201
        22 -12.2847      3.5288    144.8466   9.9472365037e+01   4.4207697063e+01    0.9620635     0.372407 -70.51  0.004194415    2.007    0.502
        23  -9.6238    134.5902    148.8309   6.3455727438e+01   2.4528701179e+01    0.5734217    0.2990893 -62.11  0.001962605    2.564    0.610
        24  -9.9597    133.5097    143.0228   6.2383881272e+01   2.6144887442e+01    0.9508776    0.2935745 -55.98  0.002270259    5.012    0.800
        25 -10.0522    103.9491    244.4600   8.7644283073e+01   8.2233473640e+00    0.2185348    0.1976402 -77.43 0.0001061069    1.219    0.180
        26  -7.8634    216.3042    147.3437   4.4661554920e+01   7.5344059393e+00    0.1499289    0.1131405  -8.20 0.0007040721    1.685    0.407
        27  -9.7284    238.3324    242.3281   5.9338781454e+01  -1.2845097448e+01    0.2019483    0.1819008  63.07  0.001093918    1.999    0.500
        28 -10.7870    202.7374    142.3348   4.6160268619e+01   1.1300472519e+01    0.6917139    0.4046593 -68.39  0.002436233    3.101    0.678
        29  -8.9587    128.3591    233.0926   8.0779115897e+01   6.4446709019e+00    0.2186541    0.1764163  29.54 0.0004145041    1.227    0.185
        30 -12.2933     15.3500    143.5528   9.6145903347e+01   4.3655457809e+01    0.9675061    0.5381815 -88.78  0.004775135    1.920    0.479
        31 -10.0920     67.6156    143.9193   8.1243544055e+01   3.7822152922e+01     3.117158     1.471238 -72.32   0.01103099    2.844    0.648
        32  -8.2959     54.8736    233.1186   9.6720688794e+01   1.7932635159e+01    0.1546788    0.1418806 -78.53  0.001025951    1.282    0.220
        33  -8.0546    142.0000    141.8996   5.9905189871e+01   2.4598483239e+01    0.2635232   0.09174739 -47.33  0.000520894    2.857    0.650
        34  -9.4163    210.9861    136.1314   4.3160114892e+01   1.0842410673e+01    0.4846569    0.2052644 -35.26  0.001355742    2.572    0.611
        35 -10.8604    153.8471    136.0611   5.5515821918e+01   2.3351137261e+01     0.510357    0.4460277   2.71  0.002197887    1.323    0.244
        36 -10.5946    136.0000    128.0289   5.8066396100e+01   2.9133020086e+01     1.544334    0.2690246 -50.42  0.002772613    8.608    0.884
        37  -8.7404    215.5943    135.8010   4.2230285243e+01   9.9622081747e+00    0.2492253    0.2169466 -34.02  0.000852201    1.106    0.096
        38  -9.9640    249.8596    168.9360   4.3250701672e+01  -2.5437427755e+00    0.3223987    0.1919917 -48.44  0.001449366    1.685    0.407
        39  -7.4899     83.0000    134.9607   7.4827340032e+01   3.7725810774e+01    0.2517312   0.08303122 -55.13 0.0004769073    2.871    0.652
        40  -8.1858     84.3920    170.4428   8.1422918286e+01   2.8524230822e+01    0.1478476    0.1381417 -67.79  0.000276851    1.057    0.054
        41  -8.8988    147.4403    176.7444   6.6296482511e+01   1.5269966419e+01    0.4210674    0.2114916 -37.63   0.00152436    2.351    0.575
        42  -9.4391    222.5386    129.4453   3.9575270636e+01   9.7940490695e+00    0.3841859    0.2761771   0.67  0.001167337    2.208    0.547
        43  -8.6703    142.9535    169.1360   6.5812070998e+01   1.7957699387e+01    0.2311215    0.2077866  81.73 0.0002645948    1.232    0.188
        44 -10.0156    160.4619    128.6180   5.2085251115e+01   2.3535106020e+01    0.4610151    0.3934263 -25.76  0.001458579    1.271    0.213
        45  -8.4017     80.5632    128.0156   7.4007456264e+01   3.9839044983e+01     0.236438    0.1416111 -54.58 0.0006596562    1.581    0.368
        46 -11.4338     21.7265    126.9393   9.1937683008e+01   4.7195457429e+01     0.438551     0.295926  22.57  0.002481189    1.766    0.434
        47  -9.9513    151.2202    124.0693   5.3180579253e+01   2.6638111974e+01    0.4161785    0.2655639 -57.43 0.0007743417    1.771    0.435
        48  -9.6830     73.2653    125.8294   7.5761965743e+01   4.1513956709e+01    0.2973016    0.2166093  14.94  0.001424577    1.635    0.389
        49  -8.3035     92.1380    121.8108   6.8997399929e+01   3.9389007280e+01    0.2099432     0.178405 -12.91 0.0004376165    1.307    0.235
        50  -8.2929    166.2691    168.2781   5.9962199624e+01   1.3350685037e+01    0.2119999    0.1848676  88.12 0.0008792387    1.381    0.276
        51 -10.6528    226.6036    115.7067   3.5855443613e+01   1.1577311347e+01    0.8114803    0.6099833 -80.86  0.004155034    1.610    0.379
        52 -10.3627     59.4070    115.8391   7.7905625590e+01   4.5901452508e+01     0.236937    0.2292489 -16.46 0.0003268744    1.090    0.083
        53 -12.7097     33.4732    136.3426   8.9951482363e+01   4.3832395910e+01    0.9368402    0.6795157  -1.00  0.001522507    1.794    0.443
        54  -9.2656    240.4085    228.5994   5.6492739973e+01  -1.1093627501e+01     0.211386    0.1751436   9.96 0.0005901368    1.145    0.127
        55 -10.3270    216.5034    109.0692   3.6034190875e+01   1.4938849965e+01    0.7820318    0.2726966 -40.76  0.002757147    2.672    0.626
        56  -7.6940    110.2934    112.2951   6.1121102179e+01   3.8166018561e+01    0.1557487    0.1228123  -7.03 0.0002672689    1.559    0.359
        57  -9.1694    110.0578    108.7507   6.0237961131e+01   3.9010674721e+01    0.4548518    0.1294823  43.76  0.001306959    3.560    0.719
        58  -8.8227    110.7424    103.5337   5.8608100738e+01   4.0020763035e+01    0.2186698    0.1473871  53.46 0.0009459126    1.655    0.396
        59 -10.3055    121.0920     96.2103   5.3593073921e+01   3.9386102516e+01    0.4640011    0.3455128 -63.10   0.00211862    1.642    0.391
        60  -9.5363    140.9728    181.3430   6.8826688876e+01   1.5491311864e+01    0.2604608    0.2222581 -51.56 0.0002694853    1.201    0.167
        61 -12.7126     41.0986    133.6421   8.7228277824e+01   4.3720059330e+01     1.046224    0.8869357 -75.70  0.003020337    1.133    0.117
        62 -10.7058    157.9877     88.4083   4.2185370436e+01   3.2403707377e+01    0.4411339    0.3354692 -20.86 0.0007982709    1.609    0.379
        63 -10.0184    166.0678     86.9801   4.0060206926e+01   3.0728977889e+01    0.4411287    0.2127561 -41.91  0.001240618    2.092    0.522
        64  -8.1229    106.0038     88.9902   5.5850835326e+01   4.4034958044e+01    0.1774659      0.16659 -20.80 0.0004269271    1.055    0.052
        65  -8.9115    142.9160     87.0409   4.5302530643e+01   3.6242306423e+01    0.2236686    0.2208598   3.52 0.0004319141    1.052    0.049
        66 -10.2846    152.7838     70.0667   3.8272513621e+01   3.6903297423e+01     0.533087    0.2565802 -38.94  0.001209411    2.172    0.540
        67  -9.7875    153.8867     83.9647   4.1887378376e+01   3.4209408824e+01    0.3581489        0.239 -48.05   0.00077521    1.565    0.361
        68  -9.7095    153.3073     78.9867   4.0642025650e+01   3.5245379253e+01    0.3567271    0.2400734 -35.99 0.0004640179    1.583    0.368
        69  -9.5919    190.9392     77.1222   3.2813206728e+01   2.6512020841e+01    0.2959098    0.2775785 -86.19  0.001698596    1.046    0.044
        70  -9.3457    248.6458    221.6075   5.3693910904e+01  -1.1155305388e+01    0.3069607    0.2012115  47.43  0.001320373    2.234    0.552
        71  -9.7597    194.8399     78.2758   3.2435221726e+01   2.5394703558e+01    0.2859967    0.1815939 -55.59 0.0008977147    1.604    0.377
        72  -9.5189    139.1586     79.3565   4.4028019266e+01   3.8544027823e+01    0.4194641    0.2439511  28.27  0.001591075    2.492    0.599
        73  -8.7931    225.9125    219.3557   5.7544583987e+01  -7.5215521081e+00     0.448227    0.2274247  55.20  0.001505039    5.231    0.809
        74  -9.6310    126.6975     76.5872   4.6353812845e+01   4.1920963186e+01    0.3388459    0.1815515 -37.96   0.00140319    1.959    0.490
        75  -9.2855    170.9668     74.7718   3.5845990206e+01   3.1707228874e+01    0.2539164    0.2267167 -74.28 0.0004431818    1.116    0.104
        76  -9.8802    169.3424     69.3987   3.4740425863e+01   3.2998029622e+01    0.4156559    0.1866979 -41.88   0.00160328    2.264    0.558
        77  -8.2118    158.5168     73.4603   3.7997547465e+01   3.4947372294e+01    0.1488912    0.1396227  71.84 9.598929e-05    1.006    0.006
        78  -9.6179    136.4866     70.6125   4.2131962863e+01   4.0697885712e+01    0.2466977    0.2407404 -41.01 0.0005924597    1.087    0.080
        79  -9.5685    102.3454     65.6944   4.9759080177e+01   4.9101424324e+01    0.4679523    0.2738775  60.81 0.0009636859    2.357    0.576
        80  -8.1689    153.2747     63.3602   3.6291860907e+01   3.7870032686e+01    0.1449971    0.1129887  19.13 0.0007005234    1.658    0.397
        81  -9.2533    223.2017    162.9843   4.6752996579e+01   3.1540005695e+00    0.2587234    0.2463491 -83.96 0.0007143708    1.256    0.204
        82  -9.6468    208.3139     55.5665   2.5066173740e+01   2.5876723093e+01    0.3252777    0.2258425 -27.11 0.0009159868    1.844    0.458
        83  -9.3160    144.5836     59.6246   3.7073688184e+01   4.0544086552e+01    0.2615974    0.2354739 -77.29 0.0005272996    1.199    0.166
        84  -7.5340     72.6969     58.3166   5.6901270214e+01   5.5896053775e+01    0.1217241    0.1114784  86.99 0.0005911369    1.622    0.383
        85  -9.3172    191.2965    211.9625   6.3219916396e+01  -5.3253777454e-01    0.2489048    0.1915961  25.77  0.000352442    1.226    0.184
        86  -9.7567    178.3781     52.6775   2.8800647502e+01   3.3382880300e+01    0.4134503    0.2355138  32.13  0.001628336    3.051    0.672
        87  -9.7882    249.3652    210.7384   5.1531423965e+01  -9.5553410269e+00    0.2889075    0.2241929  43.45  0.001371031    1.695    0.410
        88  -9.3297    199.0480     39.7313   2.2669169942e+01   3.0253656398e+01    0.3361252     0.231618  74.54   0.00104639    1.302    0.232
        89 -10.9030    195.4006     35.7093   2.2209159758e+01   3.1631992721e+01    0.4867024    0.3536297 -28.65  0.001974674    1.708    0.415
        90 -10.9864    199.6701     33.8081   2.1239751804e+01   3.0878252863e+01    0.3172961    0.2957416 -26.32    0.0012243    1.404    0.288
        91 -10.4586     91.0866     45.0659   4.6238170374e+01   5.4554839360e+01    0.4922508    0.2088914 -31.77  0.001827308    2.548    0.608
        92 -10.3007    208.1588    206.8447   5.8704643023e+01  -2.4924643543e+00    0.6153566    0.3863115  66.66  0.002256598    4.037    0.752
        93  -9.5056    125.1311     46.6571   3.7587154785e+01   4.6998188281e+01    0.2406855    0.2026715 -13.22 0.0005146323    1.338    0.253
        94 -10.4889    132.7883     40.7895   3.4050185272e+01   4.5988645670e+01    0.3239669    0.2412606 -15.98  0.001742116    1.619    0.382
        95  -8.4718    183.1282     35.8995   2.3899481033e+01   3.4513526251e+01    0.1969499    0.1588278 -80.08 0.0003470436    1.166    0.142
        96  -8.4440    173.0570     35.2799   2.5211804312e+01   3.7007865016e+01    0.2030115    0.1512465  70.21  0.001068131    1.174    0.148
        97  -8.8759    167.2933     32.5706   2.5396727985e+01   3.8728374406e+01    0.2215705    0.1238697 -30.95  0.001073736    2.076    0.518
        98  -9.7855    133.9701     32.7761   3.1380576743e+01   4.6686815305e+01    0.2144754     0.201088 -15.33  0.000535902    1.225    0.184
        99  -9.3045    182.9760     23.9497   2.1034536748e+01   3.5986602407e+01    0.2687752    0.2151369  73.02 0.0007133245    1.094    0.086
       100  -9.7913    178.7802     23.7136   2.1523357867e+01   3.7008049562e+01    0.3941024    0.3085334 -72.71  0.001870026    1.244    0.196
       101 -14.0752    198.5682     95.3014   3.5904319779e+01   2.1500341831e+01     8.598765     1.208364  47.85   0.01139848    9.943    0.899
       102  -9.8184    229.4401    207.5796   5.4624986578e+01  -6.0850128374e+00    0.2856278    0.2230218  45.58  0.000743915    1.596    0.374
       103  -8.3212    185.9647     20.2479   1.9786741716e+01   3.5698390911e+01    0.1810289    0.1378066  76.34 0.0003264748    1.105    0.095
       104  -7.7885    208.6249     13.6529   1.5870720091e+01   3.1221599628e+01    0.1219775    0.0846316  46.96 0.0007007368    1.897    0.473
       105  -9.7641    247.7470    202.7930   5.0306024196e+01  -8.0373025772e+00    0.3384615    0.2626103  62.52  0.001877453    2.245    0.554
       106  -9.2618    234.5798    202.1265   5.2592406539e+01  -5.9497512989e+00    0.2772771    0.2275434 -64.04  0.001563971    1.835    0.455
       107 -10.5852    193.0318    194.8531   5.9512141796e+01   2.4650361202e+00     1.020141     0.515655 -62.45  0.003089266    4.720    0.788
       108  -9.1132    197.4830    196.4955   5.8891679565e+01   1.3302146141e+00    0.2055788    0.1363219  47.11 9.985881e-05    1.669    0.401
       109  -8.9595    134.7434    248.8788   8.1651271979e+01   2.3021212129e+00    0.2589179    0.1485583  57.20 0.0008251999    2.046    0.511
       110  -8.5619    173.0271    162.6542   5.7152016535e+01   1.3197756610e+01    0.2128766    0.1992502  35.80 0.0005875233    1.078    0.073
       111  -8.7967    167.9881    154.0461   5.6376650616e+01   1.6184020999e+01    0.3449653    0.2180037 -69.09  0.001217394    2.413    0.586
