#   1 NUMBER                 Running object number                                     
#   2 MAG_AUTO               Kron-like elliptical aperture magnitude                    [mag]
#   3 X_IMAGE                Object position along x                                    [pixel]
#   4 Y_IMAGE                Object position along y                                    [pixel]
#   5 X_WORLD                Barycenter position along world x axis                     [deg]
#   6 Y_WORLD                Barycenter position along world y axis                     [deg]
#   7 A_WORLD                Profile RMS along major axis (world units)                 [deg]
#   8 B_WORLD                Profile RMS along minor axis (world units)                 [deg]
#   9 THETA_WORLD            Position angle (CCW/world-x)                               [deg]
#  10 FWHM_WORLD             FWHM assuming a gaussian core                              [deg]
#  11 ELONGATION             A_IMAGE/B_IMAGE                                           
#  12 ELLIPTICITY            1 - B_IMAGE/A_IMAGE                                       
         1 -13.8207     65.9022    142.4140   1.3265776069e+02   3.8891790659e+01     2.579899     1.173336  88.39  0.003404994    4.929    0.797
         2 -14.4362    195.0531     15.7605   6.8007730942e+01   3.4504022893e+01     2.261965     1.702558  12.26  0.008530125    1.733    0.423
         3 -14.1763    201.3537      8.4927   6.5214172453e+01   3.3621293037e+01     3.116894     1.490692  35.09  0.001946955    3.324    0.699
         4 -10.8024     33.0000      8.5047   1.0726888634e+02   7.0599235125e+01     0.381781   0.05581133 -41.09  0.001159487    5.966    0.832
         5 -11.6574     82.2394    243.0746   1.4024799786e+02   1.6521676123e+01    0.3603332    0.1887487  65.21  0.001775826    1.718    0.418
         6 -11.2305    248.9466    245.3341   1.1188497180e+02  -9.5864058004e+00    0.3993139      0.20132  -8.97  0.002207667    2.634    0.620
         7 -11.8475    141.0517    249.6665   1.3072306113e+02   6.7032854582e+00    0.4751934    0.2111065  47.89  0.002589997    1.719    0.418
         8 -12.0318     99.5469    248.7829   1.3777680144e+02   1.3151880672e+01    0.4062017    0.3083113  37.16  0.002904686    1.514    0.340
         9 -10.2152     73.8182    249.9683   1.4218029106e+02   1.6552060871e+01    0.1640358    0.1196511 -72.59  0.001234927    1.617    0.381
        10 -10.6434     67.0308    250.3875   1.4332135076e+02   1.7378380187e+01    0.2708087    0.1445111 -73.06   0.00118501    2.030    0.508
        11 -10.2779     63.0350    250.5329   1.4398005662e+02   1.7870120835e+01    0.2625203   0.08037028  41.96  0.000860673    2.598    0.615
        12 -15.1192      2.8542     17.4027   1.2665489442e+02   7.1692254624e+01      18.6123     1.477453 -58.40   0.03452389   18.031    0.945
        13 -13.8044     32.2048    246.2144   1.4863818185e+02   2.2275167004e+01     1.633935    0.4817778  42.68  0.009012715    2.567    0.610
        14 -15.3693     57.4990    217.0783   1.4254699105e+02   2.4365608260e+01     6.251194    0.9676813  44.50      0.02421    3.941    0.746
        15 -10.9098     94.7650    240.4776   1.3787125414e+02   1.5168024451e+01    0.1927283    0.1471633 -85.24  0.001395755    1.393    0.282
        16 -11.3472     35.1843    229.8945   1.4728745331e+02   2.4724772300e+01     0.321413     0.133647  63.01  0.001881766    1.949    0.487
        17 -10.9279    128.4863    244.4766   1.3235705825e+02   9.4335097629e+00    0.1865987    0.1494219 -79.00 6.990789e-06    1.496    0.332
        18  -9.8099    229.6924    230.0023   1.1266916900e+02  -5.1071822976e+00    0.1570773    0.1305379  13.15 0.0006795136    1.125    0.111
        19 -11.0003    161.5051    226.7888   1.2427664951e+02   6.6645589534e+00    0.2500906    0.1468621  43.74  0.001416613    1.361    0.265
        20 -11.5476    124.9640    243.9624   1.3292127021e+02   1.0061252563e+01     0.285555    0.1824762  79.58  0.001328756    1.981    0.495
        21 -10.6412     70.6254    244.2016   1.4229504303e+02   1.7911671738e+01     0.145583    0.1231342 -50.36 0.0009671844    1.935    0.483
        22  -9.0751    152.6553    212.9586   1.2402176955e+02   1.0353142063e+01    0.1617218     0.147092  57.92 0.0003478601    1.115    0.103
        23 -10.6417     66.3988    243.2166   1.4293102400e+02   1.8630082605e+01    0.2038202    0.1324302  65.57 0.0005292842    1.154    0.134
        24 -15.8177      9.0284    239.9776   1.5193467157e+02   2.5757542073e+01     8.153025    0.9176759 -72.15   0.03315942    6.039    0.834
        25 -10.9592     32.8191    205.4996   1.4619919113e+02   2.9479613685e+01    0.2870642    0.1639729  79.16  0.001506071    1.439    0.305
        26 -10.5441    193.1253    195.2244   1.1342485048e+02   5.7985812301e+00    0.7869274    0.3870132 -61.87  0.002230727    7.512    0.867
        27 -11.8312     76.8496    188.7203   1.3613260612e+02   2.7287992498e+01    0.2866897    0.2378797 -51.98 0.0008331741    1.575    0.365
        28 -11.7823     72.0765    195.9541   1.3787764374e+02   2.6498245673e+01    0.3752137    0.3096302 -64.30   0.00177305    1.441    0.306
        29 -10.3742     67.3888    196.7121   1.3888946949e+02   2.6986971096e+01    0.3332623    0.1438994  57.71  0.001282704    2.181    0.542
        30  -9.7887    120.0585    188.3845   1.2703800611e+02   2.0498311583e+01    0.3393964    0.2120771  23.42  0.001376165    2.537    0.606
        31  -9.3908    125.5051    186.3469   1.2559074826e+02   1.9939642445e+01    0.3393548    0.1476034  35.08  0.001344732    2.698    0.629
        32 -11.1637     85.0736    176.6009   1.3292392296e+02   2.8601159311e+01    0.2339764    0.2002336  84.17 0.0003849494    1.061    0.058
        33 -13.3818     72.9503    174.0917   1.3526319545e+02   3.0897041488e+01    0.4418374      0.26961 -46.46  0.001656987    2.222    0.550
        34 -11.0561    125.9854    174.5059   1.2363008865e+02   2.2200599817e+01    0.3940262    0.1657804  38.77  0.001568149    2.419    0.587
        35 -13.4215     50.2565    130.1362   1.3484283580e+02   4.3655651415e+01     0.987644    0.3005945  41.12  0.003326449    3.212    0.689
        36  -9.5598    134.3956    148.6365   1.1703512417e+02   2.5964381592e+01    0.2658187    0.1404861 -55.74 0.0007725862    2.038    0.509
        37 -10.4864    162.5992    249.2653   1.2694338503e+02   3.3287483058e+00    0.2339428    0.1118044  49.36  0.001258708    1.730    0.422
        38 -10.0239    112.6898    136.3463   1.1979548151e+02   3.2815899133e+01    0.3318341    0.2697143 -13.99  0.001100911    1.757    0.431
        39 -10.7494    100.3613    133.7178   1.2238987242e+02   3.5613657442e+01    0.2728965    0.2296979 -36.14 0.0003852969    1.417    0.295
        40 -10.2533    102.9701    151.0151   1.2494399073e+02   3.1280360143e+01    0.3185779    0.2729333 -44.48  0.000868904    1.364    0.267
        41 -12.7815     90.0391    166.8940   1.3049219671e+02   2.9915197507e+01     2.037165    0.6194662  52.30  0.002065324    3.907    0.744
        42  -9.3411    118.2789    129.0382   1.1685292263e+02   3.3388092840e+01    0.2293215    0.1067503 -34.22   0.00069845    3.957    0.747
        43  -9.7492    105.1955    147.0170   1.2369452259e+02   3.1783012577e+01    0.2634711    0.1870878 -39.94  0.001215494    1.732    0.423
        44  -9.3656    108.8905    123.7606   1.1811071595e+02   3.6343842778e+01     0.195967    0.1944167 -19.30 0.0003774738    1.141    0.124
        45 -13.9598     11.1300    207.0355   1.5013705987e+02   3.1410167746e+01    0.9912192    0.7074633  48.59  0.002622483    1.442    0.306
        46 -11.1541    168.2652    113.4559   1.0112885064e+02   2.5851406771e+01    0.4224534    0.3352552 -80.55  0.001167564    1.578    0.366
        47 -12.1722     91.8815    150.5834   1.2754684116e+02   3.3216545998e+01    0.2639697    0.2558331 -48.39 0.0006793016    1.263    0.208
        48 -12.4229     46.7115    148.4651   1.3816544321e+02   3.9883663671e+01    0.5048213    0.2698832 -69.82  0.002709864    1.617    0.382
        49  -8.7585    192.4074    144.4178   1.0345926229e+02   1.4494243595e+01    0.1436967    0.1380527  29.56 0.0001006658    1.019    0.019
        50 -12.9644     49.1059    229.8233   1.4493646984e+02   2.3104657076e+01    0.3660853    0.2950515  87.41 0.0009000452    1.285    0.222
        51 -10.9939    107.6081    248.6569   1.3638996505e+02   1.1987590720e+01    0.2611578    0.1482134  55.19 0.0009836159    1.368    0.269
        52 -11.7114     80.1414    247.4552   1.4094436288e+02   1.6100720880e+01    0.4840321    0.1890112  59.16  0.002523387    2.321    0.569
