#   1 NUMBER                 Running object number                                     
#   2 MAG_AUTO               Kron-like elliptical aperture magnitude                    [mag]
#   3 X_IMAGE                Object position along x                                    [pixel]
#   4 Y_IMAGE                Object position along y                                    [pixel]
#   5 X_WORLD                Barycenter position along world x axis                     [deg]
#   6 Y_WORLD                Barycenter position along world y axis                     [deg]
#   7 A_WORLD                Profile RMS along major axis (world units)                 [deg]
#   8 B_WORLD                Profile RMS along minor axis (world units)                 [deg]
#   9 THETA_WORLD            Position angle (CCW/world-x)                               [deg]
#  10 FWHM_WORLD             FWHM assuming a gaussian core                              [deg]
#  11 ELONGATION             A_IMAGE/B_IMAGE                                           
#  12 ELLIPTICITY            1 - B_IMAGE/A_IMAGE                                       
         1 -15.4116      6.1045     69.0556   1.1208189975e+02   6.1199350188e+01     2.096561    0.9091204 -60.73   0.01017603    1.702    0.412
         2 -13.6597    187.2512     11.3614   3.9995497920e+01   3.7170790735e+01     1.147231    0.5958229 -48.83   0.00551304    1.965    0.491
         3 -13.5306    131.8081     32.7515   5.5650246511e+01   4.8468538139e+01     1.064097    0.4958895 -35.06  0.004484208    2.210    0.547
         4 -13.0402      8.0636      2.7219   8.8983635642e+01   7.3756790903e+01    0.4891294    0.4184517  47.10  0.002455394    2.240    0.554
         5 -13.4470      2.6832     10.7908   9.6109853737e+01   7.2892719326e+01    0.6511921    0.3963258 -52.64  0.004189745    1.752    0.429
         6 -15.9851     11.5141     22.2874   9.6024803715e+01   7.0339709383e+01     1.874087    0.9994373 -27.09  0.008385759    1.605    0.377
         7 -14.3193     24.6037     13.8751   8.5287596888e+01   7.0552795001e+01    0.7986131    0.3554237  31.18  0.004264871    2.378    0.580
         8 -14.6908    166.5920     29.7998   4.8111368941e+01   4.0261346528e+01     1.137409    0.8886809  73.01  0.003863509    1.235    0.191
         9 -13.9003    215.1080     20.6061   3.9397474575e+01   2.9532380098e+01    0.8828517     0.447511 -20.40  0.004009738    2.534    0.605
        10 -14.5041    217.6513     11.1837   3.6885415784e+01   2.9982969003e+01     1.537878     1.025417 -23.83  0.001851394    1.733    0.423
        11 -12.7194    120.1232     26.6207   5.6100026749e+01   5.1974404694e+01    0.6228273    0.3615756  48.80  0.002994167    1.554    0.356
        12 -14.9472    147.0751     29.6873   5.1479309631e+01   4.5126098777e+01     1.361615    0.9045271  64.89  0.005191721    1.454    0.312
        13 -15.3661     97.6639     12.3365   5.6083172373e+01   5.8566268701e+01     1.645481    0.7373445  51.58  0.005446773    1.933    0.483
        14 -12.2281     71.5789     17.6654   6.6483053073e+01   6.3215254157e+01    0.3680909    0.2573138 -29.99  0.001433691    1.493    0.330
        15 -11.7175     59.9747     17.0446   7.0546782186e+01   6.5308640996e+01    0.3241686    0.1779162 -28.67  0.001718804    1.746    0.427
        16 -12.3666     38.7191     14.0960   7.8340883721e+01   6.8854056213e+01    0.4949653    0.3130246   3.51  0.002916247    1.554    0.357
        17 -12.0973     45.9281     12.3848   7.4174284113e+01   6.8084637419e+01    0.4024445    0.3310003  65.78  0.002421184    2.370    0.578
        18 -14.1395     42.3173      4.1398   7.1537253509e+01   6.9614548932e+01    0.7746826    0.4749656  19.26  0.003317948    1.483    0.326
        19 -11.5576    153.1956      8.7766   4.3663242422e+01   4.5806175318e+01    0.2266643    0.2038617  68.97 0.0006955136    1.011    0.011
        20 -10.8358     58.1985      6.9582   6.6322095805e+01   6.6788721496e+01    0.1797991    0.1342254 -45.40  0.000813515    1.985    0.496
        21 -12.1055    118.9433      2.9782   4.7496023993e+01   5.4579111256e+01    0.4504146    0.2821057  89.08  0.002197423    2.158    0.537
        22 -14.0133    188.7104     25.8866   4.3785511017e+01   3.5239247979e+01     1.963508    0.8355736 -57.51  0.007199355    3.221    0.690
        23 -12.1232     79.3491      2.1064   5.6725140337e+01   6.3327129969e+01    0.5809745    0.1715211  49.25  0.002387363    2.665    0.625
        24 -11.8785     61.7251      1.8966   6.2441206542e+01   6.6688690009e+01    0.2961396    0.1837509  51.65  0.001175651    1.747    0.428
        25 -11.3215    232.5485      1.7719   3.3541292724e+01   2.7623004802e+01    0.2226178    0.1513889  83.59 0.0009020988    1.343    0.255
        26 -13.2831    139.3097     22.0961   5.0405052677e+01   4.7898113275e+01    0.6834525    0.3087382  60.23  0.002077726    1.990    0.498
        27 -12.8248    109.4871    249.0163   1.1011034163e+02   8.9764605130e+00     0.345445    0.2613441  79.64  0.002272647    1.482    0.325
        28 -12.8809     58.0302    246.5374   1.1949961127e+02   1.6331308003e+01    0.6929219    0.3536298  28.11  0.003705524    2.533    0.605
        29 -11.9359      2.9000    249.8658   1.2906194101e+02   2.1684466847e+01    0.2892107    0.1551551  46.83  0.001658666    1.526    0.345
        30 -13.6311      8.9303    245.6616   1.2792084858e+02   2.1863244085e+01    0.7006094    0.3301571  57.88    0.0033273    1.579    0.367
        31 -15.1369     16.2991    175.7357   1.2245864427e+02   3.5476435933e+01     2.348536     1.007734  64.65    0.0111923    2.470    0.595
        32 -12.5142    201.0163    191.9397   8.2868683279e+01   3.9593735915e+00      0.34557    0.2713328   1.17  0.001303144    1.255    0.203
        33 -11.7201     49.1007    181.6393   1.1561108959e+02   3.0812093096e+01    0.3492445    0.2340923 -50.54   0.00195874    1.711    0.416
        34 -12.7968    198.2825    181.3940   8.1341021710e+01   6.2851433055e+00    0.3280505    0.2988799 -72.42  0.001824985    1.488    0.328
        35 -11.1249    122.0132    181.5103   9.8335269312e+01   2.0189189215e+01    0.2976117    0.1765348  82.58  0.001042768    3.569    0.720
        36 -11.8058     85.7444    180.9934   1.0691253261e+02   2.6139948494e+01     0.199359    0.1771098 -85.36  0.001153168    1.066    0.062
        37 -12.9849    124.0829    166.9191   9.5214741119e+01   2.3077492141e+01    0.6576352    0.4262842 -78.61  0.002769074    2.243    0.554
        38 -11.1488    177.4988    167.4967   8.2856394332e+01   1.2799432139e+01    0.1471337    0.1387354   4.70 -1.984967e-06    1.015    0.014
        39 -11.7712     77.3909    156.9250   1.0535837843e+02   3.3046395290e+01    0.4000316    0.2618271  35.35  0.001428088    1.619    0.382
        40 -13.0152     73.6809    153.3692   1.0576075118e+02   3.4433120588e+01    0.6784262    0.4733162  34.65  0.003120604    1.543    0.352
        41 -11.9932    111.3058    156.1328   9.6370285826e+01   2.7839865149e+01    0.4572633    0.2706402  83.95  0.001528543    3.630    0.725
        42 -12.2330    211.1170    154.7615   7.3135468205e+01   8.7018532966e+00    0.2986275    0.1849157 -12.41  0.001266731    2.147    0.534
        43 -12.5571    164.5118    195.9725   9.1242615151e+01   9.6903835542e+00    0.4110423    0.2740857  79.91  0.001633132    3.286    0.696
        44 -11.4822    103.3019    150.2167   9.7312932451e+01   3.0624403426e+01    0.3460247    0.2374826 -31.91  0.001568162    1.820    0.451
        45 -11.9616     61.2211    147.9686   1.0823919373e+02   3.7401660287e+01    0.3942812    0.2653814 -10.51  0.001669981    2.457    0.593
        46 -11.6081      6.4714    147.5122   1.2241267698e+02   4.2771392289e+01    0.3487047    0.2033939  69.40  0.001995194    1.696    0.410
        47 -10.8886     88.4885    140.4860   9.9429871262e+01   3.5403776175e+01    0.1463457    0.1371706 -69.42 0.0001338752    1.004    0.004
        48 -12.1394     45.1419    134.6819   1.1063926073e+02   4.2537620948e+01    0.4226243    0.2901334 -61.72  0.002318753    1.260    0.206
        49 -12.4941    246.0187    134.6505   6.2463512526e+01   5.6650826077e+00    0.3206075    0.2436306 -88.61  0.001615754    2.261    0.558
        50 -10.4576     10.9452    134.2392   1.2000017590e+02   4.5608352846e+01    0.1334549    0.1045574  30.56   0.00068356    1.559    0.358
        51 -12.5938    222.6908    128.2956   6.4932828790e+01   1.1202899128e+01    0.2618475    0.2273439 -53.91  0.001443524    1.271    0.213
        52 -14.0605    105.4659    121.8077   9.0549314549e+01   3.7064846327e+01     1.278758     1.014847  32.65  0.006351925    1.341    0.254
        53 -14.7953    106.3594    105.7416   8.6204753503e+01   4.0659817874e+01     1.605286      1.13301 -16.68  0.005728436    1.877    0.467
        54 -11.1563     60.0651    125.3531   1.0471660658e+02   4.3138977824e+01    0.2616654    0.1406316  18.51  0.001111409    2.551    0.608
        55 -12.2108    181.3068    121.5210   7.1343021435e+01   2.1267931420e+01     0.333418    0.2663171  78.84   0.00119456    1.650    0.394
        56 -13.1937    120.0623    102.4283   8.1337687570e+01   3.8714321793e+01    0.6340972    0.3181499  36.37  0.002330159    2.196    0.545
        57 -11.7726     88.1836    109.9109   9.2774027543e+01   4.2883020381e+01    0.3453397    0.2085596 -57.42   0.00151884    1.633    0.387
        58 -12.3587     77.3222    117.5703   9.7905557768e+01   4.2721243678e+01    0.5169877    0.3668091  79.30  0.002387122    1.949    0.487
        59 -12.8398     85.0961    115.4207   9.5045835749e+01   4.2057312584e+01    0.7746816    0.3566259  32.36  0.002478479    2.434    0.589
        60 -11.2422      6.8313    119.8016   1.1955112497e+02   4.9323233838e+01    0.3403879     0.238916 -37.37   0.00212029    1.619    0.382
        61 -11.6780      2.1475    119.6414   1.2085689636e+02   4.9631144929e+01    0.6228892    0.2214111 -33.03  0.002279211    5.051    0.802
        62 -11.6423     23.0579     71.8108   1.0606956734e+02   5.9550675511e+01     0.269427     0.192148  16.05 0.0005286848    1.646    0.393
        63 -13.3344      2.1837     97.2238   1.1814188664e+02   5.4922952425e+01    0.7943217    0.2167815 -72.86  0.003107684    2.995    0.666
        64 -14.4427     25.9765     94.3361   1.0976362829e+02   5.4125626096e+01      1.39357     1.080595   5.69  0.008598575    1.563    0.360
        65 -14.1514     10.8531    102.5750   1.1612649924e+02   5.3192549427e+01    0.7208285    0.7044531  51.87  0.004654043    1.272    0.214
        66 -13.0232     28.4174    245.9505   1.2467670441e+02   1.9834729117e+01    0.4170152    0.2521135  61.14  0.002915932    1.255    0.203
        67 -13.4724      6.2291     43.7648   1.0598634566e+02   6.6592243793e+01     1.225381    0.3819433  23.72    0.0056559    3.562    0.719
        68 -10.3507     46.3041    110.3197   1.0610354831e+02   4.8417302526e+01    0.1420664   0.09133299 -38.12 0.0007028378    1.630    0.387
        69 -11.2288    222.5292    109.4973   6.0483243152e+01   1.4557629140e+01     0.146125    0.1321035 -31.67 0.0002191207    1.008    0.008
        70 -14.2672     17.8983    111.1013   1.1515954620e+02   5.0697003170e+01    0.7818483    0.6216384 -43.20  0.003752381    1.290    0.225
        71 -12.2563    136.3166    103.2854   7.7155477250e+01   3.5087822310e+01    0.6082233    0.2847134  46.78  0.002229101    2.205    0.546
        72 -11.5189     65.4485    126.3313   1.0329974558e+02   4.2212880320e+01    0.2686737     0.237794  80.22 0.0009819773    1.191    0.160
        73 -12.1473     62.4235     99.2811   9.8437403588e+01   4.9198813956e+01    0.5872521    0.3631674  84.45  0.002278876    3.163    0.684
        74 -11.1274     48.5849    101.2101   1.0350053941e+02   5.0383156429e+01    0.5725256    0.3273407  61.18  0.002441931    2.777    0.640
        75 -11.9464     52.5026     98.0025   1.0147282588e+02   5.0714025176e+01    0.4187446    0.2368069 -23.99  0.001789357    2.507    0.601
        76 -12.0430     49.4740     94.5005   1.0170262273e+02   5.1887862920e+01    0.4252938     0.292847  79.92  0.001446866    2.157    0.536
        77 -12.2174    137.1093     95.5573   7.4749268398e+01   3.6543631537e+01    0.4755575     0.344563  61.14  0.001443519    1.622    0.383
        78 -13.0008     28.7103    122.4979   1.1356363108e+02   4.7096905052e+01    0.4116007    0.2639561 -62.78  0.002297983    1.280    0.219
        79 -11.5972     43.0958     91.3160   1.0318958934e+02   5.3316473079e+01    0.3357387    0.2051943 -73.41  0.001196596    1.842    0.457
        80 -11.8955     90.2305     88.5198   8.6358423880e+01   4.7466900605e+01    0.4391138    0.3227878  41.49  0.002172528    1.464    0.317
        81 -11.2216     34.3247     86.8908   1.0530802102e+02   5.5188528855e+01    0.2310901    0.1813039 -16.30 0.0009371719    1.409    0.290
        82 -13.1934    188.1198     84.3514   6.0128934473e+01   2.6747302252e+01    0.7215835    0.3187598  43.14  0.002513651    2.614    0.618
        83 -12.2372    149.9425     84.9291   6.8414898872e+01   3.5731470695e+01    0.5771115    0.3266606  32.83  0.002198435    2.234    0.552
        84 -12.9414    237.1940     80.4579   5.1273318552e+01   1.6296962904e+01    0.4517639    0.3071003  85.41  0.002247916    1.929    0.482
        85 -14.6397    162.5763     70.4370   6.1231532749e+01   3.5335933920e+01     2.466763     1.173505  67.86  0.008221801    3.139    0.681
        86 -13.5663    160.9913     80.7909   6.4650432729e+01   3.3885455313e+01    0.8900942    0.5823839  21.34  0.003013374    2.219    0.549
        87 -14.2105    169.3133     77.1521   6.1807314844e+01   3.2533632210e+01    0.8211914    0.5738459  45.43  0.002540114    1.468    0.319
        88 -12.6824     59.6059     61.2396   8.8607707762e+01   5.8011114091e+01    0.9514359    0.4246301 -25.25  0.003130872    4.061    0.754
        89 -12.7216     57.5455     66.7606   9.1199270333e+01   5.7152463554e+01    0.6070908    0.4486344  31.52   0.00338173    1.495    0.331
        90 -12.7158     52.3987     69.9767   9.4158925543e+01   5.7117663471e+01    0.8153441    0.5614322  85.61  0.003605268    2.970    0.663
        91 -13.1366     55.1837     81.8313   9.6503205566e+01   5.4162549382e+01    0.5636028     0.446668 -24.35  0.002407593    1.258    0.205
        92 -13.7520     60.9804     75.6735   9.2642224152e+01   5.4792799606e+01    0.6634018    0.3573481 -38.86  0.001234364    1.737    0.424
        93 -12.9531    216.1311     80.4780   5.4324436692e+01   2.0896026436e+01    0.4701114    0.4512757   9.60  0.002753103    1.158    0.137
        94 -12.8704    135.0504     79.9253   7.0600519381e+01   4.0136842771e+01     0.763917    0.4087479  48.49  0.003067891    1.889    0.471
        95 -12.0100    114.1717     80.2929   7.6461815949e+01   4.4625530442e+01    0.4137672    0.3263343 -51.47  0.001007615    1.352    0.261
        96 -11.0760    121.1353    112.2409   8.3702180820e+01   3.6295844410e+01    0.2530431    0.1837813  71.19   0.00107927    1.917    0.478
        97 -12.9966     91.8798     58.5024   7.6059595632e+01   5.3248707327e+01    0.5780395    0.4862728 -56.61  0.002749873    1.455    0.313
        98 -13.1154     87.6850     65.3940   7.9868538188e+01   5.2730152694e+01    0.5458035    0.3838594  -6.33  0.001604177    1.735    0.424
        99 -12.0783     81.1738     69.8964   8.3605307288e+01   5.2969530612e+01    0.4582779    0.3080298  46.23  0.002233368    1.717    0.418
       100 -12.9150     70.2753     75.8499   8.9333674098e+01   5.3447065337e+01    0.5282959    0.4229404 -15.47  0.001593051    1.278    0.218
       101 -12.2084     77.1236     73.8447   8.6290610107e+01   5.2818247408e+01    0.3958088    0.2969183 -29.33  0.001100318    1.274    0.215
       102 -11.2801     41.8512     76.5567   1.0003020610e+02   5.6842813902e+01    0.2577752    0.1764509 -59.47  0.001119268    1.369    0.270
       103 -11.8684     78.3485    111.0716   9.6102943621e+01   4.4146125533e+01    0.2463706    0.2098626   5.09  0.001014643    1.351    0.260
       104 -12.7124    210.5574     77.6804   5.4480653628e+01   2.2623999984e+01    0.5500691    0.3684439 -69.19  0.002509621    1.898    0.473
       105 -11.3159     62.4809    111.1572   1.0112133026e+02   4.6328078232e+01    0.2625283    0.1519881  53.93  0.001146804    2.264    0.558
       106 -13.7023    199.3362     69.9103   5.4240706763e+01   2.6510137471e+01    0.7992262    0.4388551  50.73  0.002291008    1.896    0.473
       107 -12.3482     39.2080     68.4406   9.8842792599e+01   5.8904199766e+01    0.4710727    0.2607339  25.30  0.002407811    2.037    0.509
       108 -10.6928     33.9485     68.0000   1.0080497771e+02   5.9501455862e+01    0.2355297     0.154514   3.77 0.0009961448    1.788    0.441
       109 -11.4449    100.3961     64.2846   7.5355304320e+01   5.0535004247e+01    0.4002339    0.2469644 -20.61  0.001723365    1.956    0.489
       110 -13.3464    133.9272     65.5851   6.6327499722e+01   4.3026537407e+01    0.7248523    0.6685342 -14.51  0.002768635    1.082    0.076
       111 -13.8143    177.8646     58.0150   5.4586730199e+01   3.3594170825e+01    0.8312336    0.6459001 -47.30  0.002368819    1.289    0.224
       112 -12.3196     79.5045     61.0257   8.1174352255e+01   5.5001093512e+01    0.4343032    0.4018369  -3.15  0.002132823    1.073    0.068
       113 -12.8108     81.1422     54.7241   7.8339742059e+01   5.5891907609e+01    0.6409326    0.4200909  33.69  0.003221252    1.550    0.355
       114 -11.9874     24.4376     59.9995   1.0249247485e+02   6.2031789511e+01    0.2912391    0.2014448 -44.61 0.0008414983    1.145    0.127
       115 -10.7946     38.6792     60.1234   9.6609494100e+01   6.0732464193e+01    0.2014027    0.1568506 -65.41   0.00117927    1.508    0.337
       116 -14.5664    119.5334     54.7588   6.6437473460e+01   4.8145967225e+01    0.9981274    0.6549638  32.89   0.00363868    1.619    0.382
       117 -12.9059    135.6828     50.2886   6.0814780416e+01   4.5108827658e+01    0.5467072    0.3314867  32.18  0.002351342    1.932    0.482
       118 -11.8438    247.4549     54.5531   4.4012636570e+01   1.7995316808e+01    0.4451728    0.1490564 -47.65  0.001727572    2.758    0.637
       119 -12.3294     97.8060     50.5762   7.1266271341e+01   5.3467736174e+01     0.401082    0.3473842 -79.38   0.00135753    1.628    0.386
       120 -13.2665     65.8045     48.9879   8.1839923274e+01   5.9452731088e+01    0.5020192    0.4844111   1.89  0.001617786    1.249    0.200
       121 -13.6466    103.1316     50.4797   6.9592799884e+01   5.2393905670e+01    0.8256886     0.600545 -68.96  0.001195702    2.249    0.555
       122  -9.9767     33.2730     49.6767   9.5558971230e+01   6.3397180184e+01    0.1113485   0.09872113 -78.14 0.0003079489    1.576    0.365
       123 -13.2259    158.1000     44.2366   5.4071240134e+01   4.0513361538e+01    0.7442961    0.4844087  39.34  0.003474547    1.659    0.397
       124 -13.6895    171.5569    242.8416   9.7301146166e+01   5.7780918297e-01    0.7853013    0.4603649  28.66  0.004367107    1.523    0.344
       125 -13.1083    205.0124     40.3581   4.5555218448e+01   2.9484153201e+01    0.6747085    0.3770251 -84.42   0.00285652    2.429    0.588
       126 -12.8000    109.5098     42.1598   6.4650806783e+01   5.2322755811e+01    0.5167931    0.2475053  47.30  0.001239514    1.976    0.494
       127 -14.5889     97.0699    238.9388   1.1146598570e+02   1.2527084356e+01    0.8443753    0.7155883  53.31  0.005854414    1.052    0.049
       128 -14.2273    122.0045     37.4412   5.9619698198e+01   5.0169945047e+01    0.9183853    0.5069165  34.16  0.002464635    2.021    0.505
       129 -13.1070    113.7594     38.1375   6.1989917800e+01   5.1955414289e+01    0.3995038    0.3521221  23.37  0.001350222    1.060    0.057
       130 -10.4157     55.4805     41.3816   8.3005337806e+01   6.2319107076e+01    0.1324798    0.1085137  -9.22 0.0001870852    1.057    0.054
       131 -12.6124     75.9703     37.3855   7.3461197655e+01   5.9714364140e+01    0.3596388    0.2456614  40.94 0.0009457566    1.501    0.334
       132 -12.1721     69.6266     36.5854   7.5468409477e+01   6.0931557864e+01    0.4053128    0.2183699  32.17 0.0009909221    1.876    0.467
       133 -12.9698    242.1029     36.0942   4.0383209798e+01   2.1605865362e+01    0.6275588    0.2967671  74.27  0.002518493    2.288    0.563
       134 -11.0861    104.5100     36.9944   6.4107907093e+01   5.4147534231e+01    0.2133202     0.134739 -29.62  0.001036434    1.605    0.377
       135 -11.9367    147.3095    239.0552   1.0153464281e+02   4.9357892595e+00    0.1698133    0.1543941  39.63 0.0009043217    1.099    0.090
       136 -11.2495     14.6007    224.0644   1.2591700765e+02   2.5382045802e+01    0.3843402    0.1983623  68.52  0.001677938    1.598    0.374
       137 -12.7169      2.1496     21.8700   1.0093337064e+02   7.1011135192e+01    0.2889273    0.1628042 -51.88   0.00120492    1.515    0.340
       138 -11.7614     24.7347    217.0903   1.2364547752e+02   2.5769170189e+01    0.5968913    0.4282351  49.52  0.004195395    1.304    0.233
       139 -13.6125     25.8422    227.2937   1.2406773638e+02   2.3624917652e+01    0.6414576    0.3296951 -65.19  0.003882043    2.024    0.506
       140 -11.6834     57.9995     35.2582   7.9479335239e+01   6.2983856740e+01    0.3583972    0.2093262  22.75  0.001570872    1.812    0.448
       141 -12.2885     46.1561     33.8370   8.3908364138e+01   6.4865330383e+01    0.4648618    0.2790734 -19.82  0.002474924    1.667    0.400
       142 -11.7370     27.5591     32.6960   9.2031671774e+01   6.7153231071e+01    0.3589896    0.2007325 -48.75  0.001993512    1.695    0.410
       143 -11.1017     31.4000     31.1601   8.9573641239e+01   6.7041166624e+01    0.2412024    0.1412676  18.75 0.0008321107    1.784    0.439
       144 -13.2745     20.9017    225.2151   1.2484393784e+02   2.4536263458e+01    0.4257599    0.3380008  71.11  0.002627962    1.099    0.090
       145 -10.3642     91.3170     34.3244   6.7024139867e+01   5.7265294829e+01    0.1453902   0.09780078  13.76 0.0007044008    1.670    0.401
       146 -12.4710    224.4745     20.9046   3.8558068425e+01   2.7350423745e+01    0.4287523    0.3068969  85.19  0.001712151    1.328    0.247
       147 -12.6196    236.9863    229.9942   8.2998338856e+01  -7.3411696217e+00    0.2925657    0.1491244  44.01  0.001500614    2.421    0.587
       148 -13.5211     65.9229    223.5745   1.1613105220e+02   1.9705609077e+01    0.7503904    0.5211757  38.52   0.00469058    1.426    0.299
       149 -14.2485     63.0714    214.7802   1.1589489179e+02   2.1854879191e+01    0.8972161    0.4829164  46.01  0.004935194    1.622    0.384
       150 -12.8724     56.1618     27.4552   7.6875072419e+01   6.4474606789e+01    0.6038002    0.2828446  42.20  0.002075398    2.339    0.573
       151 -12.6512     68.3833     24.6140   7.0790515718e+01   6.2894745209e+01    0.6448855       0.3021  38.77  0.003041942    2.039    0.510
       152 -13.3507     95.3100    218.5967   1.0959831005e+02   1.6649059238e+01    0.5142531    0.2485768  37.47  0.002499235    1.896    0.473
       153 -10.9909     97.8724     27.1466   6.2130201434e+01   5.6867799715e+01    0.1976368    0.1908862  58.50  0.001225942    1.246    0.197
       154 -11.2944     37.3938     25.7850   8.4442311449e+01   6.7272834311e+01    0.2048693     0.154234  15.50 0.0002959518    1.299    0.230
       155 -12.1815     46.6086     20.9936   7.8034090172e+01   6.6812398610e+01    0.3835839     0.264232  13.65  0.001618258    1.356    0.263
       156 -11.0833     54.3425     19.9056   7.4187334408e+01   6.5830597174e+01     0.242906    0.1499881  15.86  0.000944031    1.656    0.396
       157 -11.7525    156.4383    214.0925   9.6025384249e+01   7.7451689584e+00    0.3132509    0.2782704  33.43  0.001941438    1.025    0.025
       158 -13.2436      9.3342    210.9198   1.2617127648e+02   2.8505390899e+01    0.6746964    0.3703046  42.28  0.004340612    1.711    0.416
       159 -11.8769     40.6052    243.5115   1.2241348406e+02   1.8940443659e+01    0.3083062    0.1799279  89.68  0.002003167    1.602    0.376
       160 -11.4206    136.8528    211.3488   9.9767166238e+01   1.1534154839e+01    0.2154842    0.1864231 -77.44 0.0008147523    1.344    0.256
       161 -12.6169     41.7876    206.8574   1.1955459119e+02   2.6068686155e+01     0.361124    0.1762668  72.12  0.001800392    2.183    0.542
       162 -11.8117    247.7245    225.1810   8.0282799222e+01  -8.1960680872e+00    0.2672921    0.1429628  30.86  0.001523597    1.703    0.413
       163 -11.4103     38.1919     30.0246   8.5903238413e+01   6.6484181509e+01    0.1878053    0.1338978 -18.72 0.0003221251    1.188    0.158
       164 -11.1325    150.6399    206.8896   9.6101955667e+01   1.0052697933e+01    0.2582171    0.1737908  28.86   0.00133014    1.463    0.316
       165 -12.4314     57.3534    203.3354   1.1599408561e+02   2.4987540781e+01     0.509758    0.2420011 -88.22  0.002307694    2.552    0.608
       166 -13.1954     40.5994    195.4325   1.1883142798e+02   2.8668472152e+01    0.4753516    0.2433616  81.15  0.002376797    2.080    0.519
       167 -12.7047     17.0457    195.0684   1.2370740252e+02   3.1128926633e+01    0.8127024    0.3025349 -76.02  0.003934207    2.271    0.560
       168 -14.0638     29.9390    169.0408   1.1877457479e+02   3.5769859474e+01     1.403231    0.8002267  62.32  0.002887431    1.753    0.430
       169 -13.5112     22.2529    181.1518   1.2158388775e+02   3.3717823022e+01    0.7428187    0.3894378 -58.85  0.003657549    1.909    0.476
       170 -14.9593      8.1367    183.6401   1.2477318453e+02   3.4400971542e+01     1.088161    0.8811258 -88.79  0.007921935    1.115    0.103
       171 -14.1034    217.6856     42.2112   4.4452644717e+01   2.6255806185e+01     1.071029    0.4525553  63.06  0.004152931    2.337    0.572
