#   1 NUMBER                 Running object number                                     
#   2 MAG_AUTO               Kron-like elliptical aperture magnitude                    [mag]
#   3 X_IMAGE                Object position along x                                    [pixel]
#   4 Y_IMAGE                Object position along y                                    [pixel]
#   5 X_WORLD                Barycenter position along world x axis                     [deg]
#   6 Y_WORLD                Barycenter position along world y axis                     [deg]
#   7 A_WORLD                Profile RMS along major axis (world units)                 [deg]
#   8 B_WORLD                Profile RMS along minor axis (world units)                 [deg]
#   9 THETA_WORLD            Position angle (CCW/world-x)                               [deg]
#  10 FWHM_WORLD             FWHM assuming a gaussian core                              [deg]
#  11 ELONGATION             A_IMAGE/B_IMAGE                                           
#  12 ELLIPTICITY            1 - B_IMAGE/A_IMAGE                                       
         1 -14.4657    151.8188     57.1273   8.6815657726e+01   3.9799917207e+01     1.404684     1.139893  22.41  0.001000836    1.236    0.191
         2 -14.9214    163.2571     42.4300   7.9231042231e+01   3.9154041935e+01     1.477883     1.085046 -10.65  0.003502117    1.392    0.282
         3 -14.6531    177.0965      9.7069   6.5233754718e+01   3.9296556311e+01      1.37594     1.101197  47.29  0.004518211    1.180    0.152
         4 -13.6745    194.1970      5.0818   6.1416601315e+01   3.5124265930e+01     1.013914    0.5432783 -77.61     0.003891    2.708    0.631
         5 -11.9159    189.9577     14.8039   6.5153231622e+01   3.5358175392e+01     0.264522    0.2160901 -14.23 0.0007070994    1.223    0.182
         6 -11.3801    153.8101    195.0020   1.1788105916e+02   1.5737756947e+01    0.2830929    0.2156496  71.04  0.001372417    1.761    0.432
         7 -19.9964     75.0888    171.8440   1.3066853936e+02   3.1051104506e+01     14.34283     6.283335 -69.10   0.07471424    2.426    0.588
         8 -11.2641     16.4518    250.0839   1.4545070672e+02   2.4608072130e+01    0.1093456    0.0658308  84.00   0.00099099    1.481    0.325
         9 -10.8832    139.6292    200.4940   1.2128572787e+02   1.7158047561e+01    0.2794468    0.1713339  40.12 0.0007506225    1.323    0.244
        10 -10.9311     21.6870    240.2849   1.4438665121e+02   2.5497213764e+01   0.09843911   0.07458758  85.08  0.000626462    1.346    0.257
        11 -10.9167    131.2396    237.4596   1.2685958037e+02   1.3340404488e+01    0.1237776    0.1168496  53.61 0.0003210713    1.293    0.226
        12 -10.9396      7.8133    238.1002   1.4632710554e+02   2.7015107165e+01   0.09180651   0.05054909  83.11 0.0007756151    1.532    0.347
        13 -13.0559    153.9995    186.1034   1.1655792176e+02   1.7013085320e+01    0.5157313    0.3000559 -61.84  0.002632509    2.727    0.633
        14 -10.5460     30.7603    232.6422   1.4274238766e+02   2.5757059362e+01    0.1341233   0.09982391  82.38  0.001235727    1.274    0.215
        15 -10.5504     25.8807    229.7939   1.4337291093e+02   2.6629489318e+01    0.1934172   0.05142209 -81.18  0.001032756    4.012    0.751
        16 -12.3645    118.1255    181.3286   1.2299073766e+02   2.3443887018e+01     0.609495    0.2888236  63.13  0.002428892    3.831    0.739
        17 -11.2910    108.5198    182.6054   1.2508109334e+02   2.4641488647e+01    0.2134411    0.1749726  53.88  0.001475165    1.046    0.044
        18 -10.8034     30.3971    182.9093   1.4034700276e+02   3.3827469339e+01    0.1579526    0.1276748  46.11 0.0002845957    1.316    0.240
        19 -12.4321    199.4455    179.2311   1.0680484386e+02   1.0222138655e+01    0.4179533    0.2745894 -56.40  0.002113572    2.841    0.648
        20 -13.4427    195.6828    169.5441   1.0575678103e+02   1.2169898754e+01    0.4650809    0.4336012 -13.48  0.000868254    1.281    0.219
        21 -12.4857    193.5982    164.7503   1.0525593815e+02   1.3208056662e+01     0.349843    0.3014478  21.55  0.001352328    1.061    0.057
        22 -14.5325    145.1411    169.6951   1.1578759267e+02   2.1066250185e+01    0.8024347    0.6170942  74.70  0.004669815    1.724    0.420
        23 -13.7619    138.4097    171.0654   1.1738966763e+02   2.1964739404e+01     0.731421    0.5092996  57.93  0.003929049    1.539    0.350
        24  -9.9584     11.8047    174.0154   1.4332118209e+02   3.7014731078e+01    0.1169672   0.09116209 -82.52 0.0002546411    1.277    0.217
        25 -11.8373    125.9872    171.9480   1.2009136629e+02   2.3825683480e+01    0.2625932    0.2346937 -86.57   0.00103534    1.254    0.202
        26 -11.7715    165.3039    171.8748   1.1206849165e+02   1.7245534242e+01    0.2263178    0.1628687  47.83  0.001312106    1.328    0.247
        27 -10.4097     22.5215    221.0248   1.4354605752e+02   2.8252198804e+01    0.1070523   0.07497161 -83.65 0.0004499026    1.456    0.313
        28 -10.7253     34.3261    169.8338   1.3875719029e+02   3.5844927739e+01    0.1671388    0.1425435  42.67 0.0006352047    1.345    0.256
        29 -12.1226    230.1855    166.8918   9.9000871682e+01   6.3556123254e+00    0.2505642    0.1691197 -34.59  0.001435271    1.794    0.443
        30 -12.2104    121.9266    165.3934   1.1997694447e+02   2.5612803769e+01    0.5372294    0.2213648  54.99  0.002082641    3.317    0.698
        31 -11.0166     25.3481    165.0558   1.4021928829e+02   3.7550017121e+01    0.1578021    0.1369016  52.62 0.0006250798    1.278    0.218
        32 -12.5058    129.3646    161.6542   1.1781071063e+02   2.5074213968e+01    0.4540318    0.2099384  40.15  0.001575176    1.943    0.485
        33 -12.7517    160.3252    152.3101   1.0957186149e+02   2.1257465288e+01    0.3261093    0.2496312 -14.44  0.001255538    1.537    0.350
        34 -10.6825     28.7753    242.6066   1.4343207538e+02   2.4520262613e+01    0.1750308   0.07712508 -84.25   0.00129007    2.295    0.564
        35 -10.8284    139.0410    250.2249   1.2678797362e+02   1.0749304469e+01    0.1512294    0.1038437  35.45 0.0006932221    1.209    0.173
        36 -11.0128     22.9626    156.0565   1.4011481423e+02   3.9473459628e+01    0.1755136    0.1349851  48.59 0.0005146927    1.302    0.232
        37 -11.2693    192.5023    157.7199   1.0411088535e+02   1.4405901989e+01    0.2884912    0.1779817  20.51  0.001424711    1.761    0.432
        38 -13.1872    163.0907    155.2834   1.0955491123e+02   2.0258903453e+01    0.3658425     0.315948 -27.93  0.001139578    1.268    0.211
        39 -12.2102    174.2779    148.7043   1.0595905984e+02   1.9220951597e+01    0.3055311     0.277703  53.03  0.001163502    1.259    0.206
        40 -11.7109    111.5598    213.5041   1.2791417083e+02   1.9302892394e+01    0.1806978    0.1365755  68.14 9.886952e-05    1.340    0.253
        41 -12.4464    109.5175    210.4962   1.2798083961e+02   2.0029860974e+01    0.2887387    0.1590318  39.91 0.0009591311    1.494    0.331
        42 -11.5694      7.8458    138.4429   1.4218875366e+02   4.4099548367e+01    0.2736768    0.2097121  29.89  0.001407967    1.602    0.376
        43 -10.6215      1.7909    139.9286   1.4357814842e+02   4.4206243565e+01    0.1443184    0.1127405 -81.72 0.0004822717    1.181    0.154
        44 -12.3429    108.3003    207.6672   1.2791621542e+02   2.0624699845e+01    0.2532029    0.1862833  32.30 0.0006692806    1.389    0.280
        45 -11.8833     27.0857    136.3650   1.3773267965e+02   4.3065781096e+01    0.2468391     0.188041   3.11  0.001701485    1.968    0.492
        46 -13.0285    160.4911    127.7707   1.0447269384e+02   2.5430670066e+01    0.4036251    0.3622612 -68.47  0.001856182    1.390    0.280
        47 -10.7417    130.4416    212.5923   1.2442122701e+02   1.6777589853e+01    0.1527241    0.1047201 -79.05 0.0006561931    2.118    0.528
        48 -12.2490    116.3008    212.1843   1.2692780294e+02   1.8844052240e+01    0.2339603    0.1764554  79.19  0.001294845    1.536    0.349
        49 -11.1111    167.4172    112.5592   9.9351096699e+01   2.6666001995e+01    0.3106074    0.2443621  87.13  0.001463115    1.990    0.497
        50 -13.1374     11.6705    205.8973   1.4469488799e+02   3.1571154583e+01    0.3440868    0.2298604  28.10  0.002791147    1.916    0.478
        51 -10.7805    205.3262    110.2282   9.0960467161e+01   1.8818053353e+01    0.3076675    0.1911752  40.01 0.0009028178    1.522    0.343
        52 -12.7714    163.5170    202.6914   1.1714734633e+02   1.3120255111e+01    0.4278351    0.2586125  46.80  0.001416018    1.451    0.311
        53 -12.9892    161.0016    198.0175   1.1695708044e+02   1.4159631616e+01    0.3765296    0.2941769 -70.40  0.002435078    1.911    0.477
        54 -12.0555    156.7183    199.7183   1.1799176455e+02   1.4606110796e+01    0.3748289    0.2563874  65.57  0.002199293    2.017    0.504
        55 -10.4709    144.0574     80.6938   9.6202815688e+01   3.7507550905e+01    0.2185886    0.1942855  31.02 0.0007629762    1.104    0.094
        56  -9.9782    108.3615    248.3639   1.3152435241e+02   1.4966515879e+01   0.09500598   0.06995574  44.63 0.0002748618    1.103    0.094
        57 -10.2550    160.0056    246.6163   1.2305686659e+02   8.2885609247e+00    0.1682381    0.1019956 -30.36  0.001151877    2.505    0.601
        58 -13.0128    167.2950     34.1122   7.5507777614e+01   3.9216340810e+01    0.4544901    0.3790117  -8.69  0.000852602    1.176    0.150
        59 -10.9603     13.5098     59.9608   1.3250183776e+02   6.0713715868e+01    0.1824673    0.1515555  66.25 0.0004269186    1.404    0.288
        60 -10.4791    143.4328     33.6844   8.0364439972e+01   4.5403160381e+01    0.2635018     0.188143  68.39 0.0008000474    1.683    0.406
        61 -10.7958    133.8316    245.9339   1.2723048396e+02   1.1951510603e+01    0.1281929    0.1016363  39.59  0.000284277    1.140    0.123
        62 -11.7273    125.0677    244.0292   1.2847977904e+02   1.3350912369e+01    0.1593866    0.1310097 -64.43 0.0008594994    1.639    0.390
