#   1 NUMBER                 Running object number                                     
#   2 MAG_AUTO               Kron-like elliptical aperture magnitude                    [mag]
#   3 X_IMAGE                Object position along x                                    [pixel]
#   4 Y_IMAGE                Object position along y                                    [pixel]
#   5 X_WORLD                Barycenter position along world x axis                     [deg]
#   6 Y_WORLD                Barycenter position along world y axis                     [deg]
#   7 A_WORLD                Profile RMS along major axis (world units)                 [deg]
#   8 B_WORLD                Profile RMS along minor axis (world units)                 [deg]
#   9 THETA_WORLD            Position angle (CCW/world-x)                               [deg]
#  10 FWHM_WORLD             FWHM assuming a gaussian core                              [deg]
#  11 ELONGATION             A_IMAGE/B_IMAGE                                           
#  12 ELLIPTICITY            1 - B_IMAGE/A_IMAGE                                       
         1 -15.1635    205.5336     10.7078   4.4095448354e+01   3.1871211838e+01     3.761412     2.147689  22.98   0.01591517    2.765    0.638
         2 -14.2767    170.9959     53.8418   6.2145523154e+01   3.5394648091e+01     1.921291     1.343797  22.40  0.006032786    1.773    0.436
         3 -14.0399    185.6632     38.9684   5.4944741528e+01   3.3700467054e+01    0.8964246    0.8394719  52.60  0.003048201    1.066    0.062
         4 -11.0319    204.5909    200.2588   9.1967179527e+01   2.4026174395e+00     0.239938    0.1447255  23.22  0.001202257    1.757    0.431
         5 -14.0850    246.1918    240.0702   9.1473475062e+01  -9.1969247767e+00       1.4824    0.7068965 -22.75  0.008464091    2.278    0.561
         6 -13.9293     50.4132    238.1914   1.2526628783e+02   2.0393923576e+01     8.206063     7.122523  53.83   0.06752709    1.422    0.297
         7  -9.1495    161.2377    199.3499   1.0019986196e+02   1.0380608699e+01    0.1246452   0.09970754  -2.08 0.0003907664    1.569    0.363
         8 -12.3640     64.9560    196.7263   1.1923280427e+02   2.6291758506e+01    0.3381491    0.2192668 -45.18  0.001339697    2.250    0.555
         9 -10.1396     81.6015    195.5410   1.1579410766e+02   2.4263803861e+01    0.2457506    0.1943848 -46.26  0.001537327    1.662    0.398
        10 -11.7467    206.6074    194.6995   9.0566747309e+01   2.8625552389e+00    0.5252845    0.1694093  31.93  0.001543443    4.925    0.797
        11 -11.6697     54.5976    210.8270   1.2249429652e+02   2.4836079664e+01    0.1891647    0.1384056  59.92  0.001098772    1.151    0.131
        12 -11.5004     70.5104    209.5411   1.1942857294e+02   2.3047663556e+01    0.3026652     0.163772  43.12   0.00132834    1.696    0.410
        13 -10.2268     75.5281    206.5403   1.1817930296e+02   2.2946658410e+01    0.1891174    0.1275346 -77.56 0.0002003304    1.443    0.307
        14 -11.4287     62.2481    205.5980   1.2061281820e+02   2.4886527498e+01    0.2104097    0.1810604 -79.40 0.0006587689    1.276    0.217
        15 -10.8958    188.7574    175.8478   9.0386551747e+01   9.2274961079e+00    0.5034591    0.2489264 -48.72  0.002102108    2.473    0.596
        16 -10.6168    204.3911    175.2967   8.7203508742e+01   6.2912796288e+00    0.3200923    0.2748633 -51.52  0.001411657    1.449    0.310
        17 -10.6120    196.5052    175.0158   8.8682489556e+01   7.8608673259e+00    0.2815554     0.274088  58.74  0.001711217    1.232    0.188
        18 -12.7875     60.2080    217.1460   1.2200743631e+02   2.2947944692e+01    0.3785696    0.1987263  87.82   0.00214316    2.015    0.504
        19 -11.8492    193.7184    196.3047   9.3308809751e+01   4.9568064542e+00     1.031197    0.5555444 -61.60  0.003568315    5.006    0.800
        20 -11.1800    230.5526    166.8239   8.0555652284e+01   2.6472983095e+00    0.3126308    0.1138101 -42.01  0.001147879    3.145    0.682
        21 -18.9046     24.0616     99.0240   1.1647245586e+02   5.2526482359e+01     14.50583     1.236666 -66.42   0.03137955    9.426    0.894
        22 -12.1079    189.1336    209.5613   9.6496643731e+01   3.7636513230e+00     1.138583    0.2279756  36.53   0.00252927    8.685    0.885
        23  -9.0724    117.2163    161.6425   1.0311935386e+02   2.5689746050e+01    0.1374052    0.1031101 -86.57 0.0002914856    1.557    0.358
        24 -10.7192      6.0108    161.3068   1.2795176172e+02   3.9926811738e+01    0.1791767    0.1376861  43.27 0.0005026786    1.527    0.345
        25 -10.5301    187.0064    154.1573   8.6179346381e+01   1.3419063773e+01    0.3951149      0.15594  34.74  0.001285418    3.228    0.690
        26 -10.6930    113.2276    151.6412   1.0220774774e+02   2.8575288903e+01    0.2816242    0.2289574 -85.92  0.000572234    1.322    0.244
        27 -12.6564     99.2471    151.5578   1.0553989368e+02   3.0980075836e+01    0.6023629    0.4847768 -24.24  0.003222042    1.676    0.403
        28 -10.8201    174.4982    149.1458   8.7689402788e+01   1.6979941786e+01    0.3208322    0.2684557 -55.49 0.0007758601    1.339    0.253
        29 -11.0000    144.0685    147.1139   9.4024685077e+01   2.3695457416e+01    0.4745851    0.2649675 -64.60  0.001790166    2.654    0.623
        30 -11.7476    133.8902    145.8497   9.6132186078e+01   2.5985310520e+01     1.239913     0.311323 -54.20  0.003001736    5.917    0.831
        31  -9.8830    115.9305    144.8838   1.0023703808e+02   2.9588319961e+01     0.226299    0.1687921  80.75 0.0005949663    1.649    0.393
        32 -11.9546    109.2068    138.6218   1.0062015875e+02   3.2199475846e+01    0.6550758    0.3512566 -37.41   0.00262995    2.398    0.583
        33  -9.5099    128.4745    139.5233   9.6068679929e+01   2.8413733669e+01    0.1468819    0.1421089 -88.28 0.0002828669    1.017    0.017
        34 -12.5451     97.9548    137.5473   1.0323310856e+02   3.4376184411e+01    0.2760506    0.2670953  88.44 0.0004542505    1.070    0.066
        35 -11.6764    105.8719    130.7439   9.9811120677e+01   3.4579355871e+01    0.4247199    0.3290802 -72.61   0.00112843    1.369    0.270
        36 -11.5038    104.0145    124.7823   9.8988785709e+01   3.6269670185e+01    0.2863462    0.2473787   3.89 0.0006920422    1.433    0.302
        37 -11.0541    135.8832    127.7462   9.1572833626e+01   2.9502347713e+01    0.5717874    0.1951852 -47.08  0.001855686    2.902    0.655
        38 -10.3986    160.5196    127.8206   8.5759879202e+01   2.4230649108e+01    0.4002549    0.2558002 -53.55  0.001706418    1.750    0.429
        39 -10.4782    120.8054    122.9854   9.4212618750e+01   3.3566870828e+01    0.4774281    0.2787243 -19.08  0.001540265    3.831    0.739
        40 -10.9248    116.1417    128.9573   9.6789354293e+01   3.3117505215e+01    0.3315695    0.2743978 -15.62 0.0007873636    1.505    0.335
        41 -10.2381    110.9920    118.2634   9.5639015120e+01   3.6493166104e+01    0.2325689    0.2025957 -52.22 0.0002869243    1.092    0.084
        42 -10.6001    167.8022    112.7523   8.0242120378e+01   2.5623766572e+01    0.3733891    0.2894352 -77.53  0.001336324    1.764    0.433
        43 -10.4589    134.6158    105.5193   8.6201876178e+01   3.4558958113e+01    0.4829304    0.1478377 -44.99  0.001446853    3.190    0.687
        44 -11.4942    119.0682    110.5398   9.1575469785e+01   3.6676106136e+01    0.6022305    0.3717817  67.30  0.002335367    2.530    0.605
        45 -10.5371    205.3020    110.1715   7.1842180899e+01   1.7379267555e+01    0.3448674    0.2465446  45.93 0.0009071335    1.440    0.305
        46  -9.2974    152.5505     81.5146   7.4797544457e+01   3.5297834665e+01    0.1577527    0.1507114  -7.23 0.0001125737    1.028    0.027
        47  -9.6040     73.3119     73.4331   9.4669081940e+01   5.2814316682e+01    0.1664713     0.135779  46.67 0.0004353581    1.455    0.313
        48 -10.1682     83.9397    245.4950   1.2026119900e+02   1.4886681022e+01     0.169318    0.1169345  78.02  0.001195113    1.353    0.261
        49 -13.2504    190.1938     32.9476   5.2433717400e+01   3.3296008733e+01    0.5304604     0.435992  40.86  0.001453162    1.282    0.220
        50  -9.3836     96.0048     63.4785   8.4138070762e+01   5.1015506568e+01    0.2038864    0.1437196  40.09 0.0004207676    1.508    0.337
        51 -12.7926    166.1410     66.4923   6.7113953823e+01   3.4616195452e+01    0.8618731    0.5750609 -72.00 0.0008991609    2.293    0.564
        52 -10.7707    167.7132    232.1859   1.0395136347e+02   4.1116109737e+00    0.2338376    0.1824058  23.82 0.0007362225    1.284    0.221
