#   1 NUMBER                 Running object number                                     
#   2 MAG_AUTO               Kron-like elliptical aperture magnitude                    [mag]
#   3 X_IMAGE                Object position along x                                    [pixel]
#   4 Y_IMAGE                Object position along y                                    [pixel]
#   5 X_WORLD                Barycenter position along world x axis                     [deg]
#   6 Y_WORLD                Barycenter position along world y axis                     [deg]
#   7 A_WORLD                Profile RMS along major axis (world units)                 [deg]
#   8 B_WORLD                Profile RMS along minor axis (world units)                 [deg]
#   9 THETA_WORLD            Position angle (CCW/world-x)                               [deg]
#  10 FWHM_WORLD             FWHM assuming a gaussian core                              [deg]
#  11 ELONGATION             A_IMAGE/B_IMAGE                                           
#  12 ELLIPTICITY            1 - B_IMAGE/A_IMAGE                                       
         1 -11.1872    223.9289     21.0911   3.4514648715e+01   2.7447997242e+01    0.7067124    0.5375744 -56.00  0.003006881    1.152    0.132
         2 -11.7362    207.7035     37.2342   3.9779698326e+01   2.9054600992e+01    0.9265194    0.8495138  28.26  0.005875979    1.464    0.317
         3  -9.6392    246.3781      2.4036   2.9092922038e+01   2.4878507956e+01    0.5545837    0.2077194  77.98  0.002810038    2.503    0.600
         4  -8.4544    132.0015    234.5043   9.8159152091e+01   6.8002185018e+00    0.2296038    0.1471068  -7.91  0.000998575    2.970    0.663
         5 -13.9833     39.9293    247.2582   1.1829239830e+02   1.7348322526e+01     1.633367     1.013789  77.69    0.0102958    1.447    0.309
         6 -13.8897     29.9501    247.7057   1.2019023181e+02   1.8415969788e+01     0.714931    0.3665778  89.83  0.003351885    1.873    0.466
         7 -14.0026      1.9914    205.9855   1.2315720335e+02   2.9951914085e+01     1.497833    0.3525065 -74.67  0.006070449    3.368    0.703
         8 -14.2695     12.9176    214.2449   1.2143494060e+02   2.7128869739e+01     1.181644    0.5819899 -86.85  0.005650857    1.779    0.438
         9 -14.6790     20.1826    248.3007   1.2201284577e+02   1.9376575798e+01    0.7311191    0.4682052 -61.69  0.004808368    1.915    0.478
        10 -16.0715     12.2316    242.9531   1.2317277180e+02   2.1253379646e+01      2.72543     1.139147 -52.91   0.01279732    3.958    0.747
        11  -9.0566     99.7730    234.3810   1.0500255172e+02   1.1817080752e+01       0.2434    0.1583148  31.58  0.001316989    1.530    0.347
        12 -10.3792     84.3316    231.3840   1.0795244692e+02   1.4693784695e+01    0.4059277    0.3200655  76.76  0.001605771    1.235    0.190
        13  -7.8038    199.4834    230.4805   8.3703358342e+01  -3.0797627911e+00    0.1895189      0.17319  72.59  0.000717568    1.675    0.403
        14  -9.5986     60.8740    225.7202   1.1236717809e+02   1.9117428069e+01    0.2884126    0.2447294 -12.38  0.001267545    1.803    0.445
        15  -7.3578     73.3132    226.6254   1.0980465123e+02   1.7240848565e+01    0.1412582   0.08280889  66.65 0.0007031294    1.789    0.441
        16  -9.8513    219.2001    224.1201   7.8874420584e+01  -4.9877337966e+00    0.2200694    0.1882113  -4.28            0    1.100    0.091
        17  -9.9880    112.9489    224.1207   1.0087130913e+02   1.1833387834e+01    0.4567353    0.2235304  33.70  0.001166682    1.960    0.490
        18  -9.2729    135.5198    221.1053   9.5485652860e+01   8.7799500815e+00    0.3587608    0.2365202  -6.93  0.001592247    2.610    0.617
        19  -9.2562     61.0299    220.8722   1.1187067349e+02   2.0134857802e+01    0.2881853    0.1393479 -54.78  0.001372793    2.357    0.576
        20  -8.9132    188.8032    219.9105   8.4030369188e+01   2.7309129617e-01    0.2210907     0.168523  25.10 0.0004537036    1.185    0.156
        21  -7.6799     83.1083    218.1824   1.0673892337e+02   1.7639976055e+01     0.183322    0.1347828  64.53 0.0003899149    1.286    0.223
        22  -8.4069    189.5299    215.0155   8.3035720286e+01   9.8928985001e-01    0.2428146     0.201906   8.27 0.0007010325    1.100    0.091
        23  -8.9155    189.0707    210.2864   8.2292386453e+01   1.8833726085e+00    0.2288668    0.2184164 -73.10 0.0002132158    1.382    0.276
        24  -8.2921    153.4962    214.4783   9.0518637614e+01   7.0605806078e+00     0.272949    0.1370314 -49.26  0.001214993    2.179    0.541
        25  -7.8809     98.8334    214.2416   1.0271433751e+02   1.6113009198e+01    0.1643851    0.1569688  -9.48 0.0003271165    1.270    0.212
        26  -8.5467     54.4962    212.0352   1.1243617335e+02   2.2927681422e+01    0.1965886     0.153087  55.16 0.0006643056    1.144    0.126
        27  -9.6246    156.0907    209.4815   8.9120425616e+01   7.5823550221e+00    0.2441468    0.2193614 -40.38 -3.262633e-05    1.195    0.163
        28  -7.7030    101.2949    211.0538   1.0172652100e+02   1.6415257062e+01    0.1828699    0.1685526  72.62 0.0006426048    1.054    0.051
        29  -9.1046     75.4243    212.5874   1.0781412964e+02   1.9972356312e+01    0.4427262    0.2955141   7.29  0.002067327    2.612    0.617
        30  -8.2774     59.0431    211.5140   1.1137472082e+02   2.2454957474e+01    0.1944336    0.1171622  39.42  0.001025205    1.570    0.363
        31  -9.8672    118.4836    208.6118   9.7432381429e+01   1.4152253240e+01    0.5736491    0.3309402 -35.35  0.002489323    2.437    0.590
        32  -8.7691    115.7731    203.3613   9.7262898054e+01   1.5734295552e+01    0.3644502    0.2188925  56.69 0.0002307047    1.850    0.459
        33  -9.0099     62.7561    208.2145   1.1019438710e+02   2.2704544262e+01    0.3076704    0.1606531 -89.59  0.001368946    2.331    0.571
        34  -8.0813    128.4540    206.5216   9.4825206828e+01   1.2917723111e+01    0.2724495    0.2171888  70.37  0.001232866    1.438    0.304
        35 -15.7166      2.8811    238.1514   1.2462865495e+02   2.3130179998e+01     1.172664    0.3550311 -76.96  0.005687448    2.883    0.653
        36  -7.1034     73.7688    204.0208   1.0718668540e+02   2.2135160474e+01    0.1608513     0.107348 -71.10            0    1.493    0.330
        37  -7.4309    107.4613    205.4825   9.9517343401e+01   1.6641881000e+01    0.1386398    0.1284487  55.39 0.0008090182    1.025    0.024
        38 -14.5922     14.3001    232.5658   1.2223980795e+02   2.3125189829e+01    0.6207155    0.2614725  36.82  0.003374964    2.178    0.541
        39  -9.0050    109.0564    198.2013   9.8053173675e+01   1.7994574036e+01    0.2253352    0.1978578 -81.79 0.0002544658    1.178    0.151
        40  -8.9464     89.1040    197.2823   1.0268753970e+02   2.1406775519e+01    0.3590759    0.2768301  -2.84  0.001175528    1.931    0.482
        41  -8.7533     78.8496    198.1281   1.0525333687e+02   2.2756714762e+01    0.2572553    0.1906914  40.61 0.0002666553    1.314    0.239
        42  -7.3318    193.4501    196.4656   7.8857739348e+01   3.6184225742e+00     0.137508    0.1238803  -0.23 0.0001318355    1.009    0.009
        43  -8.5194     98.8553    195.9388   1.0015197658e+02   2.0177157403e+01    0.3985798    0.2001646  29.21 0.0008962806    2.283    0.562
        44  -7.7540    179.0454    194.7486   8.1520243504e+01   6.4293072020e+00    0.1917853    0.1697514  19.55 0.0002104798    1.065    0.061
        45  -7.7648     83.0938    192.8656   1.0352578091e+02   2.3353574961e+01    0.2168696    0.1709153  68.94 0.0003438795    1.238    0.192
        46  -8.1123     74.5001    190.4906   1.0529983235e+02   2.5185982311e+01    0.4712689    0.1994164 -77.88  0.001623448    3.460    0.711
        47  -8.1977     76.1687    187.0916   1.0442857195e+02   2.5755109463e+01    0.1983363    0.1832824 -53.38 0.0003297824    1.222    0.182
        48  -7.2487    115.3118    192.2764   9.5615979739e+01   1.8273470282e+01     0.138387    0.1143516  -7.02 -0.0001541599    1.559    0.359
        49  -7.3161    164.3126    191.2880   8.4057556227e+01   9.7385014460e+00    0.1443196    0.1098087  -0.81 0.0002650901    1.583    0.368
        50  -9.5571     67.8833    190.1479   1.0687178478e+02   2.6206609968e+01    0.2781306    0.2348768 -75.83 0.0004193498    1.140    0.123
        51  -7.9903     63.9980    191.2278   1.0795127623e+02   2.6483329927e+01    0.2045073    0.1787214  80.54 0.0002154572    1.012    0.011
        52  -8.9585     18.5261    190.5102   1.1857135589e+02   3.1936150831e+01    0.3661958      0.10132  48.07   0.00145241    3.230    0.690
        53  -9.8821     18.4985    184.3188   1.1807512233e+02   3.3394490273e+01    0.4411298    0.2816254 -81.23  0.001770521    1.322    0.244
        54  -8.3759     90.6827    189.1365   1.0113251422e+02   2.3061773436e+01    0.1945876    0.1656303 -72.99 0.0004396933    1.165    0.142
        55  -9.2832     80.6260    187.1746   1.0333483966e+02   2.5074531172e+01    0.2783975    0.2348531  31.95 0.0004753924    1.293    0.227
        56  -7.7343     93.9143    186.9751   1.0000735308e+02   2.3059156459e+01    0.1700107    0.1548555 -82.70 0.0003665995    1.075    0.070
        57  -7.8581    188.1351    185.0847   7.7745004194e+01   6.6640622699e+00    0.2035091     0.175516  83.40 0.0006286198    1.626    0.385
        58  -8.3522     78.1980    182.4823   1.0327076864e+02   2.6566973022e+01    0.2462192    0.1868753 -69.79 0.0005417449    1.277    0.217
        59 -10.3830     61.3973    179.4356   1.0709882350e+02   2.9685691628e+01    0.4769546    0.3809269 -59.57  0.002114262    1.275    0.216
        60  -9.6914     66.8702    173.5505   1.0488803805e+02   3.0390531194e+01    0.3234828    0.2587858 -45.44 0.0006112354    1.414    0.293
        61 -15.5222      6.2767    223.9041   1.2329507840e+02   2.5710880378e+01     2.912078          nan  41.57  0.009753835    4.832    0.793
        62 -13.7882     21.0250    221.1644   1.2024359921e+02   2.4814791477e+01     1.166097     0.386223  58.20  0.005036796    2.905    0.656
        63  -7.5011    109.2044    178.4062   9.4776217585e+01   2.2537950717e+01    0.2076796    0.1329396  47.53 0.0004694707    1.541    0.351
        64  -8.5856     22.9964    177.7625   1.1643732511e+02   3.4528822727e+01    0.2026509    0.1421511  70.49 0.0005976986    1.298    0.229
        65  -8.8471     11.7215    182.5876   1.1950007461e+02   3.4426532616e+01     0.257514    0.2117168 -28.39  0.001358147    1.738    0.425
        66  -8.9256      2.1386    174.7064   1.2112231839e+02   3.7087083308e+01    0.4167212    0.1893523 -51.05  0.002019265    2.555    0.609
        67 -10.0382      5.8183    165.3093   1.1952009754e+02   3.9041776135e+01     0.696516    0.3596416 -24.26  0.002388787    3.986    0.749
        68  -7.8815      4.4883    162.4939   1.1961456692e+02   3.9823014520e+01    0.1272741    0.0994162  87.85 0.0008101678    1.043    0.041
        69  -9.3540      6.8110    170.0626   1.1966594441e+02   3.7820964206e+01    0.2355891    0.1814641  69.38  0.000323759    1.183    0.154
        70  -9.1687     10.6711    168.1586   1.1857283536e+02   3.7962770759e+01    0.2696386    0.1853648 -76.11 0.0008392416    1.212    0.175
        71  -7.4157     53.2542    174.6573   1.0855438144e+02   3.1920268734e+01    0.1421004   0.09416753  75.74 0.0002755485    1.582    0.368
        72  -8.8298     47.4713    173.3337   1.0987010819e+02   3.2958585166e+01    0.3884398    0.2468938  86.62  0.001714004    1.612    0.380
        73  -8.3573     43.5704    168.9473   1.1033769847e+02   3.4507177929e+01    0.2208354     0.190199  47.41 0.0004610431    1.231    0.188
        74  -9.4336    175.4186    172.3256   7.7865943939e+01   1.1536235502e+01    0.3336744    0.2732517  38.00 0.0007055977    1.228    0.186
        75  -7.5885    124.4097    173.1589   9.0004451017e+01   2.1052514669e+01    0.2020793    0.1441373 -69.35 0.0004477068    1.612    0.380
        76  -7.7455    117.6662    173.0640   9.1678970807e+01   2.2303641513e+01     0.206881    0.1960314 -59.82 0.0005128896    1.071    0.066
        77  -8.5843    132.2285    230.4242   9.7546595669e+01   7.5266395555e+00    0.2600953    0.1123995 -66.94 0.0008888038    4.530    0.779
        78  -9.8083     17.4778    170.8728   1.1714588652e+02   3.6714128590e+01    0.4372034    0.3010291  85.73  0.002571628    1.256    0.204
        79  -9.7732     23.9139    169.9740   1.1546562729e+02   3.6332670918e+01    0.3659943    0.2854395  -8.31   0.00214743    1.870    0.465
        80  -8.4857     24.8433    165.8124   1.1480760234e+02   3.7265699596e+01    0.2024185     0.163327  88.20 0.0004231644    1.051    0.049
        81  -7.8569    137.5331    172.4702   8.6638796240e+01   1.8759200560e+01    0.1485502     0.146308  39.38 0.0001537426    1.003    0.003
        82  -8.1844     37.5413    169.5370   1.1196454952e+02   3.5039135144e+01    0.3453458    0.1282723 -63.25  0.001429048    2.291    0.563
        83  -7.9938     75.2604    170.0701   1.0217091480e+02   3.0052391487e+01    0.1992163    0.1742176 -79.57  0.000373605    1.071    0.066
        84  -8.1302     90.1205    166.1337   9.7580797537e+01   2.8727540578e+01     0.384123    0.1517798  55.51  0.001112819    4.193    0.762
        85  -7.6949     92.0681    163.9560   9.6678131431e+01   2.8949034708e+01    0.2677789    0.2166709  38.96 0.0004799304    1.266    0.210
        86  -7.3827    124.4939    164.9818   8.8392426983e+01   2.2953713282e+01    0.2050919    0.1355951 -82.90 0.0005638904    2.288    0.563
        87  -8.2281     85.2278    165.1676   9.8720971778e+01   2.9750929670e+01    0.2051816    0.1626176  71.75 0.0003652051    1.328    0.247
        88  -8.2766     76.7198    164.0027   1.0081405354e+02   3.1351559688e+01    0.2317895     0.204687  50.27 0.0004046608    1.148    0.129
        89  -8.6304     56.2100    162.8192   1.0617451358e+02   3.4503862177e+01    0.5580547    0.3875125  27.66  0.002375546    1.650    0.394
        90  -9.4023     18.9447    163.4272   1.1606983364e+02   3.8400697028e+01    0.3881703     0.235552   4.46  0.001635832    2.595    0.615
        91  -7.2686     95.6939    163.2643   9.5583998842e+01   2.8517493190e+01    0.1498656    0.1113808  69.77 0.0001858964    1.528    0.345
        92  -9.1753     64.4557    160.6726   1.0361423355e+02   3.3951546693e+01    0.4254004    0.2652649 -52.42  0.001416668    1.590    0.371
        93  -7.1938     28.5670    162.5185   1.1349179631e+02   3.7717994238e+01    0.1342579    0.1107479 -89.32 8.679042e-05    1.032    0.031
        94  -9.6070     83.2059    157.9983   9.8022090687e+01   3.1864574482e+01    0.4695379    0.2905821 -49.62  0.001183108    1.627    0.385
        95  -8.7883     87.4502    155.1202   9.6329463611e+01   3.1909965791e+01    0.3947885    0.2898883 -63.08  0.001929717    1.315    0.239
        96  -7.3756     34.2775    159.3203   1.1161079745e+02   3.7936113527e+01    0.1331076    0.0923114 -47.61 0.0001691802    1.578    0.366
        97  -8.5857    246.5135    160.6570   6.1997263164e+01   1.0790092247e+00    0.2090156     0.123383  41.65  0.001089292    1.954    0.488
        98  -7.7128     23.2226    157.8486   1.1437927599e+02   3.9390512288e+01    0.2066911    0.1480648  73.79 0.0007010551    1.340    0.254
        99  -8.2841     51.7411    157.0351   1.0655894484e+02   3.6528818022e+01    0.2233437    0.2036185  15.86            0    1.323    0.244
       100  -7.4795     34.6124    154.7849   1.1095782050e+02   3.9041149202e+01    0.1934377    0.1141509 -84.14 0.0009347711    1.644    0.392
       101  -9.8009     15.0591    152.6111   1.1598463637e+02   4.1404059408e+01    0.4961947    0.2826013 -57.44  0.002593429    1.617    0.382
       102  -9.2946      8.8085    154.9576   1.1785720174e+02   4.1325348795e+01    0.1946503    0.1738668  63.62 0.0002599612    1.212    0.175
       103  -8.7400     62.1411    136.6082   1.0019730310e+02   4.0396419275e+01    0.2518286    0.1849337 -76.33 0.0006406695    1.363    0.266
       104  -8.5264     66.8102    153.3386   1.0178080926e+02   3.5485664270e+01    0.4481615    0.2882296 -20.81 0.0007769181    2.589    0.614
       105 -10.9694     68.5119    144.7806   9.9807778277e+01   3.7425439736e+01     0.815636    0.5221069  68.12  0.003280303    1.980    0.495
       106  -8.0695    146.2828    153.0437   8.0443708123e+01   2.1462343096e+01    0.2088707    0.1929225 -51.07 0.0002287047    1.080    0.074
       107  -8.0889     80.9386    151.1205   9.7407683516e+01   3.3955260899e+01    0.3109518    0.2037514  -6.69 0.0009597426    2.781    0.640
       108  -7.6674     56.5282    151.4915   1.0438312548e+02   3.7336672428e+01    0.1434763    0.1277213 -83.02 8.788997e-05    1.020    0.019
       109  -9.0949    111.3650    149.7275   8.8703324478e+01   2.9078774470e+01    0.2611809    0.2535666  86.39 0.0003863472    1.016    0.016
       110  -9.2132     88.4396    146.7552   9.4450637217e+01   3.3852100036e+01    0.3627284    0.2403589  47.27  0.001573949    1.565    0.361
       111  -8.8091     86.0228    142.7769   9.4348078751e+01   3.5251479243e+01    0.3409087    0.2427968 -63.18 0.0004681693    1.365    0.267
       112  -7.8030      8.4849    147.5552   1.1722673185e+02   4.3167940066e+01    0.1283449    0.1038493 -83.44  0.000103213    1.010    0.010
       113  -9.5471    242.2272    143.9793   5.9240774835e+01   4.6104713524e+00    0.3555661    0.1965148 -52.07  0.001652913    2.042    0.510
       114  -7.5214    118.5685    145.4174   8.5836635737e+01   2.8760754318e+01    0.1524724    0.1501681 -64.03 2.310267e-05    1.019    0.019
       115  -9.3569      2.8186    146.0410   1.1859579694e+02   4.3943167229e+01    0.4243363    0.1581092 -46.93  0.001784671    3.069    0.674
       116  -9.2872     98.5924    142.7712   9.0759782104e+01   3.3112959842e+01    0.4506591    0.3080329 -36.08  0.001022791    1.685    0.407
       117  -9.4558      3.4066    138.9377   1.1774726018e+02   4.5643323764e+01     0.340285    0.2360837 -46.31  0.002041572    1.538    0.350
       118  -8.3346    128.0193    140.0020   8.2108034577e+01   2.8188237071e+01    0.2232623    0.2180198 -32.85  0.001173647    1.044    0.042
       119  -7.2840    227.3181    139.3326   6.0664167085e+01   8.0710827958e+00    0.1415546    0.1044174  -6.22 0.0002610723    1.692    0.409
       120  -8.2162     83.0806    138.0858   9.4249914567e+01   3.6912250592e+01    0.2148347    0.1925379 -34.04  0.001136218    1.201    0.168
       121  -7.7016     52.6687    138.1217   1.0331083548e+02   4.1235686637e+01    0.2185759    0.1099524 -55.45 0.0009436442    1.771    0.435
       122  -9.2046     13.2160    136.4190   1.1470630499e+02   4.5570493347e+01    0.4419665    0.1730774 -55.62  0.001403826    2.170    0.539
       123  -7.4885     80.6169    134.7606   9.4290642465e+01   3.8145248636e+01    0.2132204     0.139127 -68.37 0.0009424713    1.604    0.377
       124  -8.3620     29.0548    134.0254   1.0974467249e+02   4.4834692300e+01    0.1973621    0.1709563 -79.34 0.0003643534    1.040    0.038
       125  -8.3359     72.8138    132.3385   9.6137706165e+01   3.9960950285e+01    0.2678944    0.2072391 -55.91  0.001221072    1.202    0.168
       126  -9.1196      9.2864    132.6545   1.1540178211e+02   4.6790908945e+01    0.2803279    0.2103085 -14.26  0.001197441    1.753    0.430
       127  -8.3390    109.5512    132.0139   8.5266181170e+01   3.3741382151e+01    0.2680321    0.2117886   5.52  0.001053605    1.641    0.391
       128  -8.4825    246.2217    130.6110   5.5820637084e+01   6.2103372647e+00     0.170202    0.1253432  33.69 0.0009509088    1.654    0.396
       129  -7.2528     96.6375    128.6803   8.8203201096e+01   3.6951353991e+01    0.1610437    0.1211556 -15.96  0.000704165    1.774    0.436
       130  -7.8594    124.9944    127.4959   7.9926945760e+01   3.1749176104e+01    0.2268907    0.1357237  64.93 0.0008102577    2.516    0.603
       131  -9.0275     66.3804    125.2733   9.6663758187e+01   4.2683447236e+01    0.2486826    0.2273285 -84.16 0.0002501487    1.106    0.096
       132  -8.1266      1.5786    124.4848   1.1673267074e+02   4.9299402451e+01    0.3331355   0.07743397 -67.39  0.001257536    2.897    0.655
       133  -7.0988    131.6942    121.3103   7.6596253695e+01   3.1775689609e+01    0.1594209    0.1263134 -89.67 0.0003005307    1.614    0.380
       134  -9.2894    121.3375    233.1351   1.0024614980e+02   8.7399396900e+00    0.2348101    0.1559701 -38.18  0.001239432    1.917    0.478
       135  -7.7862     64.2070    120.8721   9.6422238210e+01   4.4094862972e+01    0.2129018    0.1871551  86.52  0.000514711    1.222    0.181
       136  -8.4761      5.9224    119.7517   1.1485313542e+02   5.0193346187e+01    0.1765392    0.1391644 -72.51 0.0004490385    1.027    0.027
       137  -9.3676    248.3357    117.4141   5.2725496474e+01   8.0715766819e+00    0.2805472    0.1438543 -40.58  0.001219414    1.620    0.383
       138  -7.1599     66.2624    116.6015   9.4826585917e+01   4.4868457866e+01     0.150157    0.1111047  86.86 0.0006970125    1.719    0.418
       139  -7.9807    240.6534    112.6709   5.2788027180e+01   1.0279971180e+01    0.1337416    0.1033145  -2.54 0.0007049898    1.756    0.431
       140  -8.8164     50.6487    110.4130   9.8630959595e+01   4.8466102102e+01    0.2481504     0.221795 -56.72 0.0002758382    1.012    0.012
       141  -7.3873     43.0202    110.9894   1.0132818801e+02   4.9205904584e+01    0.1670616    0.1438159 -58.13 -0.005334738    1.021    0.021
       142  -7.6075     76.3958    109.7578   8.9922643737e+01   4.5013474709e+01    0.2037407    0.1311612 -45.69 0.0002602024    1.472    0.321
       143  -7.6932     59.4558    110.4869   9.5687157722e+01   4.7322417154e+01    0.1442019    0.1319681 -61.07 6.704681e-05    1.047    0.045
       144  -9.1561    249.4209    107.8715   5.0553578014e+01   9.4692000324e+00      0.27031    0.1557959 -27.99 0.0009987423    1.876    0.467
       145  -8.9003      8.4948    106.2248   1.1217063317e+02   5.3330963716e+01    0.2071183    0.1862411  -5.84  0.001393907    1.334    0.250
       146  -7.5077    159.0132    102.7599   6.5038252154e+01   2.9676078848e+01    0.1898403    0.1317093  51.50 0.0002385995    1.475    0.322
       147  -7.5710     58.1312    102.1466   9.4180396776e+01   4.9525568255e+01    0.1831439    0.1639352  86.74 0.0002597416    1.274    0.215
       148  -8.1119     99.5726     96.5978   7.9030235096e+01   4.3967214691e+01    0.2592601    0.1806711  42.74 0.0002342613    1.477    0.323
       149  -7.3565     26.0021     94.0024   1.0383744474e+02   5.4990692390e+01    0.1586069     0.131888 -53.71 0.0003445399    1.014    0.013
       150  -8.4148     43.0949     92.9899   9.7324202704e+01   5.3549859039e+01    0.2206486    0.1954422  58.44 0.0006947367    1.345    0.256
       151  -8.2479     39.8565     90.1448   9.7835260021e+01   5.4571050614e+01    0.1802215    0.1693204 -24.04 0.0004217797    1.107    0.096
       152  -9.2320     93.7911     91.3133   7.9301568881e+01   4.6239585114e+01    0.2767113    0.2488044 -17.33 0.0001874108    1.134    0.118
       153  -7.5473     75.7901     88.3858   8.4386693392e+01   5.0077576890e+01    0.1846363    0.1385279  19.81 0.0002040249    1.479    0.324
       154  -7.3996     59.6800     85.6547   8.9314226407e+01   5.3149070684e+01    0.1512678    0.1011732 -23.55 0.0007049461    1.729    0.421
       155  -7.0676    156.7855     82.0084   5.9809205659e+01   3.4217221916e+01    0.1964581    0.1216356 -39.57 0.0004006898    1.607    0.378
       156  -7.3620     38.5205     82.5726   9.6448926235e+01   5.6456809418e+01     0.134448    0.1172402 -40.29 8.605525e-05    1.012    0.012
       157  -7.7271     81.0360     77.8674   7.9400560970e+01   5.1435996052e+01    0.3585538    0.1967036  15.48  0.001250538    3.343    0.701
       158  -7.5079     11.2627     75.0239   1.0547397216e+02   6.0472155722e+01    0.1630744   0.09058633 -60.06 0.0005842685    1.477    0.323
       159  -7.9634     17.8206     73.8275   1.0252238724e+02   6.0288555016e+01    0.1589638    0.1436532 -89.83 0.0003938021    1.345    0.257
       160  -6.9339    105.7101     72.2861   6.9737676476e+01   4.7729769601e+01    0.1411639    0.1187919 -85.01 0.0002261443    1.536    0.349
       161  -7.3154     74.3764     71.1974   7.9573399001e+01   5.3947281396e+01    0.1858572    0.1307101 -53.10 0.0004582261    1.550    0.355
       162  -8.1300     23.0230     69.6732   9.9320993973e+01   6.0794161934e+01    0.2303827    0.1369686 -37.80 0.0001502284    1.488    0.328
       163  -7.5619     15.3057     62.3203   1.0068069554e+02   6.2974507943e+01    0.1338698   0.07418199 -34.34 0.0006261853    1.635    0.388
       164  -7.2236     88.5247     60.4499   7.1081847244e+01   5.3394815226e+01     0.139818    0.1337662   6.69 0.0001144162    1.058    0.055
       165  -9.7106    114.8161    237.4534   1.0218360604e+02   8.9328820039e+00    0.4140227    0.2138843  21.22  0.001709176    2.950    0.661
       166  -7.6213     74.4638    237.4610   1.1064336459e+02   1.4857892045e+01    0.1264336    0.1038643  60.11 3.521702e-05    1.001    0.001
       167 -10.2485    216.1442     29.0522   3.6994646984e+01   2.8194127044e+01    0.3683474    0.3129732  49.29  0.001039487    1.501    0.334
       168  -7.4521    124.1328     34.1381   5.2069926512e+01   4.9545193948e+01    0.1772427    0.1533033 -61.59 0.0002634793    1.301    0.231
       169 -10.8170    198.9761     42.9967   4.2212450431e+01   3.0300591975e+01    0.4169272    0.3681016 -57.73  0.001724256    1.105    0.095
       170  -7.6247     60.5399     40.0050   7.3399418486e+01   6.1845878168e+01    0.1814675    0.1200741 -31.28 0.0003075616    1.460    0.315
       171  -7.5771    241.2717     23.5595   3.3622870475e+01   2.3494403794e+01    0.1526612    0.1029955  67.81 0.0009398613    1.582    0.368
       172  -7.9188     94.6498     14.8660   5.1975904941e+01   5.8408252677e+01    0.1646222    0.1530334  14.56 0.0003603162    1.118    0.106
