#   1 NUMBER                 Running object number                                     
#   2 MAG_AUTO               Kron-like elliptical aperture magnitude                    [mag]
#   3 X_IMAGE                Object position along x                                    [pixel]
#   4 Y_IMAGE                Object position along y                                    [pixel]
#   5 X_WORLD                Barycenter position along world x axis                     [deg]
#   6 Y_WORLD                Barycenter position along world y axis                     [deg]
#   7 A_WORLD                Profile RMS along major axis (world units)                 [deg]
#   8 B_WORLD                Profile RMS along minor axis (world units)                 [deg]
#   9 THETA_WORLD            Position angle (CCW/world-x)                               [deg]
#  10 FWHM_WORLD             FWHM assuming a gaussian core                              [deg]
#  11 ELONGATION             A_IMAGE/B_IMAGE                                           
#  12 ELLIPTICITY            1 - B_IMAGE/A_IMAGE                                       
         1  -7.7899     97.9923      6.1000   2.1645148769e+01   6.0012315617e+01    0.2030613    0.1840357  22.90 0.0003603007    1.035    0.034
         2  -8.5022    249.0210    247.9715   5.4974887570e+01  -7.3700597363e+00    0.2442579    0.1125712 -13.44  0.001464916    2.367    0.577
         3  -8.7643     90.8431    250.6562   8.2475990942e+01   1.2984381158e+01    0.1743562   0.08095624  36.79 0.0002541658    1.718    0.418
         4  -7.1036    164.7818    247.0057   6.8802579199e+01   3.5571335502e+00    0.1185418   0.09124547 -37.87 0.0004441831    1.642    0.391
         5  -6.8594      8.9399    247.7662   9.6566207506e+01   2.2549983663e+01    0.1172282   0.06446654  40.27 0.0003208282    1.518    0.341
         6  -8.2176    222.6238    245.0653   5.8705631262e+01  -3.9059280211e+00    0.1716286    0.1194296  30.35 0.0006498799    1.306    0.234
         7  -8.1440    171.5854    241.8041   6.6952440912e+01   3.2723047939e+00    0.1222632     0.110731 -57.15 0.0005079566    1.596    0.373
         8  -8.9824    115.4387    241.4454   7.7163304884e+01   1.1139802771e+01    0.2008453     0.162856  34.23 0.0009473345    1.150    0.131
         9  -8.6878     41.2547    238.6009   9.0619861327e+01   2.0824873888e+01    0.1724844    0.1447625  56.90  0.000430653    1.221    0.181
        10  -8.2889    101.0575    236.4321   7.9375734336e+01   1.3865294493e+01     0.215251    0.1588064 -79.42   0.00103271    1.639    0.390
        11  -7.6067    223.5708    226.7302   5.5846287884e+01  -2.0741796575e+00    0.1327399    0.1002648 -28.95  0.000943416    1.573    0.364
        12  -7.3073    140.1038    222.7722   7.0380077640e+01   1.0484491583e+01    0.1509786    0.1259292  12.78 0.0007783815    1.290    0.225
        13  -7.1237    229.5246    219.5176   5.3732143093e+01  -2.0632300069e+00    0.1151809   0.08619905  10.08 9.961062e-05    1.005    0.005
        14  -8.1994     43.0189    214.5619   8.8898520931e+01   2.4954892962e+01     0.176816    0.1422387 -70.71 0.0006014819    1.462    0.316
        15  -7.6173     48.6883    212.3937   8.7626237658e+01   2.4726681235e+01     0.164258    0.1251063 -58.78 0.0003255617    1.662    0.398
        16  -7.4364     23.6870    211.0239   9.2490906762e+01   2.7670040254e+01    0.1488184    0.1130941  76.63 0.0003013128    1.117    0.105
        17  -7.5709    248.9945    204.5179   4.8111978589e+01  -2.9804334804e+00    0.1667025   0.07643532  18.25 0.0007719646    2.555    0.609
        18  -7.7319     78.0144    203.7171   8.0843946291e+01   2.2759497363e+01    0.1652243    0.1355662  55.06 0.0003783241    1.035    0.034
        19  -9.6212    129.4892    190.4270   6.8108055333e+01   1.7637569596e+01    0.2278067    0.2176622  25.46 0.0001537695    1.099    0.090
        20  -8.0376    135.3231    188.2393   6.6520301029e+01   1.7086872336e+01    0.2212823    0.1845386  19.10 0.0006380625    1.262    0.208
        21  -7.1725    161.2996    182.2751   6.0050809884e+01   1.3763339802e+01     0.130553   0.09793565   7.34 0.0001969153    1.534    0.348
        22  -8.9519     72.9910    177.0754   7.9101203403e+01   2.8924675850e+01    0.1932315    0.1665143  80.48            0    1.063    0.059
        23  -6.7290    191.6944    170.3520   5.1757747668e+01   1.0457437909e+01     0.124279    0.1095566 -83.76 0.0007041713    1.709    0.415
        24  -8.0241    216.8503    167.7635   4.6622517011e+01   6.5357949765e+00    0.2042056    0.1763755 -28.79 0.0003998229    1.273    0.214
        25  -7.8236     38.2949    159.9935   8.5704996116e+01   3.7023016729e+01    0.1712781    0.1363638  88.08 0.0002827813    1.074    0.069
        26  -7.4368    229.8220    157.2053   4.2260506009e+01   5.8922085223e+00    0.1794214    0.1318858   3.61 0.0002846242    1.302    0.232
        27  -8.0036     83.0360    153.0662   7.3370361016e+01   3.2901796554e+01    0.2020954    0.1836327  78.96  0.001198766    1.002    0.002
        28  -7.3212     40.8628    151.3906   8.4184130250e+01   3.8768928734e+01    0.1654796    0.1265659  11.67 0.0009471631    1.800    0.444
        29  -8.7392    143.1992    145.9783   5.7058278641e+01   2.3972497105e+01    0.3661723    0.2679949 -14.95  0.001184343    1.807    0.447
        30  -8.4454     28.8337    134.5406   8.5643011812e+01   4.4068136470e+01    0.2238742    0.1529177 -85.49 0.0003059828    1.253    0.202
        31  -7.9591     65.0183    131.6243   7.4863314748e+01   4.0640743359e+01    0.2950118    0.1338283  32.94  0.000853107    2.362    0.577
        32  -7.3571    122.0038    130.0028   5.8776620081e+01   3.1520597785e+01    0.2124514     0.177465  -9.63            0    1.481    0.325
        33  -7.2062    232.6208    123.7017   3.4470353806e+01   1.0318779568e+01    0.1424091    0.0965201   8.92 0.0007023505    1.760    0.432
        34  -7.8080     61.5015    123.0400   7.4442456854e+01   4.3247420257e+01    0.2032144    0.1839706  66.35 0.0005131476    1.117    0.104
        35 -10.3445     50.3213    120.9543   7.7493388763e+01   4.5178763421e+01    0.2390654    0.2262699  65.65 0.0004432644    1.149    0.129
        36  -7.2194    102.0931    110.6057   5.9648232002e+01   3.9796960711e+01    0.1865572    0.1465588  22.43 0.0001605448    1.523    0.343
        37  -6.7667    165.7378    107.6196   4.2700573337e+01   2.6993736277e+01    0.1582788     0.118908  -4.78 0.0006980183    1.676    0.404
        38  -7.3354    244.9895    103.7430   2.8019087828e+01   1.0941822033e+01    0.1480874    0.1178543  47.74 0.0003981777    1.475    0.322
        39  -8.3795    196.0031     89.8357   3.1975765259e+01   2.3316428709e+01    0.2370331    0.1988857 -29.75 0.0004004267    1.101    0.092
        40  -7.4348    129.4778     89.5181   4.6180906517e+01   3.8879589888e+01    0.1573353     0.151413 -48.53 0.0001542893    1.021    0.020
        41  -7.6137    209.0760     86.9289   2.9040433443e+01   2.0846432824e+01    0.2152858    0.1800105 -49.64 0.0004030044    1.212    0.175
        42  -8.3261    122.9491     86.1062   4.6885791367e+01   4.1058994389e+01    0.2265858    0.2215225 -41.85 0.0003068345    1.016    0.016
        43  -7.2178     91.0698     84.9893   5.6050798294e+01   4.7876593321e+01    0.1778945    0.1719445  42.29 0.0005043696    1.104    0.094
        44  -7.1372    234.3545     81.7420   2.4085666825e+01   1.6209712630e+01    0.1359237   0.09904125 -60.79  0.000242075    1.612    0.380
        45  -8.7686     93.9741     72.8008   5.1233359993e+01   5.0056665331e+01    0.3642004    0.2097266 -45.35  0.000690278    1.636    0.389
        46  -7.1224    162.7864     68.3786   3.1842495260e+01   3.4946579447e+01     0.204437    0.1422528  44.36 0.0002267919    1.530    0.346
        47  -7.0250    162.4423     74.4818   3.3823005804e+01   3.3967996408e+01    0.1565828    0.1475297 -44.85 0.0005860546    1.034    0.033
        48  -8.2985    143.6650     51.2643   3.0071974790e+01   4.2625533136e+01     0.267271    0.2480469   0.44 0.0002744878    1.129    0.114
        49  -8.2805    181.1028     31.2205   1.6896425306e+01   3.5758006285e+01    0.2378314    0.1949095 -26.64 0.0003879491    1.218    0.179
        50  -7.1510     95.5361     31.5251   3.4412380291e+01   5.7465192377e+01    0.1451008    0.1371924  -2.49 7.955913e-05    1.017    0.017
        51  -6.6352    210.2984     20.3294   1.0430321141e+01   2.9736586360e+01    0.1328761     0.103325  27.87 0.0003168773    1.640    0.390
        52  -7.2755    204.7670     18.4330   1.0406671008e+01   3.1287317265e+01    0.1789035    0.1233085  60.48 0.0005292875    1.539    0.350
        53  -7.3102     82.1283     12.3444   2.9177937629e+01   6.3058632139e+01    0.1781754    0.1301094  70.07 0.0009091647    1.675    0.403
