#   1 NUMBER                 Running object number                                     
#   2 MAG_AUTO               Kron-like elliptical aperture magnitude                    [mag]
#   3 X_IMAGE                Object position along x                                    [pixel]
#   4 Y_IMAGE                Object position along y                                    [pixel]
#   5 X_WORLD                Barycenter position along world x axis                     [deg]
#   6 Y_WORLD                Barycenter position along world y axis                     [deg]
#   7 A_WORLD                Profile RMS along major axis (world units)                 [deg]
#   8 B_WORLD                Profile RMS along minor axis (world units)                 [deg]
#   9 THETA_WORLD            Position angle (CCW/world-x)                               [deg]
#  10 FWHM_WORLD             FWHM assuming a gaussian core                              [deg]
#  11 ELONGATION             A_IMAGE/B_IMAGE                                           
#  12 ELLIPTICITY            1 - B_IMAGE/A_IMAGE                                       
         1 -12.0526     42.9394     20.4222   8.9834065930e+01   6.9010619239e+01    0.5423171    0.3227265  35.52  0.001793441    1.883    0.469
         2 -12.0307    216.4231     14.2619   4.6034773558e+01   2.8669948358e+01    0.5236101    0.3939247  -1.77   0.00218411    1.435    0.303
         3 -11.8331     57.9883      8.1835   7.5495063041e+01   6.8647151375e+01    0.4587452    0.3332724  37.58  0.002537905    1.427    0.299
         4 -11.2259     55.3313      2.7874   7.3283928249e+01   6.9919293569e+01    0.2437965    0.2397629  26.82 0.0008733101    1.272    0.214
         5 -11.8566     43.7412      8.4220   8.2633430470e+01   7.1062512176e+01    0.3064544    0.2943322  33.73  0.001283019    1.308    0.235
         6 -12.8443    189.6499      8.5910   4.6769268147e+01   3.5878840596e+01    0.4770608    0.2950834 -70.72   0.00219878    1.847    0.459
         7 -10.9408    166.0094      2.0000   4.7007187838e+01   4.2688961493e+01    0.2399801   0.08060271  73.06 0.0008065254    2.971    0.663
         8 -11.1321     95.8559    224.9050   1.1483155561e+02   1.9125796631e+01    0.2150032    0.1177464  66.57  0.001271974    2.284    0.562
         9 -12.3017    228.3857    222.3784   9.1545681209e+01   1.5354182878e+00    0.4352663    0.1940287  49.47    0.0020028    4.239    0.764
        10 -11.0902    239.7119    215.5775   8.8804185841e+01   6.9072746486e-01    0.2390648    0.0793563 -34.66   0.00120781    3.630    0.725
        11 -11.3550    230.3603    214.1440   9.0023424925e+01   2.0515366948e+00    0.1325991   0.09210804 -30.32 0.0009472417    1.801    0.445
        12 -11.0308    149.4142    221.8849   1.0475087067e+02   1.2417391317e+01    0.3006148    0.1075225 -46.24  0.001520268    3.561    0.719
        13 -10.8332    115.7467    209.2047   1.0957368470e+02   1.8883630357e+01     0.234545    0.1401012 -67.94  0.001419449    2.260    0.558
        14 -10.7953     41.6111    201.0892   1.2345631290e+02   2.9280155865e+01    0.1984162    0.1526641 -71.87 0.0009514813    1.501    0.334
        15 -10.6597    148.9886    198.2818   1.0183550047e+02   1.5719665417e+01    0.2122544    0.1509622 -89.39  0.001174676    2.660    0.624
        16 -10.3212      2.5299    199.4989   1.3091973315e+02   3.3126888249e+01    0.1021798   0.07205252  62.72 0.0001020922    1.004    0.004
        17 -10.5466     48.7176    201.7354   1.2209460222e+02   2.8421020693e+01    0.2226209    0.1003682  74.00  0.001186235    2.539    0.606
        18 -12.4762    159.9030    191.7866   9.8824764456e+01   1.4990074827e+01    0.5669298    0.4294554  72.70  0.003185754    2.084    0.520
        19  -9.5533    210.6506    189.3178   8.9283387580e+01   7.4724799401e+00    0.1033447    0.0924359  56.91 0.0007047982    1.733    0.423
        20 -10.5293    183.1935    182.9698   9.3069715957e+01   1.2546363049e+01     0.286736    0.1607557 -30.65  0.001574197    2.006    0.501
        21 -10.4133    224.2969    183.6557   8.6056369227e+01   6.0659138163e+00   0.09659092   0.09562065 -26.92 0.0003797219    1.670    0.401
        22 -10.0104    191.6676    178.3365   9.0740063068e+01   1.1805812913e+01    0.1115064   0.09788875  69.39 0.0007052101    1.738    0.425
        23 -10.1435    215.3579    193.5902   8.9201859451e+01   6.2824756237e+00    0.1911366   0.09425854 -44.54 0.0009472847    3.250    0.692
        24 -10.0169    105.6577    175.3265   1.0761005803e+02   2.5991266128e+01    0.1304427   0.08499776  63.99 0.0007051119    1.738    0.425
        25 -11.0187     38.4056    174.8010   1.2245080692e+02   3.4513811614e+01     0.148323    0.0945151 -68.66 0.0009061597    1.636    0.389
        26 -11.5643     44.9869    170.9767   1.2070479567e+02   3.4587898274e+01    0.4689119    0.2040253  82.14  0.002184544    2.861    0.650
        27 -10.3927     34.3278    173.6598   1.2327029619e+02   3.5146197563e+01    0.1253676   0.06354838  61.43 0.0007051561    1.735    0.424
        28 -11.3689     55.4582    167.9605   1.1807018061e+02   3.4035292661e+01    0.3840156    0.1857889  79.80  0.001832613    2.610    0.617
        29 -11.0631    121.1445    168.7469   1.0330102928e+02   2.4825436604e+01    0.2326845    0.1510135 -72.70  0.001215674    2.116    0.527
        30 -10.1891    138.1970    163.7990   9.8822003150e+01   2.2930497072e+01    0.2640118    0.1037027 -55.49  0.001022392    3.491    0.714
        31 -11.8120    106.5220    157.9681   1.0497120474e+02   2.9130748625e+01    0.5627215    0.3282561  65.58  0.002623478    2.344    0.573
        32 -10.4003     92.4063    160.2134   1.0858695582e+02   3.0802647980e+01    0.1728942    0.1171892 -81.08 0.0008919495    1.713    0.416
        33 -10.4174     23.0266    159.6937   1.2492737563e+02   3.9031907801e+01    0.1943249   0.02634806  46.08 0.0007039572    4.199    0.762
        34 -11.0160    167.5029    157.2057   9.1546111874e+01   1.8974251227e+01    0.2819124    0.2208681 -71.83  0.001323787    1.982    0.495
        35 -10.6050    218.4006    156.7062   8.2053501892e+01   1.0205398995e+01    0.2319728    0.1098905 -34.10   0.00113894    2.150    0.535
        36 -10.8344    118.1547    156.8110   1.0211101817e+02   2.7507636208e+01    0.2300813    0.2121483  53.78 0.0009770372    1.036    0.035
        37 -10.2481     81.3102    154.6423   1.1048185013e+02   3.3497202707e+01    0.1357732   0.08683509  68.48 0.0005948142    1.735    0.424
        38  -9.9476     67.6732    154.3350   1.1375856223e+02   3.5364335169e+01    0.1348361   0.08175174  65.52  0.000705165    1.720    0.418
        39 -10.5406     40.2687    152.6013   1.2028846302e+02   3.8875542614e+01    0.2106731    0.1254382  83.96 0.0007487271    1.611    0.379
        40  -9.8525     23.4735    153.5224   1.2442575589e+02   4.0283176891e+01    0.1177133   0.09090852  70.91 0.0004452998    1.041    0.039
        41 -10.6356    189.7899    150.3408   8.5870073827e+01   1.6045376831e+01    0.2920814     0.174049 -49.43  0.001409036    2.297    0.565
        42 -11.5518    108.0502    146.0467   1.0270699861e+02   3.1248199927e+01    0.6748763    0.3167599  62.99  0.002165921    4.663    0.786
        43 -10.7457    148.8041    145.1141   9.3141436791e+01   2.4366547877e+01      0.31644    0.1916895 -71.88  0.001207713    3.647    0.726
        44 -10.0742    124.6464    142.9677   9.8205431152e+01   2.9074227025e+01    0.2152046    0.1149813 -73.69 0.0007047033    4.472    0.776
        45 -10.1878    181.9813    141.9951   8.5651008398e+01   1.8736960478e+01    0.1997636    0.1728374 -84.06  0.001130125    1.724    0.420
        46 -11.3651     82.7673    130.7863   1.0657878834e+02   3.8389005302e+01    0.4456781     0.188805 -68.30  0.001741553    2.855    0.650
        47 -12.1773     99.8891    128.9623   1.0172546869e+02   3.6129608689e+01    0.7142977    0.3921032  69.46  0.002650504    3.364    0.703
        48 -10.5013    118.4861    126.2295   9.6420418533e+01   3.3507644937e+01    0.4194959    0.2146413  64.44  0.001363959    4.096    0.756
        49 -11.2875     43.8054    123.6032   1.1633735470e+02   4.4967196181e+01    0.5071426    0.2317578  71.92   0.00204948    3.065    0.674
        50 -10.9158     58.5020    123.5370   1.1214380427e+02   4.3302422449e+01    0.2420805      0.11896 -81.36    0.0010375    2.417    0.586
        51 -11.2854     26.8766    120.6355   1.2085328149e+02   4.7291588384e+01    0.5459201    0.1996666  78.15  0.001871727    4.378    0.772
        52 -11.8210    193.4940    118.6171   7.8229764271e+01   2.0120906355e+01    0.4582236    0.3980811 -71.96  0.001504283    1.610    0.379
        53 -11.4675    140.8885    116.9380   8.8890348514e+01   3.1105810816e+01    0.4641764    0.2538385 -47.32  0.002017037    1.912    0.477
        54 -10.8449     14.9309    120.8924   1.2428112837e+02   4.8198181808e+01    0.3003308    0.1525883  33.22  0.001663213    2.012    0.503
        55 -10.5910      2.1758    115.6401   1.2753233516e+02   5.0265094058e+01    0.1725015    0.1206086  83.85  0.001128261    1.143    0.125
        56 -10.8221    108.2264    112.4573   9.6116474872e+01   3.8253540986e+01    0.4578291      0.22959 -66.66  0.001639533    3.125    0.680
        57 -10.9440     78.3581    111.9476   1.0443294405e+02   4.3290977993e+01    0.3746567    0.2062218 -81.92  0.001494911    2.718    0.632
        58 -10.8461    174.4541    111.1423   8.0104592936e+01   2.5238874460e+01    0.3555228    0.2259332 -44.92  0.001406166    1.702    0.413
        59 -11.9773    159.6342    110.0892   8.2960829664e+01   2.8537013003e+01    0.6814161    0.3988958 -55.92  0.002808415    2.342    0.573
        60 -10.8142     91.7536    110.7966   1.0032456946e+02   4.1457163159e+01    0.3889101    0.1683706 -64.61  0.001398806    2.971    0.663
        61 -11.8331     14.6781    109.7286   1.2341306444e+02   5.0812301994e+01    0.6320356    0.3096297  76.75  0.003172507    2.027    0.507
        62 -12.5560    140.9300    103.6720   8.5609094320e+01   3.3659656746e+01    0.6689789    0.4198449 -51.95  0.002988325    1.765    0.433
        63 -12.1260     44.5756    101.1111   1.1292824709e+02   5.0204884054e+01    0.6663137    0.3401528  82.26  0.002753364    2.763    0.638
        64 -12.4123    151.0297    103.4541   8.3188744173e+01   3.1568029928e+01      0.43632    0.3131813  86.30  0.001872893    2.327    0.570
        65 -11.9345    127.6052    100.8213   8.8175476684e+01   3.6975342790e+01     0.395609    0.2492806 -57.19  0.001736201    1.840    0.457
        66 -13.0657    110.0476     99.9208   9.2631004059e+01   4.0618384462e+01     1.147509    0.5676099  60.40  0.003904403    3.381    0.704
        67 -10.8572     81.9963    100.6205   1.0098589983e+02   4.5346213580e+01    0.2527806    0.1956638  87.12 0.0009894186    1.484    0.326
        68 -12.6791    170.3458     90.7961   7.5593766968e+01   2.9564871326e+01    0.4311402    0.3509645  73.12  0.001304011    1.531    0.347
        69 -10.8928    133.2136    108.2059   8.8636837949e+01   3.4354589138e+01    0.3775562    0.1726284 -47.84  0.001462857    2.269    0.559
        70 -10.5286    151.3812     88.0295   7.8894342674e+01   3.4331444558e+01     0.305238    0.1434367 -29.07  0.001096585    2.467    0.595
        71 -11.8266     42.3767     87.8916   1.1138411925e+02   5.3639426870e+01     0.371984    0.2563401 -19.63  0.001277962    2.069    0.517
        72 -11.0462     46.2226     82.9658   1.0904872973e+02   5.4415228603e+01    0.6051787    0.2887966  68.23  0.002031114    4.315    0.768
        73 -11.0897     33.9780     88.0008   1.1436402139e+02   5.4452442475e+01    0.2943486    0.1503554 -78.02  0.001383053    1.878    0.468
        74 -11.0249     87.2864     87.9031   9.6268384435e+01   4.7395027429e+01    0.3278877    0.2202739  69.69  0.001459002    2.069    0.517
        75 -10.5651    140.5587     82.8227   7.9910470476e+01   3.7731243318e+01      0.38701    0.1418519 -41.18  0.001302127    2.657    0.624
        76 -11.0945    104.4486     83.4677   8.9799336753e+01   4.5239404484e+01    0.3712128    0.2466482 -68.98  0.001599123    2.008    0.502
        77 -10.9739     23.8796     79.7826   1.1669371976e+02   5.7332441858e+01    0.3429812    0.1520652  89.74   0.00138706    2.819    0.645
        78 -10.0646    141.7059     76.0108   7.7564746937e+01   3.8736105944e+01    0.2136938     0.192864 -33.33 0.0002846429    1.080    0.074
        79 -11.0939     82.6657     73.6754   9.3804828805e+01   5.1406723389e+01    0.4838545    0.2981419 -89.55  0.001680977    3.645    0.726
        80 -11.0760     62.4872     71.7726   1.0039469021e+02   5.5026893430e+01    0.6044701    0.1343869 -57.37  0.001707843    4.344    0.770
        81 -11.8214    223.4659     71.2736   6.1255095476e+01   2.0527291699e+01    0.3023424    0.2261196 -32.04 0.0007065622    1.220    0.180
        82 -10.5842     51.7068     70.9845   1.0424642328e+02   5.6653140382e+01    0.2031332    0.1654054 -64.36  0.000667278    1.105    0.095
        83 -10.6826     39.5175     52.7099   1.0425319058e+02   6.2418295294e+01    0.3336707    0.1664409 -42.64 0.0007771421    1.970    0.492
        84 -11.7668     20.7402     51.6202   1.1255096127e+02   6.4420325088e+01    0.6022296     0.227569 -68.04  0.002575343    2.246    0.555
        85 -13.6619     30.7524     59.9450   1.1003664079e+02   6.1579546703e+01     1.228364    0.7883694  39.94  0.003593086    1.778    0.438
        86 -11.7173     19.2459     59.5788   1.1495696928e+02   6.2609215034e+01    0.3376238    0.2209678 -56.63  0.001017992    1.290    0.225
        87  -9.5410     95.3237     60.3168   8.5258721865e+01   5.1931163092e+01    0.1522011    0.1170119  -3.98 0.0006611256    1.668    0.400
        88 -10.1824     72.5797     58.3681   9.2508781393e+01   5.6526314436e+01    0.2918099    0.1290215 -61.71 0.0009568904    3.392    0.705
        89 -11.4333      8.6390     56.6648   1.1910161587e+02   6.3984123758e+01    0.4707343    0.2603512  82.29   0.00240598    1.983    0.496
        90 -12.5849    235.5679     63.0736   5.7548909086e+01   1.8956824676e+01    0.4984857    0.3106004 -54.75  0.002425859    1.984    0.496
        91 -12.7406    149.4893     52.3326   6.7987187483e+01   4.0916851280e+01    0.3287071     0.311852  41.73 0.0004315484    1.076    0.071
        92 -10.6038    156.9892     45.0008   6.3917555284e+01   4.0125100810e+01    0.2277733    0.2217439  22.28 0.0004693073    1.037    0.036
        93 -11.9102     71.3144     42.4285   8.7031947033e+01   6.0120989630e+01    0.6532497    0.3228819  53.88  0.002541801    2.838    0.648
        94 -11.4580      7.5620     43.2788   1.1707804884e+02   6.7259979395e+01    0.5360405    0.2474682  40.06  0.002650092    2.607    0.616
        95 -11.7471     41.6784     37.5998   9.8127687628e+01   6.5609432389e+01    0.3921444     0.270785 -30.05  0.001119178    1.504    0.335
        96 -11.3007     36.5084     38.9634   1.0117350915e+02   6.5913663840e+01    0.3230315    0.2220959 -61.83  0.001193835    1.373    0.272
        97  -9.9689     95.3116     37.6410   7.6419114896e+01   5.6277813924e+01    0.1523884    0.1159363 -66.27 0.0007042579    1.742    0.426
        98 -11.3550    120.0761     34.2503   6.7916288104e+01   5.1059655727e+01    0.3318578    0.2867459 -69.03  0.001012993    1.355    0.262
        99 -10.3822     73.2911     32.0204   8.1724535017e+01   6.1777534112e+01    0.2880628    0.1946484  75.97  0.001195574    2.817    0.645
       100 -10.6058    106.6407     30.2904   6.9795078572e+01   5.4910548856e+01    0.3094404    0.2472821  71.89  0.001161038    1.487    0.328
       101 -10.5914    101.7402     29.2280   7.0729992097e+01   5.6223100514e+01    0.4152384    0.1781873 -41.87  0.001533356    2.398    0.583
       102 -10.4659     68.6186     24.3782   7.9913715059e+01   6.4030386506e+01    0.2645408    0.1589829 -32.90 0.0008280152    1.550    0.355
       103 -11.8205    221.6140    248.9031   9.6160349759e+01   3.5433026811e-02    0.3738633    0.1421493  41.64  0.002165403    2.446    0.591
       104 -10.0512     46.7956     16.5768   8.5787949271e+01   6.9162603695e+01    0.2185956     0.166254 -33.99 0.0009795994    1.149    0.129
       105 -10.8810    239.7545     20.7127   4.5910715329e+01   2.2682980749e+01    0.2294821    0.2064581 -21.67 0.0006237834    1.077    0.071
       106  -9.9813     32.6710    242.3003   1.2701722082e+02   2.3511159118e+01      0.10375   0.04554748  55.39 0.0004287403    1.643    0.391
       107  -9.8225     88.9867     18.4852   6.9515881797e+01   6.0744480128e+01    0.1938086    0.1324738  89.86 0.0008102401    2.536    0.606
       108 -11.6762     22.9945    240.0464   1.2854571366e+02   2.4752604204e+01    0.2268359     0.110711  60.61  0.001679249    1.529    0.346
       109 -10.5784      8.1924    240.5932   1.3098709949e+02   2.5980192187e+01     0.115804   0.07479861  31.25 0.0005408379    1.643    0.391
       110 -10.9754     12.7368    227.4663   1.2988625696e+02   2.7601476553e+01    0.1822886     0.118935  59.16 0.0005218759    1.066    0.062
       111  -9.9249    104.3748    225.1935   1.1329257339e+02   1.8006435754e+01    0.1301684   0.09674027  88.16 0.0009450721    1.683    0.406
