#   1 NUMBER                 Running object number                                     
#   2 MAG_AUTO               Kron-like elliptical aperture magnitude                    [mag]
#   3 X_IMAGE                Object position along x                                    [pixel]
#   4 Y_IMAGE                Object position along y                                    [pixel]
#   5 X_WORLD                Barycenter position along world x axis                     [deg]
#   6 Y_WORLD                Barycenter position along world y axis                     [deg]
#   7 A_WORLD                Profile RMS along major axis (world units)                 [deg]
#   8 B_WORLD                Profile RMS along minor axis (world units)                 [deg]
#   9 THETA_WORLD            Position angle (CCW/world-x)                               [deg]
#  10 FWHM_WORLD             FWHM assuming a gaussian core                              [deg]
#  11 ELONGATION             A_IMAGE/B_IMAGE                                           
#  12 ELLIPTICITY            1 - B_IMAGE/A_IMAGE                                       
         1 -10.7114    210.4028     22.6092   4.6562910528e+01   2.9457361936e+01    0.5557742    0.3632573  30.55  0.001045182    2.028    0.507
         2 -11.8512    217.2427     14.3859   4.3560876610e+01   2.8652943377e+01    0.7613838    0.6787859 -58.15  0.003029777    1.013    0.013
         3 -12.1958    202.2724     31.8803   5.0215410382e+01   3.0425837604e+01     1.109116    0.9176555   8.41  0.005852342    1.427    0.299
         4  -8.7982     12.4834      2.5181   9.3665313835e+01   7.4825224818e+01    0.1171411   0.08823331 -27.83 7.679942e-06    1.018    0.017
         5  -9.5476     56.2782    246.9951   1.2348307417e+02   1.8701750815e+01    0.1464911    0.1043872  67.53 0.0007183172    1.096    0.088
         6 -11.5980    134.1920    245.5443   1.1009593606e+02   8.4732798819e+00     0.523489    0.2237381  40.33  0.002879658    1.811    0.448
         7 -12.4155    112.6101    248.8036   1.1413412233e+02   1.1100027696e+01     1.009324    0.5719845  29.01  0.005980796    2.129    0.530
         8 -10.5394    100.8840    249.0082   1.1615259057e+02   1.2689290539e+01    0.4528767    0.2555749 -85.51  0.002789355    2.437    0.590
         9 -11.4302     94.5030    245.8670   1.1698152842e+02   1.4025167311e+01    0.5400326    0.3081377  70.24   0.00340967    1.892    0.472
        10 -10.6228     82.8074    249.2441   1.1922524223e+02   1.5057490618e+01    0.3658229    0.1909821  56.33   0.00238445    1.513    0.339
        11 -10.3558     71.9932    249.5007   1.2104677291e+02   1.6395123087e+01    0.3612722      0.24497  74.46  0.002739801    1.329    0.248
        12 -10.9444     66.1373    243.1761   1.2160468488e+02   1.8117191098e+01    0.5208406    0.1569544  43.12 0.0003854771    2.371    0.578
        13 -10.0294     67.9493    238.9447   1.2101040308e+02   1.8575222586e+01    0.4142975    0.1550286  59.95    0.0020848    2.604    0.616
        14  -9.7838     51.9303    250.3300   1.2438040261e+02   1.8686260672e+01    0.3020054    0.1103062  38.84  0.001717802    2.315    0.568
        15 -12.6562     40.8746    210.5554   1.2391902360e+02   2.6782771084e+01     1.076251    0.5791283 -54.36  0.006124138    2.621    0.618
        16 -14.1142     50.4803    201.2337   1.2144526834e+02   2.7449423018e+01     4.969142     1.985954  72.83   0.02170633    3.277    0.695
        17  -7.6808    194.0073    193.9927   9.2046480188e+01   6.2778835491e+00    0.2639409    0.1429655   8.37 0.0009579307    4.124    0.758
        18 -10.1393     66.5313    182.0445   1.1644978961e+02   2.9304209154e+01    0.3392587    0.2509227 -42.19  0.001760821    1.961    0.490
        19 -10.1154     71.2597    176.4068   1.1481317505e+02   2.9855799136e+01    0.2608711    0.2359877 -41.37 0.0007646164    1.507    0.337
        20  -7.6502    195.6762    169.6641   8.7230209722e+01   9.6887148936e+00     0.142476   0.09920458   8.52 0.0007050991    1.714    0.417
        21 -10.5487     51.4422    242.8435   1.2403900562e+02   1.9935709471e+01    0.2506077    0.2284995  15.78  0.002069345    1.845    0.458
        22  -9.8838     80.3736    166.3293   1.1153069936e+02   3.0743309433e+01     0.267235    0.2298249  53.66 0.0004026871    1.163    0.140
        23 -10.9374     86.4294    159.7456   1.0920713833e+02   3.1291761600e+01    0.6406013    0.4602661 -23.76   0.00172297    2.402    0.584
        24 -10.2571    120.8339    247.8871   1.1263791483e+02   1.0070798658e+01    0.3320059    0.1395008  44.61  0.001644404    1.773    0.436
        25 -11.5615     67.7667    162.7147   1.1398264809e+02   3.3289087052e+01    0.4215273    0.2743855 -46.86  0.001109639    1.946    0.486
        26 -10.7410     77.8870    159.4896   1.1118891886e+02   3.2604106199e+01    0.4327483    0.2820885  85.82  0.002269054    1.647    0.393
        27  -9.2067    164.0000    241.5281   1.0446102590e+02   4.5790190996e+00    0.2007102   0.06614956 -46.49 0.0009347629    3.935    0.746
        28 -10.6240    135.2901    234.3692   1.0869355449e+02   9.9066666022e+00    0.3543164    0.1626298 -52.10  0.001936787    2.739    0.635
        29 -11.4248     68.3923    144.1305   1.1133299082e+02   3.7420111150e+01     0.674093    0.4222482  69.92  0.002986633    1.737    0.424
        30 -10.2532     84.0254    233.8378   1.1782219407e+02   1.7331967745e+01    0.2313837     0.201622  66.84  0.001456434    1.207    0.172
        31  -9.1891    100.2852    143.9440   1.0327865580e+02   3.2619622890e+01    0.2246192    0.2086227  63.23  0.001077637    1.081    0.075
        32 -10.6290     88.1184    143.1859   1.0619592186e+02   3.4761484002e+01    0.4337088    0.2768045  34.57 0.0009329313    1.735    0.424
        33  -8.9779    110.9438    132.4510   9.8369208062e+01   3.3356266627e+01    0.2675679    0.2034297 -38.21  0.001341714    1.494    0.331
        34  -9.2666     98.1405    128.6703   1.0091546585e+02   3.6478583585e+01    0.2591152    0.2167062 -43.35 0.0006374004    1.299    0.230
        35  -9.5877     59.9421    230.6600   1.2182846539e+02   2.0946398005e+01    0.2187939    0.1665431 -72.28  0.001306832    1.536    0.349
        36 -10.9272    115.0568    230.4435   1.1192740201e+02   1.3520296000e+01    0.3703139    0.1809494  49.97  0.001538268    1.681    0.405
        37 -10.6433    109.1968    229.0387   1.1285192093e+02   1.4599914225e+01    0.2834673     0.215018  36.47  0.001453119    1.327    0.247
        38 -10.7072    127.6152    229.7990   1.0957103433e+02   1.1750345638e+01    0.3552174    0.1588678  52.77  0.001800412    2.131    0.531
        39  -8.1051    168.1142    112.7213   7.9945569622e+01   2.5658269288e+01    0.2552239    0.1692506 -78.81 0.0009383556    2.770    0.639
        40  -8.0269    107.5814    120.2544   9.6609049044e+01   3.6750002222e+01    0.1949965    0.1355006 -44.60 0.0004194164    1.471    0.320
        41 -12.3623      7.8831    250.0401   1.3123563085e+02   2.3392162533e+01    0.5659796    0.3237226  33.83 0.0005555354    2.073    0.518
        42  -8.7025     92.4835    103.3900   9.6850054566e+01   4.3358632343e+01    0.3123597    0.1977801  72.06  0.001074636    2.404    0.584
        43 -15.2689      7.1124    202.5997   1.2963322465e+02   3.1701621504e+01      11.9167     2.018776 -82.54   0.04183865    6.003    0.833
        44 -11.3225     97.0971    226.5035   1.1481825726e+02   1.6748524091e+01    0.5687876    0.2191731  48.52  0.002842257    2.073    0.518
        45 -10.1339    164.0672    226.2971   1.0250909888e+02   6.6143260907e+00    0.2481439    0.1654146  22.12  0.001151042    1.642    0.391
        46 -11.0247     12.9086     60.4042   1.1419014189e+02   6.2960361747e+01    0.4079773    0.1940827 -51.83  0.001584815    1.648    0.393
        47 -10.0590    145.3452     50.0624   6.5819831895e+01   4.2734589290e+01    0.4192981    0.3043305 -76.52  0.001176473    1.861    0.463
        48  -9.6778    120.2716    229.4314   1.1087065142e+02   1.2908065807e+01    0.1692506   0.08601447  48.90 0.0009449039    1.601    0.375
        49  -9.0563    148.5299     44.4921   6.3152278203e+01   4.2786023045e+01    0.2726651    0.2003724 -67.10  0.000759587    1.687    0.407
        50 -10.9431     84.1428    223.3557   1.1691077681e+02   1.9077038045e+01    0.4017121    0.1686851  49.62  0.002146987    1.895    0.472
        51 -10.6220    126.7005    247.0679   1.1154723542e+02   9.3467504300e+00    0.3430604    0.2191412  32.91  0.001928575    1.515    0.340
        52 -10.4058     59.9918    245.5603   1.2278403048e+02   1.8486162140e+01    0.3973416    0.1763966  80.61  0.001737255    2.751    0.636
        53 -11.2146    193.4766     37.5280   5.3087091961e+01   3.1981468081e+01    0.5007561    0.4822068  14.70  0.001757847    1.119    0.107
        54 -10.7686     57.5725    238.2175   1.2273229889e+02   1.9966555624e+01    0.3267991    0.1969611 -67.89  0.002291699    1.909    0.476
        55 -12.9378      2.4460    246.2733   1.3193896232e+02   2.4502808754e+01     1.190328    0.3720191 -77.01  0.006424597    2.989    0.665
