#   1 NUMBER                 Running object number                                     
#   2 MAG_AUTO               Kron-like elliptical aperture magnitude                    [mag]
#   3 X_IMAGE                Object position along x                                    [pixel]
#   4 Y_IMAGE                Object position along y                                    [pixel]
#   5 X_WORLD                Barycenter position along world x axis                     [deg]
#   6 Y_WORLD                Barycenter position along world y axis                     [deg]
#   7 A_WORLD                Profile RMS along major axis (world units)                 [deg]
#   8 B_WORLD                Profile RMS along minor axis (world units)                 [deg]
#   9 THETA_WORLD            Position angle (CCW/world-x)                               [deg]
#  10 FWHM_WORLD             FWHM assuming a gaussian core                              [deg]
#  11 ELONGATION             A_IMAGE/B_IMAGE                                           
#  12 ELLIPTICITY            1 - B_IMAGE/A_IMAGE                                       
         1 -12.0531    106.6985     31.9753   4.4583898213e+01   5.4218480466e+01    0.2774929    0.2181972 -31.43 0.0008506072    1.361    0.265
         2 -13.2688     85.8170     25.1857   4.7625597683e+01   5.9840740301e+01    0.4346527    0.2983538 -83.39  0.001817993    2.411    0.585
         3 -12.4088    211.8280     11.5356   2.3428781486e+01   3.1627368387e+01    0.3699998    0.1690102 -61.69  0.001624641    2.067    0.516
         4 -11.5349    210.1890      7.1983   2.2553824372e+01   3.2446570100e+01    0.2268212    0.1762456 -54.27   0.00117868    1.139    0.122
         5 -12.4879     85.0850     10.6325   4.1544854188e+01   6.1681464038e+01    0.2488386    0.1900417 -32.35 0.0004916054    1.443    0.307
         6 -11.4116     92.3289      8.6999   3.8839738573e+01   6.0233404865e+01    0.1279816    0.0973857 -73.86 0.0003452573    1.642    0.391
         7 -11.2217     68.1349      1.8253   4.2372080476e+01   6.6202987556e+01    0.2504073    0.1513274  83.01  0.001165608    2.735    0.634
         8 -11.7287    197.9725    242.9438   7.3803852769e+01  -2.4404497131e+00    0.1716108    0.1362822  12.65   0.00034866    1.046    0.044
         9 -11.2509    177.5365    249.6988   7.8547749802e+01  -7.7722630389e-01    0.1271926    0.1142009 -42.63 0.0007421086    1.473    0.321
        10 -17.0120     22.3986    139.1021   1.0181516047e+02   4.4045032449e+01      4.88576     3.035803  66.24    0.0248671    1.658    0.397
        11 -11.7887    178.0095    229.0301   7.5525288534e+01   2.2359221597e+00    0.1801994    0.1527399  12.25  0.001211196    1.021    0.021
        12 -13.9046    150.2531    225.2057   8.0571428798e+01   6.8331169726e+00    0.8283527    0.5294869 -52.93  0.004612516    1.854    0.461
        13 -12.7783    144.9345    216.7260   8.0473095864e+01   9.1286198295e+00     0.471378    0.3087107  83.86  0.002031838    3.372    0.703
        14 -13.8687    133.8700    193.3003   7.9329917507e+01   1.5406165173e+01    0.5571705    0.3186262  42.51  0.002276972    1.656    0.396
        15 -14.4718    147.2717    202.6153   7.7811107692e+01   1.1400148104e+01    0.6253442     0.489478 -46.22  0.003574331    1.378    0.274
        16 -13.3138    139.5129    208.5503   8.0437574963e+01   1.1485014126e+01    0.5005592    0.4446484 -77.93  0.002313595    1.366    0.268
        17 -12.7152    134.9313    204.5157   8.0846374395e+01   1.2983789909e+01    0.3310517     0.223789  45.78  0.001132684    1.442    0.307
        18 -14.0328    134.6204    198.5799   7.9999430983e+01   1.4212865069e+01    0.5072976    0.4159235 -19.22  0.001378185    1.396    0.284
        19 -12.4627    104.1282    227.9250   9.0845459423e+01   1.3030406702e+01    0.3737659    0.2630955  15.65  0.002083417    1.663    0.399
        20 -11.3338    185.7624    227.7915   7.3840623459e+01   1.3574036720e+00    0.2025895    0.1330029  10.73 0.0005348571    1.546    0.353
        21 -12.0628    231.4872    226.4977   6.5430953079e+01  -4.3324167928e+00    0.2061256   0.08795118 -27.36   0.00104128    2.391    0.582
        22 -11.9637    138.2656    225.9408   8.3198621670e+01   8.4604229060e+00    0.2587549    0.2060774 -43.94  0.001053843    1.419    0.295
        23 -11.0638    215.4439    226.4841   6.8180372635e+01  -2.3658029571e+00    0.1159413   0.09446456   0.84 6.870855e-05    1.047    0.045
        24 -11.7445    144.4633    224.2775   8.1655436873e+01   7.8450430198e+00    0.2160574    0.1203371 -43.26 0.0005890554    2.015    0.504
        25 -10.9009    186.4654    224.5089   7.3203663414e+01   1.7649341351e+00    0.1234485    0.1026466   7.81  8.59276e-05    1.016    0.016
        26 -12.8815    159.4300    222.6126   7.8294665135e+01   5.9341914283e+00    0.3111991    0.2559191  57.61  0.001478711    1.526    0.345
        27 -17.7552     69.7120    187.0128   9.4157835902e+01   2.6646459110e+01     2.996466      2.49856 -69.30   0.01609133    1.231    0.187
        28 -13.3439    172.7788    219.9147   7.5177909412e+01   4.4395396970e+00     0.337957    0.2992562  10.19  0.001948002    1.048    0.046
        29 -12.3504    244.0717    219.8859   6.2315603196e+01  -4.9409368122e+00    0.1545123    0.1305259  -6.26  0.000326616    1.228    0.185
        30 -13.1473    138.4136    219.0758   8.2214531161e+01   9.6807663820e+00    0.4479098    0.2844177  35.73  0.002119898    1.386    0.279
        31 -11.6433    193.1852    219.2078   7.1091818640e+01   1.6521636545e+00    0.1500872    0.1466949   4.72 0.0005240285    1.351    0.260
        32 -13.3091    160.8465    207.5453   7.5683184464e+01   8.3584526787e+00    0.4010743    0.2091288  41.02  0.001610303    1.839    0.456
        33 -13.8497    155.7133    213.6583   7.7721349596e+01   8.0487092755e+00    0.5832274    0.3076344 -40.98  0.002858286    2.069    0.517
        34 -11.5150    153.4802    210.5084   7.7708996099e+01   8.9576410094e+00     0.271121    0.1901412   7.53  0.001439511    1.667    0.400
        35 -13.4220    182.0614    214.0009   7.2404955581e+01   4.0625134215e+00     0.575305    0.2118403  28.97  0.001993452    2.980    0.664
        36 -16.7043     71.5507    209.9550   9.6276519330e+01   2.1210414799e+01     6.590964    0.5084082  42.66   0.01690864    6.218    0.839
        37 -12.5343    229.6008    207.2292   6.2595986555e+01  -1.4515588037e+00    0.2700727    0.1829594 -34.72  0.001715796    1.420    0.296
        38 -12.6872     33.9096    203.9037   1.0457801438e+02   2.7103012373e+01      0.53205    0.3113274 -58.34  0.002876268    1.909    0.476
        39 -11.8874    248.2839    205.8982   5.9342535710e+01  -3.5831752809e+00    0.2483191    0.1452771  24.01  0.001542177    1.725    0.420
        40 -12.4436    169.0047    205.2580   7.3613295172e+01   7.5075945441e+00    0.2611166    0.1392662  51.23  0.001151139    2.524    0.604
        41 -12.5588    213.1643    201.4554   6.4457180734e+01   1.6092842349e+00    0.2866476    0.2270218  35.10  0.000954569    1.400    0.286
        42 -11.1330     22.2741    201.4373   1.0711454108e+02   2.8861214211e+01    0.2405759     0.178052  43.38  0.001512095    1.262    0.207
        43 -11.8340     25.5532    196.2722   1.0599728187e+02   2.9708725075e+01    0.4058461    0.2392519 -54.89  0.002175753    1.974    0.493
        44 -13.7947    225.5445    198.6845   6.1817545946e+01   3.2949414524e-01    0.4580525    0.2999328 -42.82   0.00273481    1.650    0.394
        45 -11.4288     28.4259    200.5152   1.0561708277e+02   2.8447266600e+01    0.2475622     0.161396 -13.66  0.001219189    2.814    0.645
        46 -14.0226    190.7459    195.8645   6.7657574457e+01   5.7946318458e+00    0.4662932    0.3842884  50.85    0.0028185    1.521    0.343
        47 -17.8907     91.4417    195.3559   8.9776588173e+01   2.1635074897e+01     4.073683     3.231216 -73.53   0.02301436    1.336    0.251
        48 -13.4629    151.8840    197.1058   7.5905260204e+01   1.1717236970e+01    0.4153072    0.2138273  39.88  0.001908222    1.827    0.453
        49 -12.8031    152.5143    193.5061   7.5164204467e+01   1.2309861292e+01    0.3055034    0.1382554 -53.30  0.001260443    2.538    0.606
        50 -14.2877    140.2059    197.0914   7.8497431680e+01   1.3609854484e+01    0.5703254    0.4525394 -59.60  0.002362594    1.433    0.302
        51 -11.1533    245.2737    195.6469   5.8062793641e+01  -1.8020569741e+00    0.1041797   0.08708122 -47.12 0.0005562397    1.640    0.390
        52 -11.6647    212.9246    194.3951   6.3265559213e+01   2.7447356837e+00    0.2645327    0.1683798 -50.69 0.0008322528    1.994    0.499
        53 -11.2321    173.2983    195.3143   7.1050169471e+01   8.6123884972e+00    0.1351377   0.09756502  -5.08 0.0007015313    1.607    0.378
        54 -13.9161    165.5530    193.4601   7.2345036419e+01   1.0194680461e+01    0.4787146    0.3411141  60.43  0.001452809    1.945    0.486
        55 -11.4920    118.0921    190.6939   8.2627077297e+01   1.8521259630e+01    0.1974488    0.1729676  34.21 0.0003956345    1.084    0.077
        56 -11.4218     22.6679    191.5379   1.0635728479e+02   3.1088800678e+01    0.2167456    0.1791553  -0.33   0.00134682    1.673    0.402
        57 -10.9530    112.7200    242.7012   9.0665242669e+01   9.1181188487e+00    0.1604515    0.1213458  50.96 0.0002682917    1.256    0.204
        58 -13.3588    173.4436    188.2606   6.9777819549e+01   9.8758699846e+00    0.3545663     0.265785 -64.93  0.001875305    1.828    0.453
        59 -11.2672    142.0485    239.5490   8.4203981738e+01   5.5778972842e+00    0.1689425    0.1572457 -30.20 -1.277324e-05    1.245    0.197
        60 -11.8098    176.4811    238.3339   7.7175501097e+01   1.0211997519e+00     0.202337     0.153202  17.20 0.0003972468    1.120    0.108
        61 -13.4051    137.7741    179.4105   7.6070747516e+01   1.7645164960e+01      0.46571    0.3276337 -77.44  0.001482842    2.018    0.504
        62 -16.7548    133.1214    170.6301   7.5592796048e+01   2.0343308203e+01     1.602851     1.324597  35.73  0.007450343    1.177    0.150
        63 -14.2890    125.4402    161.2320   7.5721707577e+01   2.3806529161e+01    0.6436542    0.3480359  32.64  0.001170953    1.956    0.489
        64 -14.3838    127.0982    185.3181   7.9609434135e+01   1.8196811434e+01     0.758164    0.4987291  -1.91  0.003220729    2.531    0.605
        65 -13.3303    136.3456    186.3786   7.7611097245e+01   1.6426248160e+01    0.4421284    0.3138037 -75.84  0.001468852    1.936    0.483
        66 -11.7368    248.3778    186.2823   5.5938231644e+01  -8.6733330150e-01    0.2245701     0.153226  -5.20 0.0008866161    1.452    0.311
        67 -11.5598    227.4226    186.7425   5.9383497028e+01   1.8785827870e+00    0.1776872    0.1005366 -27.07 0.0009490295    1.661    0.398
        68 -12.4197    167.0278    187.0632   7.0907426795e+01   1.1153789361e+01    0.2029059    0.1721544  80.84  0.001125867    1.637    0.389
        69 -13.0800    186.8198    185.8145   6.6628037354e+01   8.1536458111e+00     0.360937    0.2194514  43.35 0.0008951187    1.751    0.429
        70 -11.8693     18.6301    184.8740   1.0687877994e+02   3.3036008708e+01    0.3034647    0.1651888  78.77  0.001556341    1.733    0.423
        71 -11.9050    148.8287    184.5282   7.4434189159e+01   1.4700625892e+01    0.2313204    0.1956788 -44.79 0.0003029563    1.232    0.189
        72 -10.4856     37.3007    185.2865   1.0223957922e+02   3.1045558934e+01    0.1209006    0.0987062 -41.14 0.0002746988    1.557    0.358
        73 -12.6685     30.2998    184.6139   1.0394913281e+02   3.1950555888e+01    0.3994842    0.2265699  28.90  0.002047322    1.831    0.454
        74 -12.2392    152.9558    182.7080   7.3186129549e+01   1.4365768595e+01     0.262467    0.1921022 -16.81  0.001318518    1.663    0.399
        75 -14.3991    117.6970    179.0454   8.0844786950e+01   2.1137836136e+01    0.6621609    0.4241805  19.21  0.002973909    1.961    0.490
        76 -13.9675    112.2457    177.2604   8.1904880632e+01   2.2447410128e+01    0.4114486    0.3581038 -58.47  0.002272657    1.197    0.164
        77 -13.5338    178.0662    181.6619   6.7624658071e+01   1.0333931880e+01    0.4618709    0.2961431 -21.88  0.002245669    1.854    0.461
        78 -10.9188    232.9416    182.7526   5.7746683881e+01   1.7180236266e+00    0.1457013   0.09874819  29.82 0.0008730256    1.552    0.356
        79 -11.2864    197.0385    180.7476   6.3711582355e+01   7.4102130860e+00     0.176484    0.1550005   9.33 0.0001835919    1.080    0.074
        80 -13.1764    144.5790    180.5242   7.4690090727e+01   1.6242848661e+01    0.3395156    0.2598572 -50.24  0.001152197    1.370    0.270
        81 -12.3636     24.1201    180.6349   1.0519214421e+02   3.3521175211e+01    0.2862432    0.1834187 -75.36  0.001591437    1.442    0.307
        82 -13.0472    190.2905    178.5665   6.4602479977e+01   8.8826390722e+00    0.3595256    0.2193491  -8.92  0.001223814    2.469    0.595
        83 -13.6755    154.6550    176.8076   7.1732018641e+01   1.5260946075e+01    0.3594409    0.3005255  11.32  0.001981379    1.259    0.205
        84 -11.7614     30.4737    177.8092   1.0332897823e+02   3.3566924378e+01    0.3864497    0.1737346  28.99  0.001274878    2.250    0.556
        85 -12.6347     27.2546    172.0881   1.0367269331e+02   3.5285678221e+01    0.4004006    0.2529882  82.55  0.002129881    1.488    0.328
        86 -11.4379     14.3191    176.3917   1.0736886188e+02   3.5446850991e+01    0.1958039    0.1365323  45.73 0.0008330414    1.347    0.258
        87 -11.6434    228.0303    174.6942   5.7068419063e+01   3.6684058160e+00    0.2313881    0.1378876 -25.32  0.001013623    1.609    0.378
        88 -13.8736    173.8357    171.2681   6.6533049829e+01   1.3013696861e+01     0.602454    0.4068178 -80.00  0.002477125    3.074    0.675
        89 -12.1268     32.3657    172.7997   1.0238125711e+02   3.4593114688e+01    0.2857144    0.2214313  80.90  0.001677418    1.147    0.128
        90 -13.1324     33.8046    167.4899   1.0148392539e+02   3.5754110673e+01     0.338067    0.2879906 -55.69   0.00192623    1.305    0.233
        91 -12.1799     18.2368    168.7848   1.0578696065e+02   3.6945575642e+01    0.5770843    0.2145862 -87.20  0.002272061    2.825    0.646
        92 -14.1638    159.2034    157.3130   6.6913946778e+01   1.8436133062e+01    0.5159215    0.3452748  60.67  0.002339518    1.952    0.488
        93 -14.4261    152.9063    167.2493   7.0313760225e+01   1.7529660876e+01    0.6381956    0.3080038 -45.86  0.002642289    2.086    0.521
        94 -13.2966    159.9656    169.3259   6.9136046030e+01   1.5839767560e+01    0.3424847    0.2117257 -53.58  0.001358697    1.773    0.436
        95 -12.8379    116.1849    240.1991   8.9658566733e+01   9.0806989491e+00    0.2780149    0.2035136  29.77 0.0005592175    1.203    0.168
        96 -12.4105    204.8980    164.8602   5.9199588196e+01   8.9055465856e+00    0.2567368    0.1750278 -20.35 0.0007872072    1.556    0.357
        97 -12.5359    200.4956    166.4873   6.0330416270e+01   9.3488405757e+00    0.1343409     0.120002 -15.34 5.951519e-05    1.006    0.006
        98 -11.0084      5.1430    166.6644   1.0907973674e+02   3.8552098374e+01    0.1436832    0.1192335   7.66 0.0004953906    1.563    0.360
        99 -17.2883     61.2748    136.6271   8.9306590331e+01   4.0341506566e+01     5.375542     1.590738  31.00    0.0175536    3.440    0.709
       100 -13.0500     48.1986    158.3040   9.6425904512e+01   3.6452280237e+01    0.4964714    0.2918905  35.96  0.002170487    1.681    0.405
       101 -12.0514     42.4847    161.5093   9.8436450793e+01   3.6305966256e+01     0.343203    0.2415445 -42.51 0.0007078704    1.705    0.414
       102 -12.7516     40.2986    159.3404   9.8805302924e+01   3.7097789014e+01    0.4028696    0.2385068 -35.31  0.001473575    2.407    0.584
       103 -11.6650    156.8646    234.0284   8.0449752977e+01   4.4024185631e+00    0.2235391    0.1554385  32.32 0.0009640898    1.238    0.192
       104 -11.1438    177.3208    161.3034   6.3840024661e+01   1.4321493671e+01    0.1432643    0.1072113  -3.45 0.0002845965    1.631    0.387
       105 -13.5503    170.7451    160.3606   6.5024417176e+01   1.5694078035e+01    0.3657447    0.2783252  26.38   0.00190663    1.386    0.278
       106 -13.1514    147.7347    160.9023   7.0254607537e+01   1.9807537421e+01    0.3346798    0.2328885  10.38  0.001496637    1.980    0.495
       107 -13.2159    116.7409    145.9940   7.4948930958e+01   2.8921718452e+01    0.2712764    0.2276209 -50.23 0.0004084291    1.199    0.166
       108 -14.9463    113.0653    140.4185   7.4775120541e+01   3.0922466196e+01    0.8959979    0.4975098  64.25   0.00314312    2.937    0.659
       109 -13.1559    105.5392    142.9174   7.7365202791e+01   3.1695904491e+01    0.3274992    0.2866948 -59.23  0.001149121    1.136    0.120
       110 -12.9805    100.9363    141.6194   7.8391490666e+01   3.2829195833e+01    0.3829743    0.3037018 -84.44  0.001254326    1.423    0.297
       111 -14.2869    111.4584    157.2368   7.8567325651e+01   2.7220882693e+01    0.6292621    0.3573953  38.95  0.002714956    1.720    0.419
       112 -15.4784    109.6377    149.3442   7.7530987043e+01   2.9417754234e+01    0.8721609    0.7644563 -54.05  0.004112377    1.149    0.130
       113 -13.6700    121.2204    155.4648   7.5678840639e+01   2.5890273656e+01    0.3677361     0.266165  48.06 0.0009595265    1.385    0.278
       114 -14.1430    126.6438    151.8666   7.3572073752e+01   2.5721709764e+01    0.5404617    0.3746392  -4.14  0.002238166    2.343    0.573
       115 -12.8105    212.1469    153.8191   5.5704914185e+01   9.6204810782e+00     0.249569    0.2193636 -60.39  0.000376692    1.366    0.268
       116 -14.3039    147.0970    149.3076   6.8023295306e+01   2.2419922482e+01    0.5824397     0.402895  47.19  0.001033492    1.481    0.325
       117 -12.3388      2.9571    153.1160   1.0875916476e+02   4.2034702711e+01    0.4122954    0.1554316 -77.59   0.00154887    2.234    0.552
       118 -12.7678    179.8934    150.1595   6.1013094544e+01   1.6014664346e+01    0.2139636    0.2004152 -84.79 0.0008676636    1.247    0.198
       119 -12.4017    224.8198    148.6791   5.2543722289e+01   8.3969027564e+00    0.2406421    0.2188788 -71.22 0.0004842139    1.399    0.285
       120 -14.3889    133.7683    147.1707   7.0804293475e+01   2.5445719544e+01    0.5775943    0.3800626 -45.08  0.002639427    1.533    0.348
       121 -13.2249    170.1637    146.4900   6.2251642169e+01   1.8576603678e+01    0.2843822    0.2342981 -38.44 0.0006152309    1.173    0.148
       122 -12.1004    155.9839    145.0352   6.5051580089e+01   2.1615626566e+01    0.1755429    0.1722142 -22.24 0.0003819662    1.004    0.004
       123 -13.2216    141.0201    144.1140   6.8366305975e+01   2.4729792992e+01    0.4586975    0.2332696 -50.74  0.001351038    1.990    0.498
       124 -11.2136    202.5323    143.4963   5.5272376337e+01   1.3117744644e+01    0.1379205    0.1235848 -24.92 5.463671e-05    1.028    0.028
       125 -11.6344    151.1194    142.1197   6.5532516044e+01   2.3187636980e+01     0.229304    0.2005394  -0.33 0.0005161887    1.291    0.225
       126 -11.2036    174.7582    243.5490   7.8237710847e+01   4.7555967472e-01    0.1579925   0.09655614  38.09 0.0006642462    1.536    0.349
       127 -16.9916     56.1765    119.2361   8.7812400803e+01   4.5502112014e+01     4.884585     1.696282  30.89   0.01731935    2.972    0.664
       128 -11.6081    172.1795    137.1212   5.9775048653e+01   2.0068908744e+01    0.1930235    0.1703289 -74.92 0.0002751046    1.297    0.229
       129 -12.1117    159.9242    135.9917   6.2164953604e+01   2.2736052661e+01    0.3339923    0.1911886 -31.14  0.001352555    2.106    0.525
       130 -11.4627    234.9929    133.9558   4.7987563383e+01   9.1552727881e+00    0.1954195    0.1586138 -37.21 0.0003430395    1.061    0.058
       131 -12.6377    138.6549    131.9803   6.6238972649e+01   2.7888716403e+01    0.4597282    0.3016942 -65.87  0.001630191    1.901    0.474
       132 -13.2236    119.9962    119.6425   6.8155424217e+01   3.4458587925e+01    0.3891779    0.2069029 -48.92  0.001548456    1.856    0.461
       133 -13.6371    123.7045    129.7056   6.9542471745e+01   3.1396113871e+01    0.4885996    0.2952745  68.79  0.001788342    2.694    0.629
       134 -13.6506    119.5229    132.4467   7.1284056313e+01   3.1578225158e+01    0.4358547    0.2564005 -31.29  0.001676226    2.334    0.572
       135 -12.9093    116.5173    131.4748   7.1879283365e+01   3.2387422391e+01    0.2564339     0.247589  62.18  0.001380766    1.033    0.032
       136 -13.2502    157.1399    127.8122   6.0907993055e+01   2.5011803893e+01    0.5963038    0.4884703 -52.94  0.003054024    1.216    0.178
       137 -11.4949    146.4454    126.8763   6.3160000965e+01   2.7416791015e+01    0.2385876    0.1464871 -47.21  0.001028276    1.598    0.374
       138 -10.8031    134.0878    127.4638   6.6330071088e+01   2.9821883160e+01    0.2095373     0.150909  44.04 8.284727e-05    1.405    0.288
       139 -10.6629    201.2522    126.3302   5.1784760833e+01   1.6467599315e+01    0.1363297    0.1042756 -12.81 0.0002319308    1.554    0.356
       140 -12.3369    189.8299    122.1940   5.2908658200e+01   1.9461750667e+01    0.3761748    0.2902836  74.45   0.00192479    1.650    0.394
       141 -11.0462    205.4475    122.5092   5.0215470757e+01   1.6354849247e+01      0.13882    0.1241952 -37.09 -3.274481e-06    1.013    0.012
       142 -13.5862     93.9841    119.1744   7.5559729273e+01   3.9563498469e+01    0.3903524    0.2747047 -42.83  0.001280543    1.477    0.323
       143 -16.5266     63.5217    229.8158   9.9954502850e+01   1.8089108232e+01     4.485971     1.734205  47.99    0.0206085    2.198    0.545
       144 -11.1046    250.5224    119.4956   4.2917834744e+01   8.9237046107e+00    0.1257246    0.1017533 -38.05 5.864162e-05    1.013    0.013
       145 -14.6024     83.9125    114.7110   7.7667365267e+01   4.2427863523e+01    0.7197549    0.4320388  62.45  0.002852645    2.298    0.565
       146 -11.9354    217.3671    231.8311   6.8676706809e+01  -3.3384286254e+00    0.1640944    0.1130255   0.30 0.0003503999    1.303    0.233
       147 -13.7275    105.5458    114.8054   7.1050876438e+01   3.8448508416e+01    0.3697936    0.3246287  -0.12 0.0008847452    1.350    0.259
       148 -13.8390    115.2243    112.0181   6.7578008447e+01   3.7176573470e+01    0.6161923    0.3486185 -62.39  0.002374755    2.178    0.541
       149 -12.4564    132.3067    232.1557   8.5283432066e+01   8.2230922762e+00    0.3762407    0.2066013  26.50  0.001459736    1.755    0.430
       150 -13.3506     93.4731    112.9922   7.4244968294e+01   4.1156008648e+01    0.3981279    0.2640376 -25.69  0.001643437    2.119    0.528
       151 -13.1123    165.2218    110.7232   5.5026854237e+01   2.6802717192e+01    0.4523877    0.2093631 -45.08  0.001751744    2.073    0.518
       152 -13.5049     89.9140    108.8217   7.4334629422e+01   4.2807699009e+01    0.4715497    0.3004266   6.43  0.001740765    2.883    0.653
       153 -11.4575    139.5283    107.5203   6.0038531352e+01   3.3043003423e+01    0.2794283    0.1455458  58.27  0.001032914    2.347    0.574
       154 -11.6931    217.6933    105.7353   4.4535163121e+01   1.6922657514e+01    0.2491036    0.1902364 -18.34 0.0007216429    1.513    0.339
       155 -15.0856     73.8373     89.6638   7.4709382366e+01   5.0167039731e+01    0.8129045    0.5624261  74.66  0.003396284    2.160    0.537
       156 -13.1142     66.0052     94.7749   7.8887221341e+01   5.0216379559e+01    0.5409305    0.3016581  15.98  0.002087986    2.688    0.628
       157 -12.8322     72.7708    105.2262   7.9105035012e+01   4.6608888714e+01    0.2983142    0.2113761 -50.17 0.0008479285    1.358    0.263
       158 -15.7096     76.2729     99.0876   7.6373376821e+01   4.7527462578e+01     1.270155    0.7996719  38.39  0.005538539    1.632    0.387
       159 -13.9214     60.7360     93.5569   8.0507838922e+01   5.1301330427e+01    0.5886426    0.3164492 -48.89   0.00255615    1.757    0.431
       160 -10.8051    230.4601    104.5938   4.2470512925e+01   1.4722687245e+01    0.1294766    0.1119818 -41.62 -1.689398e-05    1.028    0.027
       161 -11.3201    118.0685    104.3442   6.4791268499e+01   3.8325927430e+01    0.3727678    0.1977979  59.45  0.001345237    2.520    0.603
       162 -11.8422    109.2472    103.3657   6.7034647457e+01   4.0365748442e+01    0.2637547    0.2207702 -56.34 0.0007589905    1.191    0.161
       163 -13.5743      2.2942    102.4276   1.0437898727e+02   5.4815574640e+01    0.5282977    0.2013442 -76.48  0.001855169    2.269    0.559
       164 -11.8482     30.8694     99.4309   9.3147879379e+01   5.3455844411e+01    0.3380542    0.1835234 -47.49  0.001575477    1.749    0.428
       165 -11.0218    208.5157     99.5004   4.4506259749e+01   1.9780419903e+01    0.1382007    0.1230695 -46.19 0.0001809147    1.016    0.016
       166 -11.6776    194.0357    230.0992   7.2626126264e+01  -1.0612690874e-01    0.3088247    0.1519157 -53.81  0.001417089    3.394    0.705
       167 -11.4716    222.4952    230.4918   6.7581431391e+01  -3.7840123095e+00    0.1160968   0.08947448  -0.16 7.077571e-06    1.024    0.023
       168 -11.1879    237.5348     98.5207   4.0240733496e+01   1.4408055743e+01    0.1304173    0.1071764 -46.72 2.846175e-05    1.034    0.033
       169 -12.0639    150.6183     96.9259   5.4648083554e+01   3.2771906462e+01    0.3055967    0.2209007 -66.08  0.001400591    1.608    0.378
       170 -11.6937     39.2554     95.5871   8.9150774998e+01   5.3556236603e+01     0.254201    0.1299993  31.01  0.001131152    2.058    0.514
       171 -11.8404     12.0645     94.6769   9.9626378640e+01   5.6173175798e+01    0.1696142    0.1653401 -66.65 0.0006486772    1.125    0.111
       172 -12.1071     34.8644     93.8766   9.0504079539e+01   5.4450341149e+01    0.2143604    0.1744789 -39.96 0.0004362001    1.213    0.176
       173 -11.0549     98.6561     92.9742   6.7366890103e+01   4.4839579430e+01     0.252711    0.1261651 -68.12 0.0007049089    4.385    0.772
       174 -12.7968     58.4323     99.9143   8.2904886384e+01   5.0075447139e+01    0.3545821    0.3004473  26.79 0.0008418982    1.264    0.209
       175 -11.6049    214.0381     92.3253   4.2037474260e+01   1.9876741465e+01    0.1782807    0.1682237 -75.55 0.0003515214    1.114    0.103
       176 -12.2456    183.0969     91.3088   4.6712908698e+01   2.6570462153e+01    0.2002518    0.1866124 -88.20  0.000725115    1.089    0.082
       177 -12.5629    171.0623     88.0409   4.8073994320e+01   2.9844301712e+01     0.262806    0.2058255 -44.29 0.0005083013    1.215    0.177
       178 -12.8920     31.1643     88.8944   9.0936556450e+01   5.6054952160e+01    0.2881483    0.2289853  80.27  0.001601827    1.441    0.306
       179 -12.6837      2.8039     90.8142   1.0271268240e+02   5.7677606275e+01    0.2241006    0.1915922 -59.68 0.0003554881    1.058    0.055
       180 -12.7355    102.0565     89.6857   6.5379248975e+01   4.4883858238e+01    0.2836511    0.2192355 -76.34  0.001328025    1.594    0.373
       181 -11.5236     88.4481     90.4903   6.9931320881e+01   4.7372757274e+01    0.1487777    0.1449902 -44.11 8.562626e-05    1.014    0.013
       182 -11.9499     11.3968     88.1514   9.8856668267e+01   5.7836532328e+01    0.3906972    0.1576072 -50.74  0.001366417    2.113    0.527
       183 -13.4658     53.6876     85.0092   8.0983702192e+01   5.4350194178e+01     0.592838    0.4815911  87.46  0.002739651    1.490    0.329
       184 -13.6592     62.2125     82.5524   7.7007616204e+01   5.3686996088e+01    0.3461859    0.2781613  -8.48  0.001082963    1.453    0.312
       185 -12.4814    177.9770     86.9723   4.6522240860e+01   2.8480478076e+01    0.2214063    0.2042007 -64.72 0.0003873658    1.020    0.020
       186 -13.9962     91.6632     99.8921   7.1475929531e+01   4.4604640947e+01    0.5904697    0.2722519  39.50  0.002235775    2.218    0.549
       187 -11.3740    114.7227     85.1404   6.0337405566e+01   4.3182582691e+01    0.2598369    0.1697876 -89.48 0.0006558666    2.803    0.643
       188 -13.2519    107.7206     81.3036   6.1196330449e+01   4.5486351039e+01    0.5172106    0.4144126  51.31  0.002594266    1.257    0.205
       189 -12.9084    112.0366     75.9303   5.8301094302e+01   4.5638250215e+01    0.3966112    0.3023944 -31.72 0.0005977309    1.419    0.295
       190 -12.0864    115.6783     74.7013   5.6904538109e+01   4.5072364939e+01    0.2839581    0.2397951 -25.15  0.001013611    1.307    0.235
       191 -11.0308    222.4676     82.0125   3.8547202930e+01   1.9856258398e+01    0.1938752    0.1146517 -39.59 7.931575e-05    1.468    0.319
       192 -11.6340    211.9818     81.9145   3.9918689251e+01   2.1992735006e+01    0.1877086    0.1748651 -36.39 0.0003672873    1.156    0.135
       193 -11.8272    214.3751     79.1103   3.8941787862e+01   2.1947834854e+01     0.232657    0.1905817 -88.10 0.0005722973    1.302    0.232
       194 -12.5272    206.4055     81.4137   4.0583125357e+01   2.3234783001e+01    0.2859203    0.2304989 -26.40 0.0007035481    1.359    0.264
       195 -12.8822     26.1911     89.5565   9.3088105590e+01   5.6355107044e+01    0.4545712    0.2984546  50.07  0.001684617    1.775    0.437
       196 -12.9211    183.0287     78.4071   4.3446152155e+01   2.8834982681e+01     0.491924    0.2421544 -29.84  0.001956029    2.387    0.581
       197 -12.6323    153.2042     80.2551   4.9527248937e+01   3.5374673251e+01    0.2844776    0.2422266 -89.39 0.0003693583    1.246    0.197
       198 -13.3199     87.3440     79.0609   6.6913611507e+01   5.0108622765e+01    0.3522827    0.3078799  41.12  0.001074196    1.157    0.136
       199 -12.3220     28.6601     79.9672   9.0014787011e+01   5.8468222136e+01    0.2860416    0.1773408  35.16  0.001330368    1.761    0.432
       200 -11.3313    120.4030     78.7964   5.6882467594e+01   4.3211574654e+01    0.2006214    0.1449984 -31.43 0.0002599064    1.527    0.345
       201 -14.5377     75.6962     74.9911   6.9711707172e+01   5.3145259816e+01    0.6793644    0.4773971  16.66  0.003180665    1.786    0.440
       202 -12.2541     59.4287     75.6900   7.6097879775e+01   5.5677160966e+01    0.2425978    0.1747728   2.87  0.001170916    1.764    0.433
       203 -11.0844    177.9551     74.9909   4.3412136873e+01   3.0565784049e+01    0.1734771    0.1609919 -81.26 0.0005801056    1.045    0.043
       204 -11.6344     32.0727     74.6426   8.7257149745e+01   5.9398375571e+01    0.3103949    0.1965326  -7.76  0.001503288    2.022    0.505
       205 -10.9065    236.3992     74.2147   3.5157414408e+01   1.8339600263e+01    0.1765925   0.09770689 -46.23 0.0003403325    1.497    0.332
       206 -12.3240     51.4494     73.9966   7.8820290303e+01   5.7216229626e+01     0.263404    0.1989023   3.94  0.000646085    1.544    0.352
       207 -12.2703    219.6185     72.2491   3.6686717827e+01   2.1942024308e+01     0.260233    0.1790247 -64.85 0.0009487837    1.474    0.322
       208 -11.0831    124.5330     73.5259   5.4194586196e+01   4.3292721147e+01    0.1493536    0.1441019 -88.36 1.470849e-05    1.021    0.020
       209 -11.0782     94.4541     72.9414   6.2649164153e+01   4.9977262622e+01    0.2194877    0.1443923 -45.21  0.000298677    1.521    0.343
       210 -13.0496      4.0980     72.6591   9.9328546127e+01   6.2016709323e+01    0.3207043    0.2337321  54.17  0.001379536    1.646    0.392
       211 -11.9160      1.9836     68.4923   9.9542687213e+01   6.3107957814e+01    0.2015198    0.1375097 -33.41 0.0007720586    1.427    0.299
       212 -13.5102    197.5750     66.4540   3.8199170709e+01   2.7526057642e+01    0.5145748    0.2554834 -34.52  0.002283175    1.973    0.493
       213 -13.4887    188.6909     66.4672   3.9486109679e+01   2.9512667951e+01     0.427192    0.2747663 -43.56 0.0008297469    1.429    0.300
       214 -13.4357    101.1262     63.4932   5.7456519185e+01   5.0415285781e+01    0.5389972    0.3527022  10.12  0.002119774    2.722    0.633
       215 -11.3113     94.1617     69.1521   6.1509379209e+01   5.0797975479e+01    0.1958696    0.1728791 -76.71 0.0003240922    1.290    0.225
       216 -12.2436      7.4625     78.1797   9.8818117649e+01   6.0510099434e+01    0.2146194    0.1800929   6.91 0.0005703383    1.357    0.263
       217 -12.6514     60.1098     67.6053   7.3315889488e+01   5.7351199695e+01    0.2748688    0.1957697 -39.41 0.0007234456    1.368    0.269
       218 -12.4339     48.7151     67.1179   7.7897537294e+01   5.9129810702e+01    0.2443402    0.1871312  40.55  0.001326939    1.417    0.294
       219 -12.6210    114.0195     63.1652   5.3666237282e+01   4.7609982657e+01    0.2543516    0.2134178 -61.68 0.0007350722    1.283    0.221
       220 -12.6029     45.2037     61.7847   7.7741001798e+01   6.0763656719e+01    0.3576515    0.3135756 -16.44  0.001971492    1.110    0.099
       221 -12.4056     40.2856     60.4275   7.9519917139e+01   6.1687423534e+01    0.3320434    0.1344179  26.14  0.001330003    2.746    0.636
       222 -12.5975    216.3066     60.7116   3.4422293587e+01   2.4354533703e+01    0.3597195    0.2593557  16.30   0.00180164    2.468    0.595
       223 -12.4384     13.1899     62.1022   9.2873896748e+01   6.3933477965e+01    0.2099485    0.1497075 -39.52 0.0007242323    1.258    0.205
       224 -11.8009    208.4895     61.5030   3.5552320981e+01   2.5897900148e+01    0.1347867    0.1165852 -60.13 -0.000126696    1.008    0.008
       225 -12.9418    109.4396     60.1182   5.3909103301e+01   4.9192332549e+01    0.3776987    0.2655367  68.80  0.001769068    1.665    0.399
       226 -11.4448      3.0391     59.4930   9.7270542678e+01   6.5142381962e+01    0.2636526    0.1174845  -0.95  0.001207847    2.785    0.641
       227 -12.9263    192.7708     57.4682   3.6607604586e+01   2.9972691801e+01    0.3305855    0.2195556 -80.35  0.001453336    1.707    0.414
       228 -11.1495    178.1979     58.5927   3.9017477590e+01   3.3158019446e+01      0.18676    0.1260328  52.51 6.482822e-05    1.588    0.370
       229 -11.6886    153.6510     57.5436   4.2907921989e+01   3.9166442228e+01    0.2389658    0.2181832 -36.91   0.00060886    1.166    0.142
       230 -11.8101    224.4951     56.8782   3.2627548295e+01   2.3212829205e+01    0.2625955     0.158559 -86.58  0.001346912    1.980    0.495
       231 -12.1258    140.8475     57.0873   4.5311324346e+01   4.2327266087e+01    0.4156378    0.1916723  57.42  0.001427119    2.104    0.525
       232 -12.4700     98.8560     57.1050   5.5946679700e+01   5.2072446085e+01    0.2248325     0.201972 -78.46 0.0009699602    1.255    0.203
       233 -12.9236     29.7876     56.6046   8.3260642429e+01   6.3716558951e+01    0.2507198     0.233262  13.07  0.001346081    1.159    0.138
       234 -13.3165     26.1582     54.8672   8.4504903206e+01   6.4461751928e+01    0.3156661    0.2621753  76.85 0.0008907574    1.611    0.379
       235 -13.0035    109.5926     54.9622   5.2111210798e+01   5.0053845325e+01    0.3916517    0.2903684  21.00  0.001881686    1.723    0.420
       236 -11.3521    240.1565     54.5203   3.0537705055e+01   2.0435960613e+01    0.1593355    0.1172263  75.90 0.0005130391    1.488    0.328
       237 -11.3150     37.2632     54.6304   7.9032383925e+01   6.3293701481e+01    0.1256074    0.1043478  86.84 0.0006983891    1.654    0.396
       238 -12.4284    181.8714     51.7287   3.6639704917e+01   3.3329635837e+01    0.3609407    0.1990766  86.52  0.001531233    2.360    0.576
       239 -12.2521    123.9790     51.7567   4.7359942706e+01   4.7227995936e+01    0.2049843    0.1849688  65.91 0.0005034149    1.068    0.063
       240 -12.2523    173.5054     50.8908   3.7647406147e+01   3.5422787736e+01    0.2942329    0.1798645  87.30  0.001339248    1.951    0.487
       241 -11.2128     94.4992     51.5146   5.5286018711e+01   5.3991576448e+01    0.1415279    0.1364192  32.16 0.0008105128    1.004    0.004
       242 -12.2064     42.6551     50.5320   7.5060350108e+01   6.3448416991e+01    0.3059256    0.2088795 -42.06  0.001658307    1.368    0.269
       243 -13.2894     30.8487     50.8923   8.0894104386e+01   6.4819129312e+01    0.3166764    0.1927533  19.63  0.001504737    1.754    0.430
       244 -12.0038    159.7658     50.1966   3.9663934647e+01   3.8819613450e+01     0.237686    0.1984559  71.34 0.0006087404    1.157    0.135
       245 -12.1286     38.0026     50.2488   7.7168324492e+01   6.4109832910e+01    0.1850724    0.1677644  -9.84 0.0007875056    1.049    0.047
       246 -13.1944     19.1843     47.7221   8.5847041858e+01   6.6638420162e+01     0.478743    0.1996922 -39.86 0.0009281505    2.266    0.559
       247 -11.9131    133.1128     48.6340   4.4277868134e+01   4.5524498319e+01     0.224676    0.1935509 -59.21 0.0004188226    1.183    0.154
       248 -11.3595    142.4887     46.5181   4.1693658628e+01   4.3564681897e+01    0.1422026    0.1333774  83.89 -4.177023e-05    1.015    0.015
       249 -12.1030     39.0494     46.0857   7.5145108293e+01   6.4810336373e+01    0.1944466     0.175946 -17.29 0.0002868734    1.024    0.024
       250 -11.2485    226.5387     44.9531   2.9742927500e+01   2.4440049084e+01    0.1863633    0.1094651 -37.51 0.0006701493    1.537    0.349
       251 -11.4445    174.1494     43.9912   3.5655690894e+01   3.6258227038e+01    0.2169326    0.1659679 -61.29  0.001186725    1.242    0.195
       252 -11.3369    190.0185     43.5121   3.3397976532e+01   3.2604020583e+01     0.195214    0.1042545 -80.60  0.000810001    2.504    0.601
       253 -11.9249     95.0642     42.4665   5.1751890852e+01   5.5348732693e+01    0.2146562     0.186661 -29.58 0.0004379881    1.201    0.167
       254 -11.7403    198.0000     46.0533   3.3062954386e+01   3.0435297229e+01    0.2151402    0.0705765 -33.89 0.0007972766    2.907    0.656
       255 -13.6969     33.9752     39.8965   7.5302393889e+01   6.6655565798e+01    0.5209793    0.2442099  20.50  0.002293888    2.570    0.611
       256 -12.0718    146.0606     39.2529   3.8761299888e+01   4.3725588570e+01    0.2206888    0.1949629 -46.65 0.0003429891    1.161    0.139
       257 -11.7610    104.3442     40.1061   4.8231507201e+01   5.3618891120e+01    0.2431521    0.1814527  42.93 0.0005360051    1.313    0.239
       258 -11.0204    246.5396     39.5181   2.6836322298e+01   2.1202901616e+01    0.1230862   0.09246337 -57.58 0.0001372159    1.043    0.041
       259 -12.0572      2.1148     37.4314   9.2233061029e+01   7.0019073984e+01    0.2445037    0.1619591 -70.94 0.0005399315    1.628    0.386
       260 -10.7078    136.2651     38.3749   4.0302999991e+01   4.6244925185e+01    0.1393427    0.1079425  22.25 0.0006986941    1.670    0.401
       261 -12.6690     54.8300     37.2496   6.4275126275e+01   6.4086667566e+01    0.3049512    0.2104706   3.03 0.0009832404    1.797    0.444
       262 -11.5897    231.4829     37.4916   2.7647547547e+01   2.4411707151e+01    0.1251267    0.0999641 -60.27 0.0001602337    1.001    0.001
       263 -11.0670     92.5016     37.5113   5.0612557774e+01   5.6666313392e+01    0.1377318     0.130105  40.01 -6.49077e-05    1.008    0.008
       264 -13.1372     10.3864     36.3590   8.7011971151e+01   6.9702162600e+01    0.3963208    0.3071405 -45.52  0.002191236    1.135    0.119
       265 -12.4747    169.7369     33.4865   3.3354504360e+01   3.8722532666e+01    0.4969046    0.1927013 -42.46  0.002038451    2.391    0.582
       266 -13.0617     44.1851     34.2606   6.7876188018e+01   6.6286069104e+01    0.3115835    0.2928167 -61.25  0.001172037    1.355    0.262
       267 -12.1350    222.9218     33.2694   2.7458944385e+01   2.6706903522e+01    0.2625455    0.1626205 -33.28 0.0006740494    1.612    0.379
       268 -13.7521     31.3835     32.9002   7.3799976565e+01   6.8280685522e+01    0.4374604    0.2828688  -5.51  0.002336303    1.818    0.450
       269 -11.7179    237.6936    248.9498   6.7827623495e+01  -7.8304707355e+00    0.2108406    0.1412746   3.17  0.001290595    1.187    0.157
       270 -11.9678    214.2884     31.4077   2.7812270282e+01   2.8771497330e+01    0.2264338    0.1098592  67.19  0.001126794    2.076    0.518
       271 -12.0786    141.0069     30.1936   3.6786667111e+01   4.6156028090e+01    0.3401977    0.1897037  65.60  0.001592996    1.668    0.401
       272 -13.0163     39.1979     29.1460   6.8070569317e+01   6.7890719879e+01    0.2898608    0.2331773  -0.70 0.0008460073    1.176    0.150
       273 -11.2447    155.8484     29.1803   3.4085917839e+01   4.2637871943e+01    0.1799157    0.1561097  43.82 0.0003681624    1.316    0.240
       274 -12.0135    178.9586     27.8551   3.0628905112e+01   3.7224249988e+01    0.2093622    0.1780692 -49.31 0.0002786093    1.166    0.142
       275 -12.1122     75.0064     30.4570   5.3400517485e+01   6.1402829269e+01    0.2043499    0.1248458  48.73  0.000348494    1.558    0.358
       276 -12.8788     48.3521     26.7626   6.2526873634e+01   6.6869141472e+01    0.3183247    0.2344327  -1.09  0.001825314    1.458    0.314
       277 -11.5757     25.2191     27.1670   7.4719399245e+01   7.0047968035e+01    0.1496284    0.1459379   0.62 0.0007434534    1.293    0.226
       278 -11.6473    127.9323    235.4712   8.6624089745e+01   8.2643142996e+00    0.1875952    0.1809945 -28.35 0.0004691283    1.203    0.169
       279 -11.4849    171.8099     22.7625   3.0094001240e+01   3.9535061640e+01    0.2828471    0.1134457 -21.25  0.001043139    3.622    0.724
       280 -11.6757    250.0481     22.0535   2.3033105118e+01   2.2675619715e+01    0.1746144    0.1332546 -59.71 0.0003726824    1.018    0.018
       281 -10.4784    189.2668     20.2785   2.7511379483e+01   3.5707023681e+01    0.1135478   0.09714641  44.31 0.0001700404    1.483    0.326
       282 -11.7999    102.6137     20.2010   4.1055725313e+01   5.6635746326e+01    0.1707372    0.1292356  -5.96 0.0002840425    1.576    0.366
       283 -12.0719    134.5310     18.5232   3.4069487142e+01   4.9117307574e+01    0.2270614    0.1986963  72.54 0.0001332801    1.038    0.037
       284 -11.3729     30.3352     16.7380   6.6787880219e+01   7.1127274174e+01     0.167185    0.1411177 -38.16  0.001106919    1.344    0.256
       285 -11.9108    103.7182     15.9928   3.9140531568e+01   5.6842615175e+01    0.2777961    0.1713695  53.72  0.001194876    1.441    0.306
       286 -11.0351     90.6878     16.6407   4.2625921819e+01   5.9782865466e+01    0.1412708   0.09236351  28.07 0.0007042597    1.745    0.427
       287 -11.1584    231.0125     32.2646   2.6549009350e+01   2.5167770266e+01    0.1411425     0.098125  81.88 0.0003003286    1.450    0.311
       288 -10.6221    200.2533    247.2918   7.4014198361e+01  -3.3118499324e+00    0.1103157   0.07275362  -1.76            0    1.485    0.327
       289 -11.2704    139.4711    247.4691   8.5714596057e+01   4.6414516105e+00    0.1215667   0.09971334  28.57 3.122187e-05    1.002    0.002
       290 -10.9333     41.4621     13.5799   5.9259508310e+01   6.9912429824e+01    0.1226042    0.1055063  11.51 0.0001523292    1.024    0.024
       291 -12.9643    179.8347    244.4673   7.7395813057e+01  -3.2717647828e-01    0.2515238    0.2001093 -25.46 0.0006741944    1.330    0.248
       292 -11.0123     68.2841     12.3361   4.7493482137e+01   6.5102064375e+01    0.1322451   0.08888513  21.78 0.0004449831    1.624    0.384
       293 -10.7908     53.4564     11.5214   5.2721393945e+01   6.8089079792e+01    0.1274159    0.1065573  19.32 4.653294e-05    1.062    0.058
       294 -11.0183    248.2950    242.2895   6.5138375393e+01  -8.1721484962e+00    0.1077268   0.06334767  -3.09 0.0001755092    1.551    0.355
