#   1 NUMBER                 Running object number                                     
#   2 MAG_AUTO               Kron-like elliptical aperture magnitude                    [mag]
#   3 X_IMAGE                Object position along x                                    [pixel]
#   4 Y_IMAGE                Object position along y                                    [pixel]
#   5 X_WORLD                Barycenter position along world x axis                     [deg]
#   6 Y_WORLD                Barycenter position along world y axis                     [deg]
#   7 A_WORLD                Profile RMS along major axis (world units)                 [deg]
#   8 B_WORLD                Profile RMS along minor axis (world units)                 [deg]
#   9 THETA_WORLD            Position angle (CCW/world-x)                               [deg]
#  10 FWHM_WORLD             FWHM assuming a gaussian core                              [deg]
#  11 ELONGATION             A_IMAGE/B_IMAGE                                           
#  12 ELLIPTICITY            1 - B_IMAGE/A_IMAGE                                       
         1 -13.0671    195.4892     32.6759   6.4942405210e+01   3.2444330289e+01     1.213574    0.9274619  67.13  0.006878585    1.195    0.163
         2 -13.9020    209.2074     16.2378   5.9559839365e+01   3.1158116791e+01     1.400085     1.055898  35.29   0.00823507    1.944    0.486
         3 -11.7146      2.6647     15.2165   1.1416176182e+02   7.0644456864e+01    0.4168965     0.207696 -50.79  0.002503743    2.382    0.580
         4 -10.5024      2.2262      2.9727   1.0926272669e+02   7.2318902219e+01    0.1874333    0.1224866 -27.40  0.001427206    1.270    0.213
         5 -10.2586    189.8140     15.3260   6.1523644629e+01   3.5821940228e+01    0.2098447    0.1392878 -89.26 0.0007604744    1.406    0.289
         6 -10.5139    163.3209    249.6400   1.1918121526e+02  -1.4262388689e+00    0.3096783    0.1961438  62.93   0.00152216    2.172    0.540
         7 -11.2637    139.5805    248.8143   1.2388920668e+02   2.7777533898e+00     0.373639    0.2652149 -80.35  0.002041265    1.913    0.477
         8 -11.3186    125.9917    246.4257   1.2633998646e+02   5.5246121231e+00    0.3177487     0.197575  67.35  0.001588571    1.939    0.484
         9 -11.9204    100.5527    248.6229   1.3173106750e+02   9.3024711263e+00    0.5816021    0.3817083 -56.04  0.003320115    1.792    0.442
        10 -11.3303     92.6767    249.4006   1.3336982060e+02   1.0396099890e+01    0.3479953    0.2524531  53.21 0.0004837907    1.133    0.118
        11 -11.4240     89.1382    244.6105   1.3355080331e+02   1.1879184674e+01    0.4176313    0.2314464  77.13  0.001411001    2.281    0.562
        12 -14.0895     36.2689    246.5392   1.4369955620e+02   1.8862354112e+01     11.85876     3.750912  28.49   0.02620045   15.250    0.934
        13 -12.7207     16.3759    241.5544   1.4684488267e+02   2.2157777494e+01     1.948586    0.6248021  68.01  0.007861149    3.865    0.741
        14 -14.0896      9.7587    206.5244   1.4569701706e+02   3.0138550329e+01     2.361655     0.890844 -83.26  0.004887972    2.387    0.581
        15 -14.7176     46.3490    202.6659   1.3789800647e+02   2.6972406719e+01     6.921851     2.212498  61.46    0.0181921    7.181    0.861
        16 -15.2290      9.7692    151.8404   1.4081380725e+02   4.2548922831e+01     5.291956     1.423689 -75.97   0.01891847    3.675    0.728
        17 -12.7333     35.3786    226.0522   1.4228822247e+02   2.3167602200e+01    0.3421733    0.3138359 -86.44 0.0008205305    1.357    0.263
        18 -11.5597     98.7319    236.5038   1.3068813072e+02   1.1979027353e+01    0.3547671    0.2455826  63.68  0.000695966    1.336    0.252
        19 -11.6671     18.7573    229.4184   1.4563373737e+02   2.4357768649e+01    0.3047187    0.2589872 -26.46   0.00210819    2.114    0.527
        20 -11.1067    142.5946    229.9053   1.2053873391e+02   5.7662160639e+00    0.3431533    0.1844094  37.90  0.001583537    1.696    0.410
        21 -10.7305    151.0313    228.9809   1.1859300988e+02   4.4276667786e+00    0.3047992    0.1789436  40.54  0.001473788    1.502    0.334
        22 -10.2650     66.7580    225.6348   1.3603310310e+02   1.9137801633e+01     0.265911    0.1533498  66.35 0.0009035569    1.690    0.408
        23  -9.9316    249.4844    243.5025   1.0145479367e+02  -1.4058150506e+01    0.1220206   0.09442162   3.26 2.381582e-05    1.030    0.029
        24 -10.9593     89.8271    221.0527   1.3066663389e+02   1.6641279079e+01    0.7119979    0.1625606  49.62  0.002041887    4.851    0.794
        25 -10.9003     74.5175    214.8446   1.3320148151e+02   2.0361745695e+01    0.5052134    0.1966253  54.92  0.001979914    2.766    0.638
        26 -12.2329      3.5045    246.7793   1.4929778319e+02   2.2493757126e+01     1.211251    0.4649433 -87.29  0.006558556    2.288    0.563
        27 -13.9145     42.4656    217.2118   1.4013188280e+02   2.4207368002e+01     1.056002    0.7476056  68.85  0.004499009    1.191    0.161
        28 -10.2332     23.4808    213.5978   1.4357869667e+02   2.7198959994e+01    0.2163681    0.1522264  28.53  0.000787281    1.897    0.473
        29 -10.5926    228.1307    204.6936   9.8317615786e+01  -4.9604110995e+00    0.2987362    0.2186766 -50.23 0.0005765453    1.658    0.397
        30  -9.3331     29.1849    240.8599   1.4455552175e+02   2.0845632214e+01    0.1827458    0.1165983  70.36 0.0004909648    1.231    0.188
        31 -11.6153     62.0558    193.4025   1.3335277367e+02   2.7056817953e+01     0.388179    0.2725264 -44.08  0.001766553    1.816    0.449
        32  -9.4527    192.5805    193.8047   1.0334606880e+02   3.4412202990e+00    0.2061701     0.138062 -55.95  0.000948944    1.807    0.447
        33  -8.4979    181.5036    192.4284   1.0545229203e+02   5.8676305945e+00    0.1468517     0.138022  25.46 9.294461e-05    1.010    0.010
        34 -11.7007     67.8379    186.0937   1.3104749202e+02   2.7976659779e+01     0.297339    0.2440706 -52.54 0.0005228572    1.357    0.263
        35 -11.0026     77.6886    174.2257   1.2689907129e+02   2.9388105191e+01    0.2608592    0.2282545 -65.44 0.0003757778    1.129    0.115
        36 -13.1616     64.7154    171.6272   1.2974331722e+02   3.1904068748e+01    0.5443193    0.2867146 -44.96  0.001663268    2.278    0.561
        37 -12.0157     85.0093    165.3883   1.2356966978e+02   3.0406175574e+01    0.9249541    0.5949872  59.54  0.004281322    1.723    0.420
        38 -10.8831     54.8483    238.6073   1.3963857030e+02   1.8070298293e+01    0.4083661    0.2048561  49.83 0.0009441305    1.678    0.404
        39 -12.7519     67.4613    144.3972   1.2451956967e+02   3.8197390301e+01    0.9425953    0.6296191  83.93  0.002824184    1.926    0.481
        40 -11.9867     57.3961    131.7634   1.2501690043e+02   4.2606010163e+01     2.130518    0.7135524 -71.37  0.004756283    8.003    0.875
        41  -9.1267    101.0030    145.9891   1.1557681472e+02   3.2449126108e+01    0.2870215    0.1857223 -32.08  0.001021606    2.012    0.503
        42 -12.0883     86.6327    148.9235   1.2009676163e+02   3.4188988594e+01    0.3073696     0.260102 -40.32 0.0006248015    1.267    0.211
        43 -10.7144     51.6557    233.9040   1.3983313473e+02   1.9466323906e+01    0.4208627    0.2229781 -43.83  0.001875164    3.651    0.726
        44  -9.5824    109.7254    135.4971   1.1087395252e+02   3.3364396225e+01     0.339163    0.2438593 -11.51  0.001332914    2.110    0.526
        45 -10.5083     96.9087    132.7013   1.1381714102e+02   3.6390265661e+01    0.2829243    0.2348176 -23.14 0.0006501792    1.399    0.285
        46  -9.1775    106.7278    122.9590   1.0873950914e+02   3.6890927641e+01    0.2032261    0.1884917 -49.40 0.0002797262    1.051    0.049
        47 -10.2060     53.1597    228.5480   1.3905248232e+02   2.0391349969e+01    0.2583407    0.1702255  82.56  0.001525646    1.363    0.266
        48 -10.4929    167.9848    112.9509   9.0449240259e+01   2.5719474378e+01    0.3787437    0.2915594 -82.37 0.0009033565    1.627    0.385
        49  -9.3492    204.3768    111.0567   8.2532703281e+01   1.7569332000e+01    0.3341676    0.1821395  36.84  0.001277446    2.474    0.596
        50  -9.7993     98.0513    150.0030   1.1720916194e+02   3.1993990220e+01    0.3032164    0.2367588 -51.87 0.0007374594    1.252    0.201
        51 -11.6380    242.3748     95.3960   7.2789995000e+01   1.2061401862e+01    0.3707787    0.2867056  85.91  0.002056906    1.400    0.286
        52  -8.7269    158.3227     77.6706   8.3185250021e+01   3.4831917426e+01     0.156822    0.1169384 -79.58  0.000471722    1.695    0.410
        53 -11.3061     22.3103    235.9476   1.4544136978e+02   2.2627664002e+01    0.2921961    0.1926562  68.68  0.001961257    1.179    0.151
        54  -9.6290    245.3387    249.6709   1.0326320930e+02  -1.4307623317e+01    0.1023524   0.09540087  50.64 0.0007051831    1.735    0.424
        55 -10.4342    191.0041    249.3180   1.1357101672e+02  -6.0210102552e+00    0.1938135    0.1512086  29.78  0.001187067    1.076    0.071
        56 -11.3850    133.9669    247.7352   1.2488680763e+02   3.9296592163e+00    0.3955033    0.2372915  67.10  0.001883819    2.213    0.548
        57 -12.0105    107.8982    245.8404   1.2993833572e+02   8.6487157291e+00    0.4831206     0.317524  67.57  0.002100957    1.570    0.363
