#   1 NUMBER                 Running object number                                     
#   2 MAG_AUTO               Kron-like elliptical aperture magnitude                    [mag]
#   3 X_IMAGE                Object position along x                                    [pixel]
#   4 Y_IMAGE                Object position along y                                    [pixel]
#   5 X_WORLD                Barycenter position along world x axis                     [deg]
#   6 Y_WORLD                Barycenter position along world y axis                     [deg]
#   7 A_WORLD                Profile RMS along major axis (world units)                 [deg]
#   8 B_WORLD                Profile RMS along minor axis (world units)                 [deg]
#   9 THETA_WORLD            Position angle (CCW/world-x)                               [deg]
#  10 FWHM_WORLD             FWHM assuming a gaussian core                              [deg]
#  11 ELONGATION             A_IMAGE/B_IMAGE                                           
#  12 ELLIPTICITY            1 - B_IMAGE/A_IMAGE                                       
         1 -14.4034    132.2891    103.6412   2.5514244629e+01   3.5099985567e+01     1.964857     1.037164 -64.58   0.00651687    3.213    0.689
         2 -14.6037      5.4996     61.7244   6.6867227173e+01   6.6361317123e+01     1.543344    0.4551742 -74.14  0.005349675    3.258    0.693
         3 -13.7682    196.1993     20.4243   3.5264360043e+02   3.3586407453e+01    0.7446268    0.2706964 -39.24  0.003440773    2.165    0.538
         4 -13.2918     53.6510     26.3274   2.3712703173e+01   6.7756292763e+01    0.6490338    0.4197742  53.74  0.003207532    1.555    0.357
         5 -12.8256     11.3462     11.7660   4.4070067713e+01   7.7247465276e+01    0.4182155    0.3206243 -49.46  0.002568968    1.426    0.299
         6 -13.9840    135.7987      8.9456   3.5492153430e+02   4.9298826459e+01    0.6375949    0.3412108 -50.86  0.003066668    1.810    0.447
         7 -11.6959     43.9866      3.4932   1.4400225318e+01   7.2848914905e+01    0.2031469    0.1766321  -7.63  0.001271294    1.231    0.188
         8 -11.8514      9.3940    232.1961   7.8324457176e+01   2.2962706615e+01    0.2708268    0.1635925  71.14  0.001347429    1.535    0.348
         9 -14.4775    165.3037    242.8001   4.4225142258e+01   3.3293338533e+00    0.7785153    0.4880396 -51.27  0.004460258    2.220    0.549
        10 -14.0135     61.5212    244.6209   6.6968179796e+01   1.5333878068e+01    0.8920285    0.5977842 -86.43  0.005500935    1.856    0.461
        11 -12.3882     37.6351    249.7858   7.2660323483e+01   1.6902783127e+01    0.4220747    0.2014406  46.19  0.001975812    1.606    0.377
        12 -14.2316     36.9288    236.2908   7.2129448523e+01   1.9547223550e+01     1.079642     0.527071 -89.58  0.004838094    2.447    0.591
        13 -13.8435     21.1287    247.8529   7.6223230334e+01   1.8859748953e+01    0.6683379     0.385652  26.55  0.002986237    1.483    0.325
        14 -14.8458      5.9147    244.8513   7.9452841837e+01   2.0784909324e+01    0.7336959    0.5692528  47.40  0.003687471    1.062    0.058
        15 -12.1778    125.8853    234.1732   5.1346656195e+01   9.4525979724e+00    0.3489357    0.1235796  37.14  0.001525432    2.376    0.579
        16 -13.5559     73.5964    229.2456   6.2925427911e+01   1.6867633549e+01    0.6562489    0.4823236  50.20  0.003406312    1.266    0.210
        17 -13.3413     54.0903    225.5119   6.7349374095e+01   1.9878619019e+01    0.8142672    0.4827203  78.40  0.004319134    2.018    0.504
        18 -13.0641    126.0135    226.3691   5.0354941182e+01   1.0774065295e+01    0.6596144    0.2290136  39.02  0.002752866    2.579    0.612
        19 -12.7578      7.2968    202.7763   7.7850011399e+01   2.9441037463e+01    0.5081326    0.2422503  75.83  0.002504066    2.020    0.505
        20 -13.7630     20.2755    222.2430   7.5398605768e+01   2.4038051392e+01     1.249911    0.3856971  52.06  0.004597933    2.632    0.620
        21 -12.5321     11.3023    210.9761   7.7141996905e+01   2.7270955165e+01    0.3982165    0.2535873  69.28  0.002329525    1.418    0.295
        22 -12.2108      1.6971    212.1349   7.9551862644e+01   2.7811869345e+01    0.4537228    0.1714358  71.16  0.002062756    2.514    0.602
        23 -13.1092      2.7160    222.7110   7.9598054225e+01   2.5471876973e+01     0.456422    0.2813953  75.06  0.001901633    1.502    0.334
        24 -12.2632      2.3942    218.2083   7.9552118577e+01   2.6447786097e+01    0.2780921    0.1938049  67.58  0.001156503    1.250    0.200
        25 -12.8902     30.0227    218.1920   7.2813485256e+01   2.3963938172e+01    0.5455948    0.3277771  44.74    0.0030825    1.324    0.245
        26 -12.8721     33.1498    210.9586   7.1608875572e+01   2.5224271497e+01    0.5822738     0.327387  82.61   0.00275663    1.926    0.481
        27 -14.1905    133.6310    211.6640   4.6662050710e+01   1.2373779273e+01    0.6992944    0.5929018 -89.17  0.004225407    1.722    0.419
        28 -13.6604    136.3112    205.0991   4.5097134719e+01   1.3201841539e+01    0.6379985    0.4619572  36.23   0.00352711    1.303    0.233
        29 -11.4390     40.0081    217.5137   7.0281831593e+01   2.3087750750e+01    0.2499762    0.1545538  66.69    0.0013648    1.617    0.382
        30 -12.5752     18.7039    211.2461   7.5296932904e+01   2.6554590609e+01    0.4844291    0.1872485  48.08    0.0022437    2.030    0.507
        31 -13.0864    113.1177    204.7250   5.0525375095e+01   1.6567296992e+01    0.3636837    0.3115578 -81.83  0.002161912    1.484    0.326
        32 -13.6858     81.7556    200.9616   5.8002630949e+01   2.1694235635e+01    0.6244876    0.4210592  65.23  0.003171614    1.741    0.426
        33 -14.5630     69.2244    193.2624   6.0487069332e+01   2.5072590584e+01     1.097361    0.7441254  76.84  0.003639218    1.742    0.426
        34 -12.4709    105.5345    199.9454   5.1752072901e+01   1.8615923344e+01    0.5172057     0.265996  41.79  0.002359915    1.800    0.444
        35 -13.7471     58.9449    177.7191   6.1656499394e+01   3.0095684917e+01     1.449242    0.6633655  89.55  0.005062645    3.441    0.709
        36 -12.7311     15.0999    195.2005   7.5484092359e+01   3.0528110253e+01    0.5687692    0.2342251  62.39  0.002482668    2.315    0.568
        37 -13.5149      9.4279    187.2047   7.6658839975e+01   3.2902767633e+01    0.9108731    0.3704385 -89.53  0.003631136    2.474    0.596
        38 -12.9753      3.3479    175.0112   7.7854446731e+01   3.6346714795e+01    0.8610942    0.2756293  87.46  0.003188127    3.200    0.688
        39 -12.8382     46.7133    195.8586   6.6921030813e+01   2.7204183240e+01    0.5917417    0.2766891  50.68  0.002494272    1.983    0.496
        40 -14.7033     35.2688    183.8282   6.9151545378e+01   3.1329318169e+01     1.626838    0.7083666  65.02   0.00641023    2.656    0.623
        41 -13.8845    137.6514    181.6612   4.1038766599e+01   1.7510575523e+01     1.068508    0.7735544 -75.29  0.005246952    2.117    0.528
        42 -12.1974      1.5339    187.1992   7.8819506663e+01   3.3516609931e+01    0.3435608    0.1458404 -86.41  0.001287148    2.279    0.561
        43 -14.0995    246.6471    177.7352   2.0064442777e+01   2.9208568695e+00    0.6826782    0.2728502 -38.05  0.003678247    2.101    0.524
        44 -11.9549     18.2090    181.4188   7.3893552928e+01   3.3566295934e+01    0.3538352    0.1948319  46.21   0.00136452    1.544    0.352
        45 -13.1390     17.6986    173.5515   7.3571337068e+01   3.5569968925e+01     0.714256    0.3583373 -84.15  0.002570033    1.971    0.493
        46 -14.3161    122.1242    172.5866   4.3284530346e+01   2.1889937816e+01     1.062188     0.995676  33.78  0.006160385    1.064    0.060
        47 -12.6529    109.0590    170.1831   4.6297235071e+01   2.4551233551e+01    0.5548394    0.4153087  -2.52  0.002691255    1.655    0.396
        48 -13.9185     91.7242    161.6559   4.9717593027e+01   2.9344433192e+01     1.081794    0.6816192  61.02  0.004629415    1.966    0.491
        49 -12.2902     33.4821    167.5021   6.8316898269e+01   3.5617419543e+01    0.2848107    0.2330769  71.48  0.001342228    1.143    0.125
        50 -14.1139     24.9768    159.1359   7.0283726072e+01   3.8628287625e+01     1.183209    0.5925422 -87.90  0.005093105    2.060    0.515
        51 -13.1945     40.9338    162.4653   6.5490396105e+01   3.6122821408e+01    0.7147937      0.25569  42.96  0.002641842    2.466    0.594
        52 -12.2770     15.4597    163.0907   7.3592458744e+01   3.8431504620e+01     0.396609    0.2462463  47.58  0.001351365    1.434    0.303
        53 -12.6946     72.1806    159.4157   5.5245243882e+01   3.2884939639e+01     0.671146    0.4484152  17.00  0.003044967    1.685    0.407
        54 -13.1720     10.2406    154.3850   7.4702016618e+01   4.1112917693e+01    0.9627768    0.3844979 -85.89  0.003842187    2.445    0.591
        55 -12.1580     63.5336    157.5903   5.7690139889e+01   3.4574769129e+01    0.3975238    0.3132324 -60.43  0.001384909    1.323    0.244
        56 -12.9556     49.9273    149.8228   6.1058960125e+01   3.8396851535e+01     1.558113    0.8035088  61.10  0.006054983    2.310    0.567
        57 -14.3796     29.3570    102.8110   6.1915453943e+01   5.3582906097e+01     1.577591    0.7184777 -70.13  0.006153336    2.100    0.524
        58 -14.7405     42.8208    129.7853   6.0748785588e+01   4.4683057457e+01     2.037364     1.038039  82.72  0.007329191    2.740    0.635
        59 -14.1367     30.3893    117.5065   6.3767543924e+01   4.9425704978e+01     1.442581    0.7015197 -54.57  0.005903678    1.986    0.497
        60 -12.7728    101.4875    151.4960   4.5063155305e+01   3.0182234069e+01    0.3599313    0.2236992  67.49   0.00139983    2.414    0.586
        61 -13.4262     78.7873    146.5749   5.1073755905e+01   3.5163738783e+01    0.7559511    0.5688031 -49.05  0.003230035    1.406    0.289
        62 -15.0400    242.1549    137.6049   1.3449226160e+01   9.0169935683e+00     1.051104    0.6271366 -26.09  0.006355758    1.468    0.319
        63 -13.9667     11.5073    139.3176   7.3249172439e+01   4.5038612430e+01    0.8985986    0.5233008  78.85  0.002775589    1.678    0.404
        64 -13.1126      2.5183    135.1641   7.6152656740e+01   4.6748994273e+01     1.037615    0.3365234 -87.68  0.003666293    3.019    0.669
        65 -13.4272     58.7413    134.8009   5.5769456566e+01   4.1259152622e+01     0.912479        0.638  58.33  0.004199779    1.505    0.336
        66 -11.7755    105.6839    122.8222   3.7741537581e+01   3.6330917890e+01    0.3133601     0.247057 -20.55  0.001443548    1.570    0.363
        67 -11.7242     11.6599    119.8209   7.1552899204e+01   5.0351573703e+01    0.3428575    0.2038025  82.66  0.001583249    1.679    0.404
        68 -12.3260     11.7221    113.3843   7.0895127798e+01   5.2119376975e+01    0.4212594    0.2469387  32.20  0.001529518    1.702    0.412
        69 -14.1151     96.7929    240.1644   5.8529505641e+01   1.2028148586e+01    0.9434518    0.6078155  70.86  0.005127857    2.316    0.568
        70 -11.9831     59.6679    111.7664   5.1039232792e+01   4.7318347712e+01    0.2838099    0.2335538  37.95  0.001400441    1.200    0.167
        71 -12.9514    227.6313    106.5721   9.1476807376e+00   1.5730029234e+01    0.3026043    0.2060124 -43.79  0.001842162    1.245    0.197
        72 -12.9574      7.2662    102.8504   7.1707822634e+01   5.5290255194e+01    0.8668449    0.4205419 -85.32  0.003676504    2.006    0.502
        73 -14.0920    244.9038    105.4035   6.8820914681e+00   1.3179278969e+01    0.4249912    0.2453916 -45.51  0.002545503    1.476    0.322
        74 -13.2486     65.7583     99.5703   4.5793043154e+01   4.9555205896e+01    0.8662574    0.5230132  59.88  0.003402264    2.125    0.530
        75 -12.2079     16.4958    100.8193   6.7350270513e+01   5.5244565847e+01    0.4793248    0.2187793 -60.46  0.001987675    1.952    0.488
        76 -12.8090     10.1752     89.5938   6.8779774078e+01   5.8736536417e+01    0.5747287    0.3730251  27.41   0.00260163    1.602    0.376
        77 -14.1253      5.8570     82.5358   6.9980008955e+01   6.0880837397e+01      1.42416     0.463896  27.25  0.005350566    2.944    0.660
        78 -12.9011     78.5540    109.2096   4.3369760898e+01   4.4847242042e+01    0.7026289    0.3265957 -60.18  0.002512439    2.319    0.569
        79 -12.0888     38.8028     72.6571   5.0659351783e+01   6.0513859522e+01    0.3808671    0.2177358 -68.92  0.001611326    1.950    0.487
        80 -14.1524     70.5951     70.1745   3.5052264380e+01   5.5823565260e+01    0.7461884    0.4717035 -58.78  0.003213875    1.777    0.437
        81 -11.4975     44.6733     72.8786   4.7758647889e+01   5.9650307480e+01    0.2699977    0.2093765  13.75  0.001337156    1.392    0.282
        82 -13.5859     12.9312     68.4459   6.3783091524e+01   6.4185818938e+01    0.8986158    0.7036325  76.31  0.004882586    1.431    0.301
        83 -12.8109    145.2723    242.6035   4.8238677144e+01   5.7161350037e+00    0.3431982    0.2185924 -11.66  0.002014074    1.784    0.439
        84 -12.7144     31.5153     65.8356   5.2570631342e+01   6.3126198622e+01    0.4197458    0.3303001  21.33  0.002215817    1.290    0.225
        85 -12.8347     55.9504     61.1132   3.8289258462e+01   6.0611798508e+01    0.4197976    0.3391708  53.50  0.002136949    1.328    0.247
        86 -13.4882     30.1786     55.3617   5.0039386765e+01   6.5831604411e+01    0.4613044    0.3176802 -81.99  0.002186457    1.923    0.480
        87 -13.5547     89.2907     50.2186   2.0570531200e+01   5.5747498703e+01     1.040707    0.6719713 -89.70  0.004030372    2.634    0.620
        88 -14.0603     65.4774     50.3555   2.9676364084e+01   6.1040651239e+01    0.6296206    0.4977801 -55.18   0.00305531    1.396    0.284
        89 -13.1324    135.0045     47.8460   8.1496784562e+00   4.4719857401e+01    0.3646964    0.2111766  64.30  0.001632597    1.661    0.398
        90 -12.8808     33.8399     44.6741   4.3791484197e+01   6.7785668896e+01    0.4300403      0.30572 -89.25  0.001991707    2.279    0.561
        91 -13.1673      8.0070     36.3732   5.8678142502e+01   7.2400402189e+01    0.4728878    0.2201672 -39.02  0.002147097    2.035    0.509
        92 -13.7036    241.1630     33.5953   3.5256690979e+02   2.3151934435e+01    0.5127621     0.236239 -64.15  0.002777247    2.152    0.535
        93 -12.8034    216.8662     31.4017   3.5372125211e+02   2.7999870602e+01     0.303164    0.1604096 -64.48  0.001643342    1.780    0.438
        94 -13.8890    248.2927     28.6530   3.5114870217e+02   2.2461852915e+01    0.3880444     0.211483 -61.55  0.002455164    1.572    0.364
        95 -12.4808    121.4217    242.0343   5.3240914568e+01   8.6991411739e+00     0.384645    0.2353749  39.41   0.00224651    1.499    0.333
        96 -12.4172     21.5970     21.6958   4.1167265814e+01   7.4135891521e+01    0.4530807    0.2398988  26.36  0.002190494    1.842    0.457
        97 -13.2390    203.9426    240.3412   3.6731781510e+01  -5.9191160757e-01    0.3106004     0.147172 -34.04  0.001863298    2.034    0.508
        98 -12.5777     22.3439    239.1877   7.5620081125e+01   2.0404962723e+01    0.4852846    0.1785771  45.85  0.002421764    1.961    0.490
        99 -12.6744     15.3161    234.7178   7.7053146015e+01   2.1934014519e+01    0.6759266    0.1260055  31.93  0.002723767    2.968    0.663
