#   1 NUMBER                 Running object number                                     
#   2 MAG_AUTO               Kron-like elliptical aperture magnitude                    [mag]
#   3 X_IMAGE                Object position along x                                    [pixel]
#   4 Y_IMAGE                Object position along y                                    [pixel]
#   5 X_WORLD                Barycenter position along world x axis                     [deg]
#   6 Y_WORLD                Barycenter position along world y axis                     [deg]
#   7 A_WORLD                Profile RMS along major axis (world units)                 [deg]
#   8 B_WORLD                Profile RMS along minor axis (world units)                 [deg]
#   9 THETA_WORLD            Position angle (CCW/world-x)                               [deg]
#  10 FWHM_WORLD             FWHM assuming a gaussian core                              [deg]
#  11 ELONGATION             A_IMAGE/B_IMAGE                                           
#  12 ELLIPTICITY            1 - B_IMAGE/A_IMAGE                                       
         1 -11.9861     76.9418     21.6182   7.9062757667e+01   6.1626281450e+01    0.5102337    0.4503196 -41.36  0.002783377    1.393    0.282
         2 -11.8012     40.4507     21.1293   9.3348060953e+01   6.7400075565e+01    0.8518855    0.3409506 -26.93  0.003435254    3.161    0.684
         3 -10.2600     10.0347      1.9521   9.9580504503e+01   7.3588326812e+01     0.368204    0.1854654 -21.23  0.002107554    1.932    0.483
         4 -10.9440     14.4499     16.0450   1.0384134730e+02   7.0931491447e+01    0.3303131    0.2122093  22.68  0.001626173    1.763    0.433
         5 -11.2860      4.1898      9.9939   1.0681671403e+02   7.2724710288e+01    0.2886427    0.2074266  -1.66  0.000340245    1.397    0.284
         6 -10.5117      2.2587      6.5727   1.0639882360e+02   7.3430404940e+01    0.3010786    0.1441489  -1.17  0.001667181    2.545    0.607
         7 -10.8467     14.9112      8.8378   1.0028595916e+02   7.2088560940e+01    0.2996537    0.2115928 -16.43 0.0008682614    1.176    0.150
         8 -10.7561     11.2163      6.7929   1.0134669241e+02   7.2731171355e+01    0.2567503    0.2355606 -82.90  0.001897884    1.946    0.486
         9 -11.5005    190.8199     14.5245   5.2556163860e+01   3.5463724838e+01    0.4478649    0.2018445 -44.51  0.001895322    2.236    0.553
        10 -10.4457     28.5396      1.3436   8.9101674654e+01   7.1765394722e+01     0.201187    0.1032286  33.96 0.0006151561    2.056    0.514
        11 -11.7094     40.3095      9.2182   8.7620804377e+01   6.9191327047e+01    0.4588323    0.2251657 -24.36  0.002364695    1.949    0.487
        12 -12.1415     35.1350     12.7186   9.1819220241e+01   6.9356214783e+01    0.3514062    0.2530211 -35.51  0.001309784    1.349    0.259
        13 -11.9868     30.1529      7.1228   9.1405450622e+01   7.0773618658e+01    0.3759435    0.3089074   5.66  0.002532242    1.201    0.167
        14 -10.9087     90.3600      2.4494   6.6144289797e+01   6.1094620707e+01    0.3776409    0.2160706  60.61  0.001112157    1.840    0.456
        15 -11.5307     88.6466     13.7074   7.1755385971e+01   6.0311542906e+01     0.447605     0.403162  80.45  0.001696143    1.489    0.328
        16 -10.7964     92.9819      8.6973   6.8266375810e+01   5.9939605661e+01      0.38604    0.2286705  -6.21   0.00188221    1.841    0.457
        17 -10.1136    174.6686     14.4330   5.4570325509e+01   3.9580184451e+01     0.262875    0.1936464 -82.37   0.00107784    1.460    0.315
        18 -10.9404    155.4115     14.3833   5.7375310211e+01   4.4505547449e+01    0.3794212    0.2403289  40.51  0.001743503    1.623    0.384
        19 -10.7935    162.4451     13.1982   5.5905707730e+01   4.2829959667e+01    0.2511092    0.2220853  61.94 0.0001729997    1.052    0.049
        20  -9.8178    203.0029     11.9633   5.0482297351e+01   3.2680608748e+01    0.1608925    0.1463234 -82.81 0.0003553568    1.007    0.007
        21 -10.0939    119.1001     12.1265   6.3316470437e+01   5.3708743895e+01    0.2072221     0.164453  33.24 0.0003039864    1.176    0.150
        22 -11.4323     55.4953      7.4539   8.0177856523e+01   6.7158887584e+01    0.3477761    0.3257226 -15.86  0.001573822    1.371    0.271
        23 -11.5107     57.6277      2.4149   7.6714575864e+01   6.7385688528e+01    0.3948063    0.2629155   1.81 0.0001211573    1.417    0.294
        24 -10.9052     22.5902      9.5861   9.6537866870e+01   7.1241182732e+01    0.2944946    0.2023389   6.96  0.001386844    1.421    0.296
        25 -11.3672    150.8613      7.2576   5.5677063201e+01   4.6340838063e+01    0.3789136     0.273777 -20.47 0.0009416122    1.498    0.332
        26 -10.7024    210.5996      7.6580   4.8577224076e+01   3.1250810180e+01    0.1970311    0.1485281  37.75  0.001096292    1.599    0.374
        27 -10.8371    145.0745      6.1498   5.6205236208e+01   4.7899851568e+01    0.2299372    0.1981682 -27.81 0.0003558851    1.254    0.203
        28 -10.9383     71.0740      6.2373   7.3810680423e+01   6.4577787423e+01    0.3257973    0.2840073  17.48  0.002142403    1.103    0.093
        29  -9.7677     64.6905      6.9734   7.6423288494e+01   6.5655950597e+01    0.1784715    0.1395549 -10.77 0.0005227618    1.157    0.136
        30 -10.0927    235.5058      4.5198   4.5690466345e+01   2.5696365205e+01    0.1260665    0.1093566 -68.16 1.941304e-05    1.014    0.013
        31 -11.1644    194.6547      3.8116   4.9102407177e+01   3.5551689888e+01    0.1951191    0.1647754  70.44   0.00116397    1.122    0.109
        32 -10.9584    160.6394      2.3276   5.2631848283e+01   4.4290907853e+01    0.3086169    0.2315426  -7.00  0.001695599    1.527    0.345
        33 -11.2479    130.4405      3.7738   5.7834481487e+01   5.1741112039e+01    0.2788844    0.2128892  63.87  0.001265291    1.229    0.186
        34  -9.7427    199.3172      3.6497   4.8591202995e+01   3.4407763191e+01    0.1455655   0.08717377 -60.34 0.0007047546    1.734    0.423
        35 -10.3312    172.9665      3.0259   5.1283508359e+01   4.1095113351e+01      0.25787    0.1752639  80.40 0.0007840751    1.416    0.294
        36  -9.7915    176.7625      2.5905   5.0700605871e+01   4.0169290584e+01    0.2190441    0.1741608 -18.00  0.001247806    1.401    0.286
        37 -10.4890     20.1185      2.3640   9.4109522350e+01   7.2573461327e+01    0.2268399     0.163231  -9.90 0.0008148761    1.129    0.115
        38  -9.8196      2.3198      2.9130   1.0463762900e+02   7.4029072982e+01    0.1800617     0.127414  -0.26 0.0008824973    1.386    0.279
        39  -9.7363    100.1239      1.8190   6.3370823110e+01   5.9025458282e+01    0.1889914    0.1792258 -61.50 0.0005773682    1.314    0.239
        40 -11.6355     80.2138      1.7298   6.8686338221e+01   6.3258340484e+01    0.3417088    0.1671963  52.33 0.0009785964    1.920    0.479
        41  -9.7333     67.0804      1.6063   7.2849392153e+01   6.5799418579e+01    0.1725593    0.1349705  27.60 0.0004355741    1.126    0.112
        42  -9.9967     50.1366      2.0776   7.9525070127e+01   6.8650488790e+01     0.290791    0.1324938  28.49  0.001382931    2.377    0.579
        43  -9.8596     16.5363      3.4921   9.6685498730e+01   7.2766874547e+01     0.239341    0.1691739 -64.37  0.001323982    3.132    0.681
        44 -10.1244    203.9498      1.4933   4.7569369015e+01   3.3466462985e+01    0.1962771    0.1190797  74.12  0.000452856    1.527    0.345
        45  -9.2923    187.0121      1.1670   4.9147769854e+01   3.7705597045e+01    0.1780449   0.09053485  72.60 0.0003561888    1.803    0.445
        46 -10.2533    120.9862      4.0886   5.9745479578e+01   5.4004519147e+01    0.2023277    0.1756953  37.90 0.0004003388    1.036    0.035
        47 -11.6166     23.4504    121.3276   1.2554064147e+02   4.7688973391e+01    0.5260969    0.2621198  82.49 0.0006761177    2.490    0.598
        48 -10.4326     11.8263    249.9961   1.3720986886e+02   2.2679454724e+01    0.1356794   0.09494912 -62.48  0.001076286    2.008    0.502
        49 -12.3480      6.0695    241.4221   1.3776100284e+02   2.4651604354e+01    0.3821982    0.2635363 -82.49  0.003172556    1.450    0.310
        50 -11.5639      1.5941    248.5692   1.3870466879e+02   2.3881112409e+01    0.6455019    0.2123652 -82.85  0.003865116    2.724    0.633
        51 -12.5569     11.0262    244.4740   1.3711210603e+02   2.3668967737e+01    0.4860011    0.3591908  -2.61  0.003215537    3.596    0.722
        52 -12.0369      4.1538    232.5551   1.3771512086e+02   2.6345900634e+01    0.3573606    0.1525412  67.77  0.000298165    1.831    0.454
        53 -13.2698      9.8669    228.6612   1.3662763932e+02   2.6497795567e+01    0.6728727    0.3628837  71.16   0.00450065    1.412    0.292
        54 -11.0213     20.2449    112.8864   1.2533394833e+02   4.9900409991e+01    0.2478717    0.1877847  52.88 0.0005622541    1.468    0.319
        55  -9.1569    119.3073    115.3531   9.7522498490e+01   3.5780061572e+01    0.1546634    0.1188274 -12.09   0.00070426    1.716    0.417
        56 -10.4538     72.2168    112.9862   1.1017385334e+02   4.4280896890e+01    0.2008379    0.1952789  72.49 0.0003392203    1.106    0.096
        57 -10.7475     65.2705    110.8176   1.1176865017e+02   4.5733524994e+01    0.3910407    0.1462235 -58.13  0.001221619    2.359    0.576
        58 -10.5494      5.8285    113.3431   1.2943564329e+02   5.0795489131e+01    0.1421027    0.1164771  31.85 0.0003496168    1.520    0.342
        59 -11.2497      4.0512    109.4742   1.2950093737e+02   5.1784677760e+01    0.3023012    0.2062919  65.51  0.001417711    1.557    0.358
        60 -10.0709    249.2364    112.0057   6.9992951805e+01   8.4283270367e+00     0.189118    0.1030711 -31.68 0.0008817011    1.625    0.384
        61 -10.3566     57.6035    107.9495   1.1347960563e+02   4.7377649179e+01    0.2434645    0.1908325  -4.04  0.001137835    1.680    0.405
        62 -10.4670     52.0174    107.7484   1.1512526533e+02   4.8084708935e+01     0.186646    0.1703719 -67.05  0.001177551    1.053    0.051
        63 -10.1711     12.0820    108.5069   1.2710243833e+02   5.1498800144e+01    0.1498085    0.1204271  26.96 0.0005855731    1.556    0.357
        64  -9.4539     40.0000    105.9499   1.1843282193e+02   4.9789092878e+01    0.2232364   0.06346885 -64.21 0.0005873091    2.970    0.663
        65 -10.9487     88.4371    102.5119   1.0299026741e+02   4.4234382796e+01    0.4755507    0.2377755 -65.72  0.001070848    2.766    0.638
        66  -9.2770    187.1360    103.3692   7.8513509249e+01   2.3296826532e+01    0.2042878    0.1466004  63.91 0.0006946999    1.623    0.384
        67  -9.9263    113.5122    102.5196   9.5802628038e+01   3.9724730319e+01    0.1493316    0.1438698 -38.37  0.000206271    1.008    0.008
        68 -10.6742     57.4580    101.8120   1.1226032327e+02   4.8830779376e+01     0.239226    0.1952879  33.73  0.001404587    1.388    0.280
        69 -10.2484     24.8548    101.8783   1.2236699320e+02   5.2094018650e+01    0.1837684    0.1423126 -58.22 0.0002801201    1.126    0.112
        70  -9.9999     62.3330     99.0101   1.1012884723e+02   4.8869926865e+01    0.1959474    0.1619448 -59.93  0.001131653    1.085    0.078
        71  -9.5351    101.0782     95.9470   9.7563319453e+01   4.3510668016e+01    0.3234601    0.2021099 -74.69  0.001239427    2.722    0.633
        72  -9.7402     36.6070     96.1763   1.1769703365e+02   5.2396762381e+01    0.1975541    0.0938578 -54.49 0.0009518402    1.725    0.420
        73 -10.1610      3.0607     95.3021   1.2808924026e+02   5.5063920827e+01    0.2063153     0.136407 -72.33 0.0006632126    1.167    0.143
        74 -11.2111     18.4700     94.9719   1.2325365830e+02   5.4173873648e+01    0.3008446    0.1691857  30.98  0.001701867    2.103    0.525
        75  -9.2267     84.2998     94.3326   1.0215609663e+02   4.6754435927e+01    0.1468716    0.1074487 -22.93  0.000703252    1.650    0.394
        76  -9.2927     78.7949     94.6219   1.0393087545e+02   4.7553705115e+01    0.1753426    0.1329716  48.15 0.0001185801    1.474    0.322
        77 -10.8151     10.9641     90.5183   1.2494607765e+02   5.5694093325e+01    0.5290142    0.1535795 -63.43  0.002320651    2.385    0.581
        78 -10.0227     10.8121     84.8535   1.2410474318e+02   5.6991314792e+01    0.2302277    0.1395523 -77.98 0.0006561165    1.484    0.326
        79 -10.5703     57.9644     91.8211   1.0987069653e+02   5.1079776665e+01    0.2517268     0.200744 -28.89 0.0009125686    1.352    0.260
        80 -10.1401     29.1993     92.3426   1.1936504653e+02   5.3945498961e+01    0.2406575    0.1953344  23.48  0.001087895    1.494    0.331
        81 -10.1484     25.2294     90.0029   1.2023257791e+02   5.4808751528e+01    0.2534811    0.1974031  72.76  0.001435033    1.485    0.327
        82 -10.6083    107.8600     89.0967   9.3677300900e+01   4.3712102101e+01      0.24552    0.2355344 -45.37 0.0003675754    1.044    0.042
        83 -10.6659     76.5462     89.2895   1.0325208723e+02   4.9095741656e+01    0.2623556    0.2418858  11.04  0.000730292    1.184    0.156
        84 -10.7801     18.4442     87.2202   1.2197366416e+02   5.5953017744e+01    0.3538497    0.1919749 -54.82  0.001973893    1.476    0.322
        85  -9.2226    124.4802     87.0079   8.8436308968e+01   4.0756940700e+01    0.2120041    0.1326274 -17.39 0.0006479005    2.365    0.577
        86 -11.4727     54.8953     84.9626   1.0923574991e+02   5.3017160668e+01    0.3252487    0.2417137 -75.57  0.001045769    1.511    0.338
        87  -9.6792     72.5052     84.3795   1.0323685089e+02   5.0791782780e+01    0.3026419    0.1713673 -30.40  0.001292736    2.227    0.551
        88  -9.5364     42.8375     82.7035   1.1279668347e+02   5.4878420620e+01    0.3445702   0.09044925 -61.72  0.001130687    3.699    0.730
        89 -10.8585      3.6381     82.0897   1.2605411577e+02   5.8018950872e+01    0.4067735    0.2017423 -75.37  0.001719606    1.704    0.413
        90  -9.8449    100.2554     82.9951   9.4121799424e+01   4.6448162782e+01    0.2098017    0.1868596 -40.28 0.0005815843    1.065    0.061
        91 -11.1032     64.3280     79.7253   1.0468618773e+02   5.2977786817e+01    0.4898029    0.2381995 -55.46  0.001993871    1.920    0.479
        92  -9.7481    250.2712     81.0238   6.2552936676e+01   1.2805772124e+01     0.179741    0.1078258 -31.61  0.000554072    1.481    0.325
        93 -10.1390     89.7420     79.8790   9.6416614786e+01   4.9002312056e+01    0.4577368    0.2323676 -33.05  0.001799774    2.332    0.571
        94  -9.7101     85.2017     78.4467   9.7427768073e+01   5.0081420369e+01    0.2259926    0.1577084 -50.20 0.0008355221    1.372    0.271
        95 -10.2701    177.0147     76.9840   7.3207102991e+01   3.0359751875e+01    0.2372366    0.2352789 -23.14  0.000806523    1.013    0.013
        96  -9.7852     28.1127     77.0241   1.1666712423e+02   5.7529200615e+01    0.1812872    0.1498903 -58.41 0.0003320818    1.035    0.034
        97 -10.9080     56.0843     75.3798   1.0633699066e+02   5.5007755751e+01    0.4119058    0.2682829  20.78   0.00149011    1.833    0.454
        98 -10.4230     15.8740     75.6463   1.2073238676e+02   5.8747584632e+01    0.2175685     0.175115  -5.87  0.001468244    1.507    0.337
        99 -11.7452      6.8225     75.0390   1.2381810334e+02   5.9428780597e+01    0.3092881    0.1591658 -58.59   0.00163851    1.450    0.310
       100  -9.2462     74.6146     75.5276   1.0002231769e+02   5.2402444108e+01     0.140632    0.1232374 -38.30 1.927027e-05    1.027    0.027
       101  -9.6097     37.4587     75.4857   1.1297901267e+02   5.7038477820e+01     0.217822    0.1695615 -52.63  0.001101775    1.066    0.062
       102 -10.9016     32.0700     73.0443   1.1434201337e+02   5.8080342282e+01    0.1862178    0.1561029 -53.88            0    1.031    0.030
       103 -10.9734     35.9939     71.9721   1.1265169564e+02   5.7958770434e+01    0.3875968    0.2227171 -25.77 0.0009538569    2.164    0.538
       104  -9.5111    136.6083     74.2334   8.1370323887e+01   4.0543077877e+01     0.207823    0.1449175 -25.66 0.0003843548    1.533    0.348
       105 -10.0078     92.4340     72.6212   9.3333487058e+01   5.0032056760e+01    0.2345786    0.2168022  38.89 0.0002187075    1.169    0.144
       106  -9.2311    217.0117     72.0485   6.4926689946e+01   2.1495551165e+01    0.1737074     0.159646 -36.97  0.000543486    1.026    0.025
       107 -10.2526    105.6151     71.5179   8.8953093620e+01   4.7747924585e+01    0.2456515    0.2325754   5.96  0.000476318    1.051    0.049
       108  -9.3332     81.3426     72.6934   9.6928143156e+01   5.1932007828e+01    0.1379564    0.1135844  87.97 0.0007042568    1.689    0.408
       109  -9.8841     55.2085     69.8312   1.0508924218e+02   5.6322299841e+01    0.4483873    0.2326122  -8.09  0.001343487    5.945    0.832
       110  -9.2399     46.5124     69.0000   1.0801569037e+02   5.7528217169e+01    0.2546975   0.07554153  29.21  0.000929504    3.893    0.743
       111 -10.3247    134.6450     66.7596   7.9467907171e+01   4.2349544269e+01    0.3287302    0.2317993 -79.13  0.001357665    2.298    0.565
       112 -10.3963     38.9212     62.8700   1.0915280931e+02   5.9653249336e+01    0.2472906    0.1720753 -25.33 0.0003043814    1.503    0.335
       113 -10.0368     40.7510     59.0494   1.0734064380e+02   6.0273714943e+01    0.2593916    0.2058878 -61.12  0.001122198    1.299    0.230
       114 -11.2295     13.9910     63.8673   1.1899757012e+02   6.1475970906e+01    0.2387698    0.1579202 -66.82 0.0002580354    1.312    0.238
       115 -11.0515      9.9707     60.0646   1.1971793950e+02   6.2546197253e+01    0.4164658    0.1702097 -46.89 0.0003746488    1.925    0.481
       116 -11.4823      5.3060     63.3004   1.2219431597e+02   6.2099322003e+01    0.2113945    0.1980405 -27.81 0.0008443551    1.261    0.207
       117 -11.0473      2.8529     60.6093   1.2259994805e+02   6.2806884421e+01      0.24963    0.1868913  64.30  0.001312936    1.742    0.426
       118 -10.0645     62.6883     62.6507   1.0020006327e+02   5.6845214906e+01    0.2743936    0.1487058 -48.56  0.001303013    1.663    0.399
       119 -10.2005     65.9912     60.7093   9.8375869072e+01   5.6769644909e+01    0.2617806    0.1981212  10.71 0.0006662579    1.493    0.330
       120  -9.9800    100.8512     62.0416   8.7221658040e+01   5.0506844540e+01    0.2144003    0.1949578 -62.72 0.0005360845    1.285    0.222
       121 -10.3241     34.7923     64.5886   1.1120197837e+02   5.9686451563e+01    0.2625008    0.1515894 -49.49   0.00106482    1.404    0.288
       122 -10.1031     55.1070     61.0728   1.0248469696e+02   5.8182455405e+01    0.3157422    0.1876427  15.14 0.0009959915    2.188    0.543
       123 -13.3336     20.2248     57.3236   1.1499729639e+02   6.2464053117e+01    0.4350873    0.2342568 -62.01  0.002379094    1.603    0.376
       124 -10.1504     15.2862     57.9828   1.1713701642e+02   6.2665913690e+01    0.1785592    0.1752965   2.07 0.0004002519    1.277    0.217
       125 -11.3857     83.5933     56.9179   9.0945779757e+01   5.4685203210e+01     0.264519    0.2562834 -47.72  0.000384435    1.192    0.161
       126 -11.5911     88.4754     53.1323   8.7971813999e+01   5.4506194504e+01    0.4732275    0.3884736  34.58  0.001051091    1.258    0.205
       127  -9.6721     60.4393     58.0626   9.9526952581e+01   5.8088652642e+01    0.2060845    0.1189939 -47.81 0.0006584846    1.566    0.362
       128  -9.1885     48.4628     58.4215   1.0416498109e+02   5.9545418940e+01    0.1304003    0.1113695 -36.05 0.0001712766    1.014    0.014
       129  -9.3216    158.4706     56.4991   7.0713852254e+01   3.8302570354e+01    0.1501242    0.1453912 -67.90 0.0008087047    1.080    0.074
       130  -9.5532    104.5714     56.5185   8.4174165812e+01   5.0764745183e+01     0.143787    0.1362397 -22.32 6.895629e-05    1.071    0.066
       131 -13.4413      5.9098     50.8745   1.1925833362e+02   6.4733772539e+01     0.485043    0.2924254 -31.73 0.0006819841    1.608    0.378
       132 -11.5105     17.3295     44.7536   1.1275482334e+02   6.5295653708e+01    0.5648162    0.4768731  86.61  0.003845961    1.617    0.382
       133 -11.3331     25.8793     43.2688   1.0856397149e+02   6.4920960085e+01    0.4261658    0.2739553  42.25  0.002474293    2.117    0.528
       134 -11.6401     18.9480     32.0671   1.0790061827e+02   6.7672748113e+01    0.7961764    0.3495776  -9.82   0.00307171    4.584    0.782
       135 -10.4148     25.9604     29.6773   1.0370150277e+02   6.7513502756e+01     0.206093    0.1470801 -48.81 0.0004029819    1.336    0.252
       136 -10.9302     22.8802     38.4020   1.0828353460e+02   6.6134199276e+01    0.2222265    0.1893901 -48.96   0.00044818    1.206    0.171
       137 -11.3634     26.7189     35.1080   1.0538827133e+02   6.6432756267e+01    0.3434997    0.1890737 -32.71 0.0009120447    1.623    0.384
       138 -10.3748    225.6098     54.1392   5.9051850574e+01   2.2076532201e+01    0.3631552    0.2171461 -21.13  0.001618892    1.849    0.459
       139  -9.4605    174.0885     55.5288   6.7370069022e+01   3.4532629975e+01    0.2146149    0.1466579  59.96 0.0003917389    1.466    0.318
       140 -11.1111    114.6573     53.9837   8.0378533323e+01   4.9070116586e+01    0.3397001    0.3162516  16.92  0.000973637    1.039    0.038
       141  -9.3294     54.2274     55.3937   1.0097643389e+02   5.9451638719e+01    0.1503786    0.1249837  38.83  0.000134196    1.429    0.300
       142 -10.1908     34.3576     53.5343   1.0822240722e+02   6.2065143262e+01    0.2792151    0.1622048 -34.76  0.000922714    1.606    0.377
       143 -11.8607     66.0986     52.6577   9.5577323577e+01   5.8337283448e+01    0.4857004    0.2299894  33.81  0.001379455    2.319    0.569
       144  -9.6620    123.3069     52.0817   7.7381887375e+01   4.7456005411e+01    0.2377312    0.1690989 -62.84 0.0008023148    1.944    0.486
       145 -11.0487     77.3854     47.5028   8.9631414877e+01   5.7484095245e+01    0.5382237    0.3188103 -10.63  0.002263246    2.544    0.607
       146 -10.0522     45.9910     49.1976   1.0211200989e+02   6.1697483864e+01    0.3923059    0.1567989 -33.17  0.001509643    3.076    0.675
       147  -9.1969    154.5891     47.5372   6.8605786863e+01   4.0624865113e+01     0.145474    0.1432152  17.18  6.80491e-05    1.015    0.014
       148 -10.3164    103.8148     46.7417   8.0834164783e+01   5.2587390365e+01    0.3394689    0.2195928  11.89  0.001481049    2.110    0.526
       149  -9.5809    135.3542     46.1025   7.2308195343e+01   4.5565206842e+01    0.1973265    0.1888518 -29.00 0.0005054211    1.081    0.075
       150 -10.9012    180.4895     41.7368   6.2065786892e+01   3.4869619455e+01    0.3978702    0.2589436  -7.92   0.00176457    1.975    0.494
       151  -9.0573    110.6579     42.7676   7.7384433887e+01   5.1755578693e+01    0.1455661    0.1028788  24.25 0.0002317231    1.547    0.354
       152 -10.1747     95.0859     42.2149   8.1747907538e+01   5.5100237178e+01    0.2085911    0.1744588   4.85 0.0006092943    1.172    0.147
       153 -10.0165     69.8247     41.6862   9.0097561348e+01   5.9762859563e+01    0.2656288    0.1890322   1.76 0.0009937633    1.587    0.370
       154 -10.8117    139.5583     39.8867   6.9181361825e+01   4.5442018306e+01    0.4216392    0.2357788 -38.62  0.001830827    1.838    0.456
       155 -10.0053     36.1987     41.2226   1.0339414677e+02   6.4337251741e+01    0.1965774    0.1444908 -27.71  0.001214644    1.188    0.159
       156  -9.3138     42.8363     40.6546   1.0036294435e+02   6.3710941796e+01    0.1473724    0.1149446  33.48  0.000350753    1.517    0.341
       157  -9.7699    133.0024     38.8730   7.0292761808e+01   4.7175836403e+01     0.344131    0.2300322 -80.36  0.001426616    2.488    0.598
       158 -11.3576    134.1244     34.4393   6.8444265370e+01   4.7507233320e+01    0.2436506    0.2123573  10.13  0.000374018    1.172    0.147
       159  -9.9372    129.3382     30.1341   6.7942826760e+01   4.9222272261e+01     0.299366    0.1834376  35.90  0.001039238    1.706    0.414
       160 -10.2959    127.5493     38.5533   7.1455855005e+01   4.8522752359e+01    0.2602428    0.2224553 -56.61 0.0005195519    1.361    0.265
       161 -12.1911    121.7455     37.4473   7.2466482988e+01   5.0038777034e+01    0.5118793    0.4617966  66.95   0.00174478    1.232    0.188
       162 -12.0498    123.0533     32.9312   7.0454146040e+01   5.0352442574e+01    0.2989848    0.2501704  31.63 0.0003184565    1.147    0.128
       163 -10.1392     53.9323     48.0056   9.8536764025e+01   6.0939603189e+01    0.2006701    0.1656492 -27.69 0.0003277296    1.034    0.033
       164  -9.3988    168.3988     38.4953   6.3084782391e+01   3.8382256372e+01    0.1420675    0.1400192  37.40 0.0001003955    1.029    0.028
       165 -10.7724      1.4855     36.9925   1.1765398773e+02   6.7819230812e+01    0.4442934   0.07468483 -52.38  0.001838093    2.986    0.665
       166 -10.6682      4.3239     34.3436   1.1557229374e+02   6.8202546636e+01    0.2118922    0.1570671 -55.45  0.001479254    1.173    0.147
       167 -10.3141      2.9648     42.1989   1.1837393677e+02   6.6688858135e+01     0.256404    0.1370446  -7.48  0.001476625    2.304    0.566
       168  -9.1587     55.2805     34.2935   9.2718937491e+01   6.3244857308e+01    0.1295812   0.08863712 -11.42 0.0002134706    1.532    0.347
       169 -10.1875    145.0462     33.0937   6.5655422123e+01   4.4991950261e+01    0.2083898    0.1999298  35.24 0.0003646743    1.010    0.009
       170 -10.6638     89.5171     32.2332   7.9497093004e+01   5.7734738645e+01    0.4994595    0.2459025  56.62  0.001485209    2.621    0.619
       171 -11.4001     38.6882     30.9886   9.8398476747e+01   6.5952820750e+01    0.3069428    0.1983483  -7.47 0.0003620191    1.723    0.420
       172 -11.6474     43.4165     29.0125   9.5494537309e+01   6.5728617801e+01    0.5500451    0.3269096 -24.09  0.002817675    1.634    0.388
       173 -10.6622    166.2709     31.1605   6.1107960276e+01   3.9858149038e+01    0.2382627    0.2199267 -43.83 0.0003704957    1.116    0.104
       174  -9.9994    205.1896     30.7747   5.5389701485e+01   3.0039767260e+01    0.2534745    0.1228395 -61.88 0.0009528109    2.803    0.643
       175  -9.4323     77.0630     30.9650   8.3107938075e+01   6.0269994711e+01    0.1615935    0.1356966 -15.03 0.0003423509    1.077    0.072
       176 -12.4874      8.6353     29.2905   1.1189847897e+02   6.8936067410e+01    0.2219236    0.1996883 -45.36  0.001507523    1.254    0.202
       177 -10.4181    147.5739     27.2737   6.3141609943e+01   4.5077634325e+01    0.4748681    0.2395765 -50.92  0.001860603    2.577    0.612
       178  -9.6116     69.8250     28.8058   8.4770121900e+01   6.1861676371e+01    0.2019381    0.1578742  -2.44 0.0004975256    1.199    0.166
       179  -9.4656     96.8633     28.2074   7.5581733007e+01   5.6811011495e+01    0.1849543    0.1441013  15.40 0.0002478652    1.268    0.212
       180 -11.5979     17.9831    248.9035   1.3621727374e+02   2.2250940833e+01    0.1994787     0.161797  28.12  0.001654713    1.879    0.468
       181  -9.3467    229.5204     26.2591   5.1502172887e+01   2.4716119589e+01    0.1706951    0.1279404 -11.01 0.0009266713    1.611    0.379
       182 -10.0594    100.9554     25.9341   7.3461989374e+01   5.6245784579e+01    0.2094724    0.1697465 -62.47  0.001122628    1.694    0.410
       183  -9.6110    153.9458     25.5348   6.1378613512e+01   4.3671752531e+01    0.2186036     0.136439  64.87 0.0007637187    1.555    0.357
       184 -10.3513    113.8303     24.5448   6.9481316092e+01   5.3561844361e+01    0.2728653    0.2257139  -6.42  0.001143929    1.210    0.173
       185 -10.4511     59.0625     24.2760   8.6874170029e+01   6.4297191824e+01    0.3434205    0.2073925   8.23  0.001694167    2.091    0.522
       186  -9.8748    229.6857    248.0379   9.9709500799e+01  -6.6204252504e+00     0.150547     0.117108   8.52 0.0007827302    1.130    0.115
       187 -10.3827     89.5064     23.6040   7.5854977435e+01   5.8932485625e+01    0.2298288    0.1974394  -3.56 0.0005177645    1.072    0.067
       188  -9.7418    238.2787     23.0536   4.9881997492e+01   2.3071972177e+01    0.1822324    0.1502622 -49.25  0.000413871    1.089    0.082
       189 -10.6473      1.9621     21.5473   1.1259549731e+02   7.0793076411e+01    0.2664999    0.1358827 -56.80  0.001357564    1.664    0.399
       190  -9.6837    224.7994    246.4490   1.0029014611e+02  -5.7632292494e+00    0.1603985   0.08217911  27.72 0.0009330862    1.618    0.382
       191 -11.3839     13.5417     20.8705   1.0632946265e+02   7.0157187076e+01    0.2714862    0.2395265 -65.52  0.001152698    1.560    0.359
       192  -9.9890     20.1437     16.8507   1.0123025492e+02   7.0303279043e+01     0.199582    0.1457458   6.48 0.0004435165    1.388    0.279
       193  -9.4416    187.3180    246.3096   1.0672662797e+02  -2.3339281188e-01    0.1165012   0.07641586  15.71 0.0002622351    1.639    0.390
       194  -9.6095    136.5072    245.5728   1.1571602398e+02   7.5961312238e+00    0.1176048   0.09008495  47.54 -0.0001126283    1.063    0.059
       195  -8.9569     45.2820    244.3334   1.3159392378e+02   2.0087207286e+01    0.0849717   0.07953959 -66.44 0.0003161082    1.614    0.380
       196  -9.6618     60.8652    241.0024   1.2873742549e+02   1.8805440049e+01    0.2075006   0.09443489  36.16  0.001170523    2.160    0.537
       197 -10.1097     35.8234    241.3905   1.3299061154e+02   2.1640866021e+01    0.1330532   0.08845955  35.86 0.0009529396    1.704    0.413
       198  -9.6724     84.9660     21.0627   7.6167987982e+01   6.0166016639e+01    0.2194981    0.1412241  21.12 0.0007799701    1.659    0.397
       199 -10.0493     30.9228     20.5362   9.7524099863e+01   6.8610462871e+01    0.2378731    0.1285124 -30.64 0.0008074777    1.608    0.378
       200  -9.1654    132.2950     20.3450   6.3674641489e+01   4.9667443510e+01    0.1502103   0.09917928  27.23 0.0005563061    1.667    0.400
       201 -10.3622    100.5043     19.1714   7.0761798090e+01   5.7178208320e+01    0.3062409    0.2226178 -58.86  0.001317083    1.992    0.498
       202  -9.8168    199.7218     17.0569   5.2240877079e+01   3.2962814108e+01    0.1861426    0.1739439 -51.04 0.0005401362    1.084    0.078
       203  -9.5714    202.4904    240.0865   1.0318158262e+02  -1.7606202009e+00    0.1483982    0.1116202 -26.08 0.0006935264    1.532    0.347
       204 -11.4658    108.5094     16.2503   6.7452960277e+01   5.5733498573e+01    0.2271554    0.2033892  28.93 0.0002707388    1.017    0.017
       205  -8.9443    104.3396     17.2955   6.8949047256e+01   5.6552283019e+01    0.1468269   0.09284218  26.74 0.0006564702    1.656    0.396
       206 -11.4464     14.5259    238.9866   1.3632966236e+02   2.4255407796e+01    0.2221861     0.103279  64.70 0.0005850525    1.646    0.392
       207 -12.1203     26.2581    235.9919   1.3428094827e+02   2.3587902201e+01    0.2801214    0.2123098  80.35  0.001534651    1.162    0.139
       208  -8.8778    204.3446    235.2958   1.0214580896e+02  -1.4536522237e+00    0.1225389   0.07672124  15.35 0.0007032658    1.668    0.401
       209  -9.2706    200.4451    235.5297   1.0287034165e+02  -8.8529680941e-01    0.1194964   0.09333988  24.31 0.0002199733    1.017    0.016
       210 -10.0012     26.7274     16.5231   9.7750237374e+01   6.9715102965e+01    0.1787917    0.1527247  -9.53 0.0007531134    1.177    0.151
       211 -10.0187    249.2206    234.0069   9.4311191004e+01  -7.8459829547e+00    0.1865454    0.1264462  23.39  0.000464294    1.163    0.140
       212  -9.0260    209.5040    229.5108   1.0034896394e+02  -1.5250255781e+00    0.1207346   0.09521071  22.38 -4.544996e-05    1.009    0.009
       213 -10.1678    140.1740    227.4854   1.1286216868e+02   9.7954861274e+00    0.2151618    0.1602997 -86.06  0.001310097    1.847    0.459
       214  -9.9051     63.0004     16.4948   8.1724651222e+01   6.4770190952e+01    0.1875733   0.09366364  23.10 0.0008105765    2.573    0.611
       215 -10.0754     49.0642     16.0482   8.7149428431e+01   6.7007556857e+01    0.1860127    0.1591235 -12.84 0.0005926548    1.139    0.122
       216 -10.1451     33.0261    225.2755   1.3253371976e+02   2.4773361688e+01    0.2642027   0.06784951  47.44  0.001285674    2.758    0.637
       217 -10.5427      2.1915    219.8495   1.3751468199e+02   2.8778693340e+01    0.2209368    0.0995347  82.11  0.001130823    1.833    0.455
       218 -10.8040    231.8573     14.0856   4.8279578961e+01   2.5538288184e+01     0.195369    0.1676726 -63.65 0.0004726887    1.029    0.028
       219 -11.8635      8.0427    217.4343   1.3642247578e+02   2.8692170167e+01    0.3221034    0.2156022  88.11  0.002477866    1.221    0.181
       220 -10.5368     20.7165    209.9287   1.3380874016e+02   2.8893595714e+01    0.1877416    0.1181816  57.16            0    1.284    0.221
       221  -9.3807    246.7360    207.6517   9.0246582864e+01  -4.5154285521e+00    0.1234809   0.07691024   3.51  0.000212868    1.610    0.379
       222 -10.3528      2.9257    205.5048   1.3674935055e+02   3.1379169213e+01    0.1453287   0.08989564  41.56  0.001043681    1.623    0.384
       223  -9.9836    196.0340    203.2838   9.8505975530e+01   4.2465465089e+00    0.4027557    0.2478048  65.59  0.001680912    3.550    0.718
       224 -11.0539      9.5384    203.5194   1.3547095249e+02   3.1175398843e+01    0.1937315    0.1415504  71.14 0.0008200609    1.049    0.047
       225  -9.0199    123.2912    198.3538   1.1229048033e+02   1.7576113443e+01    0.1232116    0.1017932  -7.08 0.0005161653    1.679    0.405
       226 -10.2923     23.1221    197.3033   1.3258288064e+02   3.1114876157e+01    0.1762262    0.1272968 -78.73  0.000423393    1.296    0.228
       227 -10.8001     13.4254    193.8115   1.3420811040e+02   3.2726313081e+01    0.3142025    0.1039882 -67.88 0.0009194443    2.632    0.620
       228  -9.4020      6.3271    191.6565   1.3542455938e+02   3.3781853929e+01    0.1191019   0.05766433  66.47 -9.057762e-06    1.742    0.426
       229  -9.5375     15.3885    185.2284   1.3329238572e+02   3.4282587355e+01     0.159718   0.08279023  87.32 0.0009429513    1.653    0.395
       230 -11.0225      5.4160    167.7901   1.3417084789e+02   3.8760867270e+01    0.2639694    0.1406404  78.32  0.001311159    1.614    0.380
       231 -10.0455     14.4857    164.4905   1.3201175046e+02   3.8723852578e+01     0.114891   0.09007638  89.47 8.354679e-05    1.046    0.044
       232  -9.0311     41.3082    157.6992   1.2532467158e+02   3.7660490301e+01    0.1278444   0.07965025  70.42  0.000323293    1.599    0.375
       233  -9.2587    247.4779    155.5143   7.9945597070e+01   2.2989803086e+00     0.133615    0.1124478  -5.15 0.0001075924    1.006    0.006
       234 -10.3993      2.7136    153.4461   1.3376881604e+02   4.2040059837e+01    0.1891874   0.09635609  36.50  0.001138788    2.093    0.522
       235 -10.4724     23.9391    150.7940   1.2869479360e+02   4.0912602949e+01    0.1697746    0.1427507 -68.54 0.0004150739    1.225    0.184
       236 -10.1295     22.5020    143.0084   1.2826341329e+02   4.2792790747e+01    0.1860691   0.09803542 -73.89 0.0005891062    1.557    0.358
       237 -10.4461     12.0767    141.3165   1.3062641846e+02   4.4021776878e+01      0.19087    0.1279271 -71.85 0.0003688721    1.236    0.191
       238  -9.8940      6.2078    142.3311   1.3211331524e+02   4.4229604456e+01    0.1485384   0.09109422  45.34   0.00075803    1.707    0.414
       239 -10.1741      2.4467    138.5064   1.3269027470e+02   4.5340362910e+01    0.1159107   0.08807771 -85.36 5.908682e-05    1.013    0.013
       240 -10.3741      9.0038    135.5512   1.3084572956e+02   4.5544923266e+01    0.1808927    0.1247738 -81.24 0.0003089294    1.137    0.120
       241  -9.8522    212.7918    134.0280   8.1200264860e+01   1.2273025704e+01    0.2109503    0.1958698 -66.21 0.0008201358    1.314    0.239
       242  -9.9430      1.9592    132.4932   1.3230564472e+02   4.6712491253e+01    0.1401548    0.1147041  30.35 0.0009674391    1.549    0.354
       243  -9.8784     35.1447    130.8966   1.2363200160e+02   4.4422588311e+01    0.1871229    0.1287185 -46.87  0.000536146    1.581    0.367
       244 -10.9358     11.7323    129.4691   1.2957262041e+02   4.6723565503e+01    0.2871076    0.1623909  76.06  0.001232881    1.790    0.441
       245 -10.0775     28.9264    128.2543   1.2494257084e+02   4.5613492899e+01    0.1639026     0.142423 -84.61 0.0003867265    1.071    0.066
