#   1 NUMBER                 Running object number                                     
#   2 MAG_AUTO               Kron-like elliptical aperture magnitude                    [mag]
#   3 X_IMAGE                Object position along x                                    [pixel]
#   4 Y_IMAGE                Object position along y                                    [pixel]
#   5 X_WORLD                Barycenter position along world x axis                     [deg]
#   6 Y_WORLD                Barycenter position along world y axis                     [deg]
#   7 A_WORLD                Profile RMS along major axis (world units)                 [deg]
#   8 B_WORLD                Profile RMS along minor axis (world units)                 [deg]
#   9 THETA_WORLD            Position angle (CCW/world-x)                               [deg]
#  10 FWHM_WORLD             FWHM assuming a gaussian core                              [deg]
#  11 ELONGATION             A_IMAGE/B_IMAGE                                           
#  12 ELLIPTICITY            1 - B_IMAGE/A_IMAGE                                       
         1 -13.4293    169.7457     55.5395   6.1914610178e+01   3.5514673330e+01     2.035721     1.341189  25.34  0.006290135    2.069    0.517
         2 -13.2656    184.0937     41.1217   5.4958844491e+01   3.3925414325e+01     1.011251    0.8804656 -40.85  0.003182343    1.153    0.133
         3 -12.9006    189.3719     34.5903   5.2203382354e+01   3.3433180769e+01    0.7271453    0.6111824 -45.57  0.001290211    1.181    0.153
         4 -13.9859    206.4729     10.4213   4.3246390743e+01   3.1905646358e+01     1.324131      1.11606  21.39  0.005801355    1.505    0.336
         5 -11.6730    190.6928     15.1741   4.6349256636e+01   3.5423215674e+01    0.4284045    0.3454318  67.44  0.001457895    1.170    0.145
         6 -12.1991    234.2965      2.2945   3.8708094808e+01   2.5979915174e+01    0.8626208    0.2846472  73.52  0.003485277    2.838    0.648
         7 -12.0310     58.8932    215.5971   1.2112119538e+02   2.3046057091e+01    0.2503567    0.1704163  70.18 0.0005060612    1.186    0.157
         8 -13.3289    247.2080    244.6569   9.0355466164e+01  -1.0616699601e+01     1.246936    0.7893183 -24.44  0.008504171    1.688    0.408
         9 -11.5428     66.2059    194.6822   1.1775057342e+02   2.6282114112e+01    0.3392715    0.2329887 -45.38  0.001516031    2.101    0.524
        10 -10.0050    156.7367    189.9696   9.8068396210e+01   1.2272190993e+01    0.2281598    0.1810255  42.27 0.0003817581    1.139    0.122
        11 -11.6965    150.0628    188.3837   9.9193767840e+01   1.3816807414e+01    0.4426509    0.3067831  58.28  0.001813847    1.497    0.332
        12 -11.7844     71.0715    207.9605   1.1811036738e+02   2.2919755973e+01    0.4536023    0.3116103  23.45   0.00154924    2.231    0.552
        13 -11.0348    141.4966    187.6824   1.0088788937e+02   1.5539693544e+01    0.2733092    0.2067526  18.68  0.001183491    1.696    0.410
        14  -9.0808     65.8086    187.3549   1.1705718605e+02   2.7881215129e+01     0.139438    0.1122702  42.55 0.0003103023    1.380    0.276
        15 -12.8815     10.1403    206.3755   1.2932471752e+02   3.0311260323e+01    0.4342111    0.2084815  40.40  0.002742607    2.023    0.506
        16 -11.0982    151.6317    181.3226   9.7635432931e+01   1.4873481293e+01    0.4498518     0.273489 -78.50  0.001751785    3.163    0.684
        17 -11.1229     61.5948    205.1362   1.1968933696e+02   2.4755369070e+01    0.3148569    0.2066359 -48.78  0.001830873    2.178    0.541
        18 -13.1633     75.2713    248.8292   1.2087435262e+02   1.4908238962e+01    0.3172075    0.1677982 -63.39  0.001987497    2.200    0.545
        19 -10.8663    188.8777    176.7511   8.9026096433e+01   8.4774822892e+00    0.7096465    0.3925237 -56.68  0.002069261    2.674    0.626
        20 -19.1941     26.9185    101.4921   1.1541123087e+02   5.2031499730e+01     17.67464     1.406081 -66.96   0.03465628   11.179    0.911
        21  -9.6229     87.5305    202.9460   1.1431196474e+02   2.1559228019e+01    0.2016466    0.1945517  -2.60 0.0009074025    1.489    0.328
        22 -10.9485     71.7554    243.9027   1.2109404506e+02   1.6207861492e+01     0.236015     0.141592 -88.20  0.001535097    1.696    0.411
        23 -10.0326      2.9338    162.3180   1.2805143052e+02   4.0036415169e+01    0.1575743    0.1424902  61.46 0.0006127261    1.373    0.271
        24 -11.1586     94.3308    157.2088   1.0650890462e+02   3.0363290285e+01    0.2664566    0.2456911  86.09 0.0003940784    1.055    0.052
        25  -9.7005     16.6984    201.1288   1.2785769978e+02   3.0710608655e+01    0.1116871    0.0879503  65.18 0.0004923915    1.212    0.175
        26 -12.1263     99.7670    150.6352   1.0405139972e+02   3.0972165110e+01    0.6295436    0.4784565 -34.08  0.003209617    1.700    0.412
        27 -10.4470    134.4805    148.9836   9.5303350232e+01   2.4929024070e+01     0.592383    0.2673768 -59.12  0.002109715    2.750    0.636
        28 -10.5878    133.6134    143.4133   9.4340105018e+01   2.6328664943e+01    0.8428209    0.2787743 -57.49  0.002308766    4.515    0.779
        29 -10.2163    113.3932    151.4933   1.0087401565e+02   2.8385044285e+01    0.2998609    0.2344578  82.17 0.0007996993    1.402    0.287
        30  -9.6901    174.7547    149.1418   8.6194612065e+01   1.6520275992e+01     0.265366     0.204428  57.10 0.0007403395    1.385    0.278
        31 -10.1021    144.2989    147.6426   9.2708998314e+01   2.3236769166e+01     0.440489    0.2375033 -65.13   0.00159786    2.765    0.638
        32  -9.3939    115.2076    144.0098   9.8969459715e+01   2.9754488258e+01    0.2524197    0.1666707 -86.94  0.001066978    2.126    0.530
        33 -11.3467    109.6585    137.6948   9.9080731848e+01   3.2228199294e+01    0.5721062    0.3342648 -41.59  0.002461775    1.944    0.486
        34  -9.1628    128.0659    139.3285   9.4812832131e+01   2.8345921416e+01    0.2206872    0.1877935  49.19 0.0005798437    1.168    0.144
        35 -11.8251     98.4673    136.7068   1.0175735220e+02   3.4436493627e+01    0.3020669    0.2865447  52.41  0.001743454    1.135    0.119
        36 -11.0078    105.8949    130.7746   9.8602172716e+01   3.4520468867e+01    0.3926986     0.314416 -67.41  0.001139125    1.227    0.185
        37 -10.0055    136.0000    128.4972   9.0405313936e+01   2.9149355146e+01    0.6669363   0.08675964 -47.24  0.001316137    7.640    0.869
        38 -10.2930    116.3769    128.5629   9.5388079723e+01   3.3080049785e+01    0.2926978    0.2587698 -19.94 0.0006065042    1.345    0.256
        39  -9.8670    160.8385    128.0944   8.4389585093e+01   2.3847439360e+01    0.2492331    0.2183412 -77.32  0.001244169    1.283    0.221
        40 -10.4545    104.3504    124.2625   9.7590726545e+01   3.6321191438e+01     0.294627    0.2408619 -36.19 0.0008790825    1.357    0.263
        41  -9.6530    120.9199    123.0579   9.2940530202e+01   3.3454265406e+01    0.2428003    0.1908765 -12.52  0.001124912    1.740    0.425
        42  -9.3608    135.0000    120.4013   8.8698222247e+01   3.1156776805e+01    0.3399344   0.08719512 -46.49   0.00092369    3.846    0.740
        43  -9.1438    152.8193    119.6767   8.4165649169e+01   2.7417406827e+01    0.2409557    0.1952001  25.71 0.0003950218    1.405    0.288
        44  -9.4933    111.1801    118.0211   9.4317591171e+01   3.6505477768e+01    0.2400676    0.2115354  48.83 0.0002917297    1.174    0.148
        45  -9.9244    231.2735    113.7194   6.6869090739e+01   1.0685780763e+01     0.258533    0.2375649   5.15 0.0007292211    1.115    0.103
        46  -9.6766    167.5520    112.4777   7.8909123712e+01   2.5536520673e+01    0.3797012    0.2781321  89.52  0.001540624    1.977    0.494
        47 -10.2354    134.5694    105.3262   8.4906570931e+01   3.4561752004e+01    0.4870312    0.1491416 -46.18  0.001443817    3.227    0.690
        48 -11.2052    118.9854    110.4749   9.0353766681e+01   3.6700592142e+01    0.5704815     0.362318  69.61  0.002252307    2.344    0.573
        49  -9.7353    205.4310    110.1786   7.0537339914e+01   1.7091371359e+01    0.3303042    0.2187621  42.31  0.001197193    1.593    0.372
        50 -10.0571     73.9353    103.3021   1.0145933251e+02   4.6250347325e+01    0.1880688    0.1791569 -57.49 0.0004472077    1.075    0.069
        51  -8.7602      1.6739     91.9298   1.2164474322e+02   5.5944858942e+01    0.1542425    0.1136589 -71.52 0.0004286997    1.022    0.021
        52 -10.0183    189.2285     88.9138   6.7960721682e+01   2.4849471789e+01    0.3952073    0.3308662 -67.28  0.001375376    1.319    0.242
        53  -8.4525    184.3408     77.3277   6.5628899677e+01   2.8137168177e+01    0.1629537    0.1220614  18.86 0.0007051472    1.737    0.424
        54  -9.3745     73.9973     73.7033   9.3600823712e+01   5.2940920696e+01    0.1844807    0.1767578 -10.27 0.0003880544    1.102    0.092
        55  -9.0353    167.8744    229.5165   1.0203707807e+02   3.6820052776e+00    0.1612094    0.1517584  36.54 0.0003095403    1.155    0.134
        56 -10.9531    192.7069    194.6863   9.1658013519e+01   4.7319242040e+00    0.9223031    0.4962721 -63.91  0.002993845    5.499    0.818
        57 -11.7303    151.1864    196.0059   1.0022506611e+02   1.2188285544e+01    0.3736588    0.3520651  56.34  0.002349447    1.069    0.064
        58 -17.5086     44.1198    241.5791   1.2557517176e+02   2.0108326862e+01     6.865032     4.854701  34.53   0.04901054    1.845    0.458
        59  -9.8633     81.4904    194.8832   1.1462568194e+02   2.4093502205e+01    0.3366883    0.2107336  43.64  0.001887847    1.510    0.338
        60 -10.8621     62.0843    219.8868   1.2088848571e+02   2.1811152017e+01    0.2168408    0.1599729 -73.92  0.001487055    1.420    0.296
