#   1 NUMBER                 Running object number                                     
#   2 MAG_AUTO               Kron-like elliptical aperture magnitude                    [mag]
#   3 X_IMAGE                Object position along x                                    [pixel]
#   4 Y_IMAGE                Object position along y                                    [pixel]
#   5 X_WORLD                Barycenter position along world x axis                     [deg]
#   6 Y_WORLD                Barycenter position along world y axis                     [deg]
#   7 A_WORLD                Profile RMS along major axis (world units)                 [deg]
#   8 B_WORLD                Profile RMS along minor axis (world units)                 [deg]
#   9 THETA_WORLD            Position angle (CCW/world-x)                               [deg]
#  10 FWHM_WORLD             FWHM assuming a gaussian core                              [deg]
#  11 ELONGATION             A_IMAGE/B_IMAGE                                           
#  12 ELLIPTICITY            1 - B_IMAGE/A_IMAGE                                       
         1 -15.0561      5.1844    143.8669   1.4357619949e+02   4.4623955802e+01     8.169299    0.8779012 -73.20     0.017894   10.264    0.903
         2 -13.4396    200.4814     30.1727   6.5964613709e+01   3.1540528560e+01     1.343139    0.9071837  70.08  0.005269969    1.305    0.234
         3 -13.6449    218.0501      9.4881   5.9217008708e+01   2.9730591370e+01    0.9118375    0.7486337  70.87  0.002358261    1.228    0.186
         4 -10.9412     94.8821    152.5182   1.2163498794e+02   3.2031883578e+01    0.3750423    0.3213084 -40.92 0.0008497495    1.278    0.218
         5 -12.6252    239.2614    247.9731   1.0703338247e+02  -1.2958291803e+01    0.5191097    0.3662476  43.27  0.003228287    1.658    0.397
         6 -11.4937    138.6613    249.6815   1.2691234833e+02   3.4290413836e+00    0.3385384    0.1895063  49.53  0.001759456    1.517    0.341
         7 -10.8531     65.6211    249.4489   1.4089551903e+02   1.5037588902e+01    0.2451359    0.1716001  68.03 0.0007052301    1.128    0.113
         8 -13.2763     37.0937    246.8730   1.4574600894e+02   1.9266854513e+01     1.225093     0.780958  52.13  0.008274159    1.337    0.252
         9 -14.6894     30.6941    227.7746   1.4552694269e+02   2.3792423339e+01    0.9948156    0.8404695 -59.25  0.007202941    1.635    0.388
        10 -11.1363    145.9078    249.2195   1.2540969622e+02   2.2610695725e+00    0.2568649    0.1674697  29.50  0.001381596    1.610    0.379
        11 -10.8852     81.2564    249.3631   1.3800553509e+02   1.2793594086e+01    0.2361313    0.1275899  51.84  0.001312296    1.486    0.327
        12 -11.4305    197.2539    247.4921   1.1495404547e+02  -6.2808360581e+00    0.2678908     0.207978  -7.94  0.001645317    1.430    0.301
        13 -12.2132    100.4051    248.6727   1.3429758902e+02   9.9694178381e+00    0.4622985    0.3030497  46.31   0.00272539    1.285    0.221
        14 -13.9816      9.3622    241.0627   1.5004035829e+02   2.3503423210e+01     1.963487     1.081079 -88.93   0.01321193    1.448    0.309
        15 -12.6979     42.7704    214.1818   1.4214774800e+02   2.5191904286e+01    0.6931484    0.4673184  78.02  0.002300755    1.250    0.200
        16 -11.2124    156.6680    249.1219   1.2325034593e+02   4.1522639411e-01     0.294749    0.1540173  49.45  0.001446295    1.730    0.422
        17 -11.4569    127.5101    232.6704   1.2691223461e+02   8.4525423580e+00    0.4498771     0.110332  40.43  0.001463056    3.554    0.719
        18 -12.1229    112.0617    231.6909   1.2998122593e+02   1.1300854689e+01    0.5053298    0.1765005  47.88  0.002004353    2.485    0.598
        19 -11.0208     86.7678    226.1036   1.3450618699e+02   1.6539424054e+01     0.354074     0.116364  52.07  0.001337988    2.973    0.664
        20  -8.8427    152.6073    213.2056   1.1860894859e+02   7.6527635364e+00    0.1718177    0.1367992 -36.91 0.0002647694    1.471    0.320
        21 -10.3738     58.1118    212.9165   1.3894861410e+02   2.3496914092e+01    0.2093986    0.1444871  70.41  0.001240117    1.263    0.208
        22 -12.5956      9.6322    207.1319   1.4793885971e+02   3.0288219200e+01    0.6628892    0.4246176  36.91  0.002925452    1.812    0.448
        23 -11.9713     55.3844    198.7427   1.3802835410e+02   2.6983535874e+01    0.2974705    0.2493138 -59.50 0.0006651899    1.388    0.279
        24 -12.1590     62.4242    190.1391   1.3548553728e+02   2.8001484048e+01    0.2656199    0.2358356 -81.90  0.000467261    1.142    0.124
        25 -11.2978      3.8855    184.0174   1.4740241287e+02   3.5755553126e+01    0.2890144    0.1755886  68.33  0.000757898    1.470    0.320
        26 -10.8918     73.6925    177.0186   1.3111470772e+02   2.9478401017e+01    0.2473236    0.2129076 -84.58 0.0003337964    1.046    0.044
        27 -13.3153     59.8570    175.1435   1.3416476941e+02   3.1843397048e+01    0.5394343    0.2753693 -47.56  0.002196586    2.325    0.570
        28 -12.4046    246.1729    248.1176   1.0579498374e+02  -1.3974051538e+01    0.8292609    0.2685205 -40.99  0.003512675    3.808    0.737
        29  -9.6062     98.1638    148.3350   1.1994192077e+02   3.2479340933e+01    0.2398144    0.1958743 -48.74 0.0003949365    1.239    0.193
        30 -11.9087     83.3515    151.4197   1.2449211154e+02   3.4175718668e+01     0.317664    0.2486517 -49.25 0.0006813194    1.298    0.230
        31 -12.0545     67.4439    143.4386   1.2734021205e+02   3.8440891086e+01    0.6658203    0.4196429  62.57  0.002571581    1.929    0.482
        32 -10.1163    107.8620    137.5089   1.1503451483e+02   3.3331769933e+01    0.5062308    0.3338673 -10.06  0.001662637    2.921    0.658
        33 -10.6749     94.6372    134.6649   1.1807290179e+02   3.6376517615e+01    0.2581481    0.2429942 -37.50 0.0003823609    1.114    0.103
        34  -9.1201    105.6392    123.9341   1.1253494508e+02   3.6949152609e+01     0.202708    0.1781569 -53.15 0.0004126562    1.109    0.099
        35 -11.9887     81.1104    168.3810   1.2797769051e+02   3.0426907738e+01    0.7175428    0.4669386 -53.00  0.003553373    1.548    0.354
        36 -10.9576    243.6804     92.1941   7.4437694381e+01   1.1981464868e+01    0.3031365    0.1027211 -44.99  0.001097176    2.668    0.625
        37 -10.4236    159.5168     77.0736   8.5726802795e+01   3.4796685870e+01    0.2454351    0.2039701  55.65 0.0008085807    1.146    0.128
        38  -8.9971     33.2713     62.4502   1.2028060205e+02   6.0294396048e+01    0.1456611    0.1117372  31.44 0.0009301809    1.565    0.361
        39 -13.7648      6.4240    117.0934   1.4010746159e+02   5.0593664303e+01     1.515353    0.6648229 -85.55  0.004841729    2.731    0.634
        40 -10.7283     88.5867    166.8801   1.2585156748e+02   2.9609481540e+01    0.4492128    0.2683446  73.86  0.001859313    2.327    0.570
        41 -11.8984    218.6053    248.9400   1.1106236294e+02  -9.9494107624e+00    0.3890151    0.1867416  36.06  0.001983048    1.752    0.429
        42 -11.6432    171.9352    247.8584   1.2002104270e+02  -2.0251078312e+00    0.3799797    0.2027189  52.40  0.001821771    1.994    0.499
