#   1 NUMBER                 Running object number                                     
#   2 MAG_AUTO               Kron-like elliptical aperture magnitude                    [mag]
#   3 X_IMAGE                Object position along x                                    [pixel]
#   4 Y_IMAGE                Object position along y                                    [pixel]
#   5 X_WORLD                Barycenter position along world x axis                     [deg]
#   6 Y_WORLD                Barycenter position along world y axis                     [deg]
#   7 A_WORLD                Profile RMS along major axis (world units)                 [deg]
#   8 B_WORLD                Profile RMS along minor axis (world units)                 [deg]
#   9 THETA_WORLD            Position angle (CCW/world-x)                               [deg]
#  10 FWHM_WORLD             FWHM assuming a gaussian core                              [deg]
#  11 ELONGATION             A_IMAGE/B_IMAGE                                           
#  12 ELLIPTICITY            1 - B_IMAGE/A_IMAGE                                       
         1 -11.8770    209.7104     34.8613   3.6359731642e+01   2.9345239900e+01    0.5623725    0.5264404 -54.48  0.001309611    1.231    0.187
         2 -11.9755    235.5923      8.3734   2.8596118654e+01   2.7013270757e+01    0.7773905    0.5842638 -65.39   0.00489646    1.059    0.056
         3  -9.9003     32.8122      3.1615   6.5888617898e+01   7.0878126948e+01     0.280226    0.1026415 -31.82  0.001363752    2.798    0.643
         4  -9.2983     83.3933    245.2001   1.0734056178e+02   1.1599350376e+01    0.1736317    0.1147879 -87.67 0.0009587051    1.788    0.441
         5 -10.1620    127.7700    249.1201   9.8315857004e+01   4.4956624766e+00    0.3265712    0.1336237 -43.83  0.001403822    3.028    0.670
         6 -11.5489    115.7332    248.2923   1.0078153349e+02   6.4118202178e+00    0.4602349    0.3396506  28.13  0.002737908    1.258    0.205
         7 -10.1281     72.3115    245.1943   1.0967966789e+02   1.3091337304e+01    0.3686636    0.2628729  66.19  0.001174323    1.339    0.253
         8 -10.3604     49.1804    249.7089   1.1479671847e+02   1.5109228266e+01    0.2147111    0.1682072  71.35  0.000590799    1.112    0.100
         9 -12.8544     43.1223    195.8973   1.1143162945e+02   2.7663533269e+01     2.231621    0.8723665  63.27  0.001614402    3.891    0.743
        10 -16.7760      9.4104    242.4490   1.2205252844e+02   2.0888235667e+01     13.72089       4.4007 -78.31   0.02739958    2.871    0.652
        11  -9.3626    149.3983    228.2314   9.0666639391e+01   5.0580415640e+00    0.1780313    0.1329918 -63.44 0.0009564131    1.728    0.421
        12 -10.6967    126.3683    210.3200   9.3118480097e+01   1.2361438627e+01    0.2909611    0.2163155  -7.21  0.001436794    1.756    0.431
        13 -14.0992     10.2369    206.6123   1.1984677697e+02   2.8498509870e+01      1.20036    0.9089047  41.00  0.006110902    1.377    0.274
        14  -8.7657     58.8019    195.9209   1.0759813228e+02   2.5762869726e+01    0.1914579    0.1743491 -62.05 0.0003699496    1.187    0.157
        15  -8.9745    145.3198    223.3216   9.0807802556e+01   6.6423147136e+00    0.1400949    0.1024064  -4.78 0.0003525277    1.670    0.401
        16 -10.5313     93.9641    236.4423   1.0410733713e+02   1.1870770986e+01    0.3525926    0.1842434 -75.03  0.001068629    2.545    0.607
        17 -11.6990     55.1985    184.3685   1.0711501378e+02   2.9043140292e+01    0.6964328    0.6340219  65.21  0.002649641    1.071    0.067
        18  -9.2169     99.6555    180.8418   9.4948686129e+01   2.3514959972e+01    0.2454797    0.2074319  18.72 0.0008201617    1.300    0.231
        19  -9.3878     81.2467    182.0533   9.9990329483e+01   2.6074101702e+01    0.3548944      0.24516  31.98    0.0011847    1.492    0.330
        20  -9.0394     40.4332    177.5890   1.1012910841e+02   3.2460671590e+01    0.3028348    0.1423062 -62.45   0.00101881    1.902    0.474
        21  -8.5874     74.0000    237.0275   1.0853055296e+02   1.4524141159e+01    0.1956276   0.07109792 -66.11 0.0008071848    2.975    0.664
        22 -10.4255     69.1097    170.6280   1.0151395092e+02   3.0679053968e+01    0.4575836     0.298474 -28.01  0.001997732    2.169    0.539
        23 -10.4249     73.1034    166.1664   9.9706757762e+01   3.1256441690e+01    0.3358372    0.2844315 -34.34 0.0007574048    1.326    0.246
        24 -11.3021     81.4508    158.5999   9.6055345881e+01   3.1962777341e+01     0.824899    0.4677918  50.46   0.00101935    1.964    0.491
        25 -11.7117     69.9226    152.9291   9.8385813001e+01   3.5109709848e+01    0.5091996    0.4324684 -46.53 0.0009005378    1.185    0.156
        26 -11.5628     70.1503    144.7473   9.6835978135e+01   3.7192286813e+01    0.7873344    0.5209041  69.67   0.00299839    2.001    0.500
        27 -10.4464     88.5116    151.5680   9.2701425455e+01   3.2653858268e+01    0.6111894    0.4026621 -14.37  0.002359952    2.402    0.584
        28  -9.8391    134.2929    147.2548   7.9057652103e+01   2.5405135428e+01    0.7711651     0.201828 -54.22  0.001799465    5.376    0.814
        29  -9.3698     55.1230    222.0877   1.1121958707e+02   2.0170412405e+01    0.2116501    0.1715263  80.59 0.0007024693    1.130    0.115
        30  -9.5285    101.9557    138.4534   8.6018955626e+01   3.3678942579e+01    0.3550583    0.2604705 -16.74   0.00155202    1.781    0.439
        31 -10.2965     89.8759    137.2568   8.9344542904e+01   3.6067911867e+01    0.2923655    0.2491182 -37.79 0.0003653026    1.186    0.156
        32 -10.8920     58.8443    131.3091   9.7793231428e+01   4.2190630259e+01    0.6348506    0.2421377 -64.11  0.002232433    2.634    0.620
        33  -9.5944     25.1353    137.5170   1.0942207885e+02   4.4177432763e+01     0.231626    0.1269996  30.15  0.001123484    2.012    0.503
        34  -8.2819    168.3169    232.6399   8.7263664252e+01   1.3300536213e+00    0.1267155    0.1036211  64.68 0.0007043148    1.759    0.432
        35  -9.4696    106.0450    130.8478   8.3063547186e+01   3.4810755313e+01    0.3832691    0.3089752 -52.02  0.001690749    1.213    0.176
        36  -9.1482    135.0303    129.4941   7.4652980162e+01   2.9402241052e+01    0.2467941    0.1574465  41.91  0.001036088    1.599    0.375
        37  -9.8158    112.0524    129.0239   8.0877553925e+01   3.4118253739e+01    0.3963647    0.2408911  33.69  0.001634981    1.747    0.428
        38  -9.2176     98.9844    124.6106   8.3671557200e+01   3.7631957437e+01    0.2990911    0.2401265  -6.71 0.0007103701    1.498    0.332
        39 -10.4914     32.8425    118.9603   1.0405940760e+02   4.8230622787e+01    0.4006505    0.1688735 -63.29   0.00166743    2.018    0.504
        40  -8.4261    107.8399    118.1645   7.9399106696e+01   3.7525232641e+01    0.2098565    0.1819645  -7.19 0.0002793164    1.275    0.216
        41  -8.6076    231.1997    113.8091   5.1247752187e+01   1.2656401898e+01    0.1779997     0.154791 -12.46 0.0008960348    1.317    0.240
        42 -10.5440     32.9031    109.0025   1.0219858061e+02   5.0724835826e+01    0.4036492    0.1631795 -67.76  0.001569902    2.448    0.592
        43 -10.2794     72.9215    217.5141   1.0670318627e+02   1.8868311296e+01    0.4638537     0.234368 -66.98  0.002010236    2.046    0.511
        44 -10.4793     41.9375    104.1094   9.7947924512e+01   5.1035755287e+01    0.3582765    0.2538692  59.24  0.001663331    1.857    0.462
        45 -10.8507    109.0822    214.1105   9.7776840516e+01   1.4308551666e+01    0.4043487    0.2473053 -78.84  0.001801398    2.297    0.565
        46 -10.3288     32.7420     87.9943   9.7737476114e+01   5.5816209406e+01    0.5483211    0.1229864 -62.38  0.001531877    4.955    0.798
        47  -8.2014    150.5438     82.5122   5.8217728255e+01   3.5797324704e+01    0.1500593    0.1435996 -80.15 0.0001506277    1.054    0.051
        48  -8.7413     74.4298     85.2009   8.1134007039e+01   5.1060620329e+01    0.1955792    0.1389489 -57.34 0.0005277746    1.571    0.363
        49  -9.5972    132.4957    209.3216   9.1515779540e+01   1.1567802902e+01    0.2588655     0.123154  35.51  0.001071913    1.957    0.489
        50 -11.1894    188.6021     52.4455   4.3172606695e+01   3.1739147056e+01    0.3673308    0.3376046  -6.42  0.001158963    1.367    0.268
        51 -12.0173    199.9310     44.2447   3.9657767094e+01   3.0293219337e+01    0.7522319    0.6887414 -61.01  0.003351925    1.127    0.113
        52  -8.9889     75.1148    208.8242   1.0517205066e+02   2.0539408757e+01    0.2154977    0.1663085  65.02 0.0006485271    1.259    0.206
        53  -9.8471     32.6464     32.0562   7.9767716079e+01   6.7041555991e+01    0.2698619    0.1048031 -42.15  0.001232802    2.451    0.592
        54  -9.9960     40.7722    207.1976   1.1307988148e+02   2.5260330475e+01    0.3609894    0.2242671  83.97  0.001268625    1.592    0.372
        55  -9.9088     16.5933     22.1915   8.3876228131e+01   7.0348889976e+01    0.1749829   0.08664554 -32.27 0.0009570008    1.752    0.429
        56  -9.0641     72.0248    249.9431   1.1017667437e+02   1.2192127850e+01      0.30735    0.1431859  42.31 0.0007228139    1.752    0.429
