#   1 NUMBER                 Running object number                                     
#   2 MAG_AUTO               Kron-like elliptical aperture magnitude                    [mag]
#   3 X_IMAGE                Object position along x                                    [pixel]
#   4 Y_IMAGE                Object position along y                                    [pixel]
#   5 X_WORLD                Barycenter position along world x axis                     [deg]
#   6 Y_WORLD                Barycenter position along world y axis                     [deg]
#   7 A_WORLD                Profile RMS along major axis (world units)                 [deg]
#   8 B_WORLD                Profile RMS along minor axis (world units)                 [deg]
#   9 THETA_WORLD            Position angle (CCW/world-x)                               [deg]
#  10 FWHM_WORLD             FWHM assuming a gaussian core                              [deg]
#  11 ELONGATION             A_IMAGE/B_IMAGE                                           
#  12 ELLIPTICITY            1 - B_IMAGE/A_IMAGE                                       
         1  -7.8115     17.3505     14.1995   8.1549344375e+01   7.0831600157e+01    0.1452278   0.09601158 -39.86 0.0003951943    1.623    0.384
         2  -8.5772     55.6449      9.9356   6.1843082558e+01   6.6011216070e+01    0.1966072    0.1765861 -41.34 0.0008756939    1.603    0.376
         3  -7.8895     47.4546     10.2186   6.5210832082e+01   6.7339760480e+01     0.152503    0.1058452 -33.06 0.0009373465    1.676    0.403
         4  -8.4036     90.8240      8.7727   5.0356682812e+01   5.9325186561e+01    0.2163482    0.1493417 -50.25 0.0008455322    2.011    0.503
         5  -7.9973     28.2767      9.6664   7.3653786571e+01   7.0174450418e+01   0.09772554   0.09050528 -21.18 0.0002981756    1.604    0.376
         6  -7.9137    101.4724      7.9920   4.7503769365e+01   5.7100473746e+01    0.1555403   0.09834217 -51.51 0.0004822918    2.196    0.545
         7  -7.4818    119.5382     11.0203   4.4827326525e+01   5.2792417228e+01    0.1701139   0.09493157 -50.80 0.0008067403    2.381    0.580
         8  -8.4227     33.6875      5.4552   6.8900751193e+01   6.9943863832e+01    0.2189281    0.1258329 -39.46  0.001245703    2.260    0.558
         9  -8.5340     79.0169      3.8649   5.1487686442e+01   6.2178608874e+01    0.2549632    0.1441538 -40.15  0.001043975    2.322    0.569
        10  -8.3244    167.0582      2.5754   3.5250231059e+01   4.2472291545e+01    0.1649792    0.1531795 -85.77 0.0001197209    1.105    0.095
        11  -7.9007     44.5279      3.4661   6.3102133589e+01   6.8515374315e+01    0.1187621   0.09375965  14.97 0.0001698797    1.043    0.041
        12  -8.2941     62.4769      1.4621   5.5453907933e+01   6.5585801158e+01    0.1860753    0.1108161  61.24 0.0006518325    2.075    0.518
        13  -7.4701     39.3142      1.6534   6.4394900940e+01   6.9515328911e+01   0.09840304   0.09385294 -39.35 0.0007047236    1.717    0.418
        14  -9.7062     78.1995    243.4278   1.1000242198e+02   1.3558999628e+01    0.4023362    0.1817459  60.76  0.001757992    2.862    0.651
        15  -8.4226    248.9971    249.1777   7.7036157112e+01  -1.0847617555e+01    0.2893695    0.1223045 -25.85  0.001521756    2.259    0.557
        16  -9.7935    248.5959    241.8995   7.5907924519e+01  -9.8827100017e+00    0.4406441    0.2041616 -35.69  0.001582762    2.080    0.519
        17  -8.7056    247.7817    234.7730   7.4850254641e+01  -8.8561367705e+00    0.2348419    0.1616063 -14.70 0.0009487367    1.173    0.148
        18  -9.4296    246.5815    228.7514   7.4025562845e+01  -7.8998800397e+00     0.428405     0.182417 -35.01  0.001774015    2.139    0.532
        19  -8.0182    198.8316    250.1535   8.6324749151e+01  -4.6936754534e+00    0.1696581    0.1200194   4.04 0.0005945376    1.283    0.221
        20  -7.6773    184.6556    250.2845   8.9094508074e+01  -2.7629449661e+00    0.1144038   0.09036888  48.37 0.0003125758    1.643    0.391
        21  -8.5594    113.2078    248.7254   1.0338164277e+02   7.7717927226e+00    0.2590441    0.1622019 -81.42   0.00102061    2.408    0.585
        22  -8.5187     94.2186    249.8185   1.0738422125e+02   1.0216487552e+01    0.2809616    0.1448571  56.97  0.001334501    2.152    0.535
        23  -8.2482     67.4899    245.0718   1.1232115974e+02   1.4617094872e+01    0.1679486    0.1129555 -74.35  0.001029539    1.581    0.367
        24  -8.8886    201.9843    243.4566   8.4667883798e+01  -4.1547303163e+00    0.2020794    0.1695956 -45.99 0.0008944583    1.647    0.393
        25  -8.4647    139.3929    244.2619   9.7398181806e+01   4.7599944526e+00    0.1564918     0.123884 -70.46 0.0006948978    1.675    0.403
        26  -8.5080     34.4025    244.1467   1.1871122454e+02   1.8671173613e+01    0.1608288   0.09049975  83.82  0.000780882    1.750    0.429
        27  -8.9386      9.3657    243.2402   1.2328256824e+02   2.1379699088e+01    0.2526394   0.09066825  74.24  0.001154187    3.142    0.682
        28  -9.2899    194.3164    240.7362   8.5721596616e+01  -2.6838265022e+00    0.3802722    0.1867964 -48.22   0.00101084    2.642    0.621
        29  -8.4363    168.9263    243.1942   9.1170856459e+01   5.8604738075e-01    0.1822587    0.1569746  34.14   0.00052558    1.209    0.173
        30  -9.2837    160.1144    240.3448   9.2550279303e+01   2.3537653409e+00    0.3056013    0.2346605 -78.59  0.001350499    2.158    0.537
        31  -8.5799    146.8724    240.2149   9.5280462447e+01   4.3507526872e+00    0.3707757    0.2385166  77.71  0.001557953    3.735    0.732
        32  -8.2290     88.1107    242.1159   1.0783212792e+02   1.2489876335e+01    0.1934987    0.1290869  67.69 0.0009154171    1.645    0.392
        33  -9.2515    182.9118    239.9540   8.7855353747e+01  -9.3368566288e-01    0.3138175    0.2330514  54.88  0.001265646    1.949    0.487
        34  -8.6649    240.5814    240.1879   7.7015634926e+01  -8.7048984792e+00    0.2387691   0.09669469 -32.08  0.001201103    2.296    0.564
        35  -8.9973    242.6579    236.6614   7.6059598512e+01  -8.4884670205e+00    0.3994929    0.1577096 -26.32  0.001868324    2.633    0.620
        36  -8.3275    209.1275    238.4463   8.2489340878e+01  -4.3987858791e+00    0.1887009     0.143406 -56.25  0.000816189    2.174    0.540
        37  -9.2213    135.7157    239.0989   9.7466492736e+01   6.2140392891e+00    0.2877598    0.1526499  47.39  0.001307087    1.926    0.481
        38  -8.9254    129.5314    238.8566   9.8739693501e+01   7.1788772780e+00    0.2348133    0.1469798  61.67 0.0009737697    2.196    0.545
        39  -8.2036     40.7223    239.3818   1.1716303145e+02   1.8912752777e+01    0.1259271    0.0699272  66.49 0.0007003922    1.715    0.417
        40  -9.2854    230.6968    236.5769   7.8172588830e+01  -6.9848537389e+00    0.3294269    0.2175728 -39.11  0.001555758    1.738    0.424
        41 -10.0464    214.8894    233.2990   8.0540494022e+01  -4.4291388707e+00    0.4685628    0.3683661 -83.09  0.002351112    3.522    0.716
        42  -8.8874    203.0863    234.6805   8.3028434739e+01  -3.0005880138e+00    0.2364184    0.1764499 -50.94 0.0009181529    1.892    0.471
        43  -9.7805    175.7020    233.4190   8.8282297236e+01   1.1808088281e+00    0.4683401    0.2485196 -54.15  0.002198522    2.653    0.623
        44  -8.2121    170.0617    235.7701   8.9808342118e+01   1.6338493214e+00    0.1995445    0.1663794 -62.38 0.0005723728    1.667    0.400
        45  -9.1004     78.7961    234.6626   1.0900166024e+02   1.5197485354e+01    0.2755343    0.1667432  77.61 0.0009634407    2.060    0.515
        46  -7.6569     57.9767    237.0000   1.1353284991e+02   1.7377065244e+01    0.1926962   0.06132683  33.19  0.000797642    2.909    0.656
        47  -9.2791    108.6087    234.4019   1.0262510229e+02   1.1093248952e+01    0.3159046    0.2145195  62.95  0.001070647    1.696    0.410
        48  -8.4191     99.6128    234.2536   1.0453463479e+02   1.2414567950e+01    0.2530405    0.1594554 -86.73  0.001022842    2.200    0.546
        49  -9.1042      7.9952    234.9941   1.2311145663e+02   2.3121586177e+01    0.1373538    0.1033993  75.99  0.001000155    1.045    0.043
        50  -8.1919    122.7120    234.1538   9.9565957859e+01   9.0631693193e+00     0.192761    0.1597188  79.33 0.0007153547    1.464    0.317
        51  -8.7623     92.9645    232.4811   1.0575256030e+02   1.3700772015e+01    0.3913811    0.2211692  73.54  0.001767925    2.697    0.629
        52  -9.4559     68.3040    232.2445   1.1096433915e+02   1.7050237552e+01    0.4684066    0.2191088  67.19  0.001975888    3.061    0.673
        53  -8.8025    194.3811    232.9063   8.4439263148e+01  -1.4857044554e+00    0.2002599    0.1707617  42.54  0.000870337    1.475    0.322
        54  -8.5267    144.5480    233.0148   9.4734652933e+01   5.9734793913e+00     0.268206    0.1557005  53.00  0.001279045    2.135    0.532
        55  -8.7323    139.9882    230.0703   9.5280340109e+01   7.2075035976e+00     0.290144    0.1944584  61.63 0.0009336958    2.052    0.513
        56  -8.6718    132.5063    232.8797   9.7289639918e+01   7.8287019706e+00    0.1750265    0.1309086 -53.51 0.0007337827    1.523    0.343
        57  -9.6590    186.4077    230.2502   8.5594043347e+01   1.0606035810e-01    0.4125136    0.2560149 -57.07  0.002046624    2.518    0.603
        58  -7.5971    153.4013    242.1794   9.4203861438e+01   3.0425741453e+00    0.1551491    0.1249478 -65.01 0.0006214022    1.673    0.402
        59  -8.9080    236.0354    230.7727   7.6226753548e+01  -6.8588488281e+00    0.2115497    0.1753846 -26.62 0.0007216863    1.390    0.280
        60  -8.6025      1.7909    231.0388   1.2405404443e+02   2.4468496632e+01    0.1793238    0.1100171  68.71 0.0008440858    1.309    0.236
        61  -8.8833    151.3137    228.9837   9.2690803519e+01   5.6618680372e+00      0.27102    0.1940463  81.58  0.001143902    2.578    0.612
        62  -9.5487    148.8159    224.6712   9.2564562991e+01   6.8368222595e+00    0.4075073    0.2948722  89.76  0.001334845    2.440    0.590
        63  -8.7169    229.5273    228.9552   7.7086359428e+01  -5.7589778185e+00    0.1746249     0.106476 -31.87 0.0005377028    1.544    0.352
        64  -8.7150    162.3389    227.8977   9.0182486479e+01   4.1534015272e+00    0.2999015     0.213065  50.76  0.001326642    1.664    0.399
        65  -8.9857    128.0080    227.5759   9.7517722763e+01   9.5117763462e+00    0.2860411    0.2073856  58.43  0.001409243    1.581    0.368
        66  -8.1150    120.0262    227.8931   9.9304935323e+01   1.0662380686e+01    0.2061399    0.1472622  64.66 0.0009808438    1.700    0.412
        67  -9.1659      8.2324    228.2232   1.2270716109e+02   2.4460620183e+01     0.180703     0.072891  86.73  0.000885535    2.475    0.596
        68  -8.8170    205.9210    226.0720   8.1026763632e+01  -2.0786995410e+00    0.2685244    0.1731133 -47.13 0.0009856132    1.941    0.485
        69  -9.8132    217.0612    225.2265   7.8749554991e+01  -3.5230245988e+00    0.3059026    0.2209235 -43.21 0.0009026684    1.683    0.406
        70  -8.1673    200.0437    226.2809   8.2210703942e+01  -1.2617969577e+00    0.1782365    0.1479687  10.51 0.0005892616    1.054    0.051
        71  -7.9779     49.2020    226.2186   1.1440762192e+02   2.0627164448e+01    0.1841132   0.08723481 -85.53 0.0005189581    2.455    0.593
        72  -9.0672    104.7862    223.7566   1.0210945441e+02   1.3756425813e+01    0.3450124    0.2301767  82.92  0.001588295    2.088    0.521
        73  -8.9128     94.0449    224.2876   1.0455014683e+02   1.5202606173e+01    0.3833427    0.1914088  56.98  0.001680818    2.419    0.587
        74  -8.1116     38.4410    224.9409   1.1652811833e+02   2.2111669381e+01    0.1745696   0.08265293  76.22 0.0008072546    2.506    0.601
        75  -8.8081    180.3569    223.8084   8.5756956207e+01   2.0889871038e+00    0.2233614    0.2026164 -46.99   0.00064418    1.382    0.276
        76  -8.7204    173.0962    223.1541   8.7154220624e+01   3.3200383219e+00    0.2560826    0.1860904 -47.08 0.0005981512    1.578    0.366
        77  -8.1777    113.9558    224.0310   1.0011532304e+02   1.2337014739e+01    0.2128366    0.1493549  65.96 0.0007227943    1.733    0.423
        78  -8.2074     59.9628    223.9488   1.1193014690e+02   1.9812955767e+01      0.21113    0.1259344  64.84  0.001126414    1.719    0.418
        79  -9.4419    225.4834    221.3580   7.6500910227e+01  -4.1025605797e+00    0.3491125    0.1787434 -28.27  0.001295086    1.863    0.463
        80  -9.2667    160.1428    221.1552   8.9567981493e+01   5.7024403700e+00    0.5802306    0.2760265  53.76  0.002101364    3.723    0.731
        81  -9.1423    238.8788    221.6122   7.4125396270e+01  -5.9265427544e+00    0.2168515    0.1568795 -32.12  0.000641581    1.394    0.283
        82  -9.3590    192.3321    221.3308   8.2896227025e+01   6.8450454218e-01    0.2755916     0.247677 -80.16  0.001128559    1.759    0.431
        83  -9.2891    120.2281    219.1701   9.8040417187e+01   1.2356379849e+01    0.4531509    0.2529737  61.54   0.00162887    2.710    0.631
        84  -9.0618     82.9870    220.7846   1.0657817930e+02   1.7477379591e+01    0.2871336    0.1590114  65.04  0.001204128    2.279    0.561
        85  -8.0715     73.1529    220.7501   1.0874442063e+02   1.8807413760e+01    0.2231731     0.110792  65.72 0.0009376774    2.753    0.637
        86  -7.7635     27.4706    221.5124   1.1851140727e+02   2.3995277828e+01    0.1167989    0.0980804  76.91 5.340167e-05    1.054    0.051
        87  -8.2536    202.7873    220.0583   8.0595086527e+01  -6.6821841481e-01    0.1788446    0.1710697  -0.66 0.0006768171    1.328    0.247
        88  -8.7954    249.2631    218.4970   7.1766336937e+01  -6.8097700410e+00    0.2529082     0.199767  65.69  0.001392258    3.150    0.682
        89  -8.1266    221.6530    219.7105   7.6919654118e+01  -3.3243934408e+00    0.1325519   0.08383822  -0.22 0.0007025452    1.660    0.397
        90  -8.4824    210.0431    219.1047   7.9014743734e+01  -1.5779194464e+00    0.1927906    0.1643406  -1.53 0.0004819868    1.077    0.072
        91  -9.2904    133.1509    216.2810   9.4715435750e+01   1.0913007246e+01    0.5071691    0.3196713  74.18   0.00209346    3.080    0.675
        92  -8.4270    179.3799    217.6023   8.4905371745e+01   3.3104439833e+00     0.232321    0.1236578 -58.31  0.000945669    3.186    0.686
        93  -8.4313     61.9385    217.2610   1.1084106770e+02   2.0993042824e+01    0.3137437     0.166341  74.33  0.001193547    2.447    0.591
        94  -8.9582     51.5398    217.0145   1.1308489133e+02   2.2309418201e+01     0.265022    0.1607982 -84.99  0.000910608    1.679    0.404
        95  -8.8360    142.9857    216.4550   9.2552094334e+01   9.3133235033e+00    0.2891735    0.2188006 -86.69   0.00124323    2.008    0.502
        96  -8.1623    111.8046    217.0404   9.9634221593e+01   1.4079570263e+01    0.2199928    0.1491025  75.06  0.001068167    2.050    0.512
        97  -8.6045    169.1768    216.0241   8.6783448462e+01   5.2024445078e+00    0.2668358      0.20625 -76.69 0.0007681949    2.118    0.528
        98  -8.5975    186.2373    215.0478   8.3042458980e+01   2.6836243732e+00    0.3059825    0.2359244 -81.33  0.001527239    2.541    0.606
        99  -8.3611     18.4081    216.2389   1.1998651264e+02   2.6010708955e+01    0.1665131   0.09330218  86.62 0.0009470478    1.632    0.387
       100  -8.8427    232.3095    214.3582   7.4004087232e+01  -3.9841329577e+00    0.2913755    0.1779865 -38.84  0.001144189    1.666    0.400
       101  -8.5009    154.3031    214.6877   8.9771974271e+01   7.8351962099e+00    0.1986099    0.1927321  54.86 0.0006460131    1.204    0.170
       102 -10.1407    154.6061    210.5766   8.9017562865e+01   8.5713404064e+00    0.3449668    0.2547923 -21.69 0.0005635105    1.513    0.339
       103  -9.5282    214.1684    212.5403   7.7046682907e+01  -1.1329032065e+00    0.3643421    0.2806481  54.99    0.0015827    2.041    0.510
       104  -9.0007     93.0022    213.9744   1.0349249764e+02   1.7512900596e+01    0.3454726    0.1826856  54.01   0.00145746    2.067    0.516
       105  -9.4283     73.2291    211.9908   1.0774938799e+02   2.0684284508e+01    0.6885653    0.2627335  56.80  0.002373197    3.903    0.744
       106  -7.8519    224.8636    212.7804   7.5079155070e+01  -2.7091356849e+00     0.159434    0.1415788 -26.36 0.0005519598    1.333    0.250
       107  -8.9378    161.5232    212.1799   8.7775172180e+01   7.1414879173e+00    0.2464931    0.1942261 -62.41 0.0006706785    1.644    0.392
       108  -8.2173    106.4968    212.9077   1.0026408325e+02   1.5745629060e+01    0.1882874    0.1343088 -64.10 0.0007402789    1.527    0.345
       109  -9.0405    204.1431    210.8831   7.8691039847e+01   6.3284859502e-01    0.2907775     0.197527 -45.91  0.000664327    1.708    0.414
       110  -9.3238      7.1959    210.0869   1.2186500040e+02   2.8350371391e+01    0.4929903    0.1514117  75.10  0.001544593    5.918    0.831
       111  -7.7061    242.6650    211.7403   7.1691858086e+01  -4.9856150060e+00    0.1252647   0.07964057  -0.98  0.000291063    1.575    0.365
       112  -8.1880    192.4673    210.4777   8.0954717714e+01   2.5008371587e+00    0.2050357    0.1270695 -51.29 0.0004850644    2.043    0.511
       113  -9.5237    175.3774    209.9263   8.4407353257e+01   5.3162921983e+00    0.3517009    0.2780932  77.53  0.001394147    2.148    0.534
       114  -8.9734    147.9684    210.5301   9.0481834907e+01   9.6630684291e+00    0.2809204     0.220307  69.48  0.001204046    1.746    0.427
       115  -9.0450    116.3240    210.3806   9.7643003516e+01   1.4767269033e+01     0.346005    0.2365057  71.73   0.00115438    2.018    0.504
       116  -9.2175    236.4950    208.4166   7.2171550348e+01  -3.6579928682e+00    0.2924444    0.2414615 -57.98  0.001326502    1.999    0.500
       117  -8.7193     85.4912    209.3732   1.0462628058e+02   1.9579788847e+01    0.3162327    0.1929924  76.60 0.0009365311    2.218    0.549
       118  -8.3340     46.4833    209.4787   1.1348318635e+02   2.4546444767e+01    0.2913602    0.1393933  74.73  0.001245043    2.776    0.640
       119  -7.8035     32.2888    210.5989   1.1667171460e+02   2.5848752336e+01    0.1347183   0.07473263  68.33 0.0006994514    1.794    0.442
       120  -8.6604    125.7105    207.5838   9.5053815304e+01   1.3866150039e+01    0.4211583    0.2561806  76.04  0.001596152    3.435    0.709
       121  -9.4921    246.5015    207.2298   7.0205352636e+01  -4.8263886166e+00    0.2773963    0.1856755 -27.75 0.0007139011    1.277    0.217
       122  -9.3573    250.1277    201.9803   6.8620926767e+01  -4.5266670396e+00    0.3520997    0.1543991 -35.09  0.001337306    1.970    0.492
       123  -8.4867    139.0262    208.0239   9.2079028817e+01   1.1620253278e+01    0.2152059    0.1676182  70.43 0.0006055571    1.704    0.413
       124  -9.3487     99.3370    206.2503   1.0098884555e+02   1.8251105575e+01    0.3963186    0.2530875  73.18   0.00151697    2.161    0.537
       125  -8.4296    108.7234    205.3391   9.8659415758e+01   1.7020960842e+01    0.2410031    0.2211837  -5.71  0.001430434    1.214    0.176
       126  -8.5271     56.1927    205.4412   1.1090051255e+02   2.4304755301e+01    0.2782404     0.161058  69.15 0.0009026325    1.938    0.484
       127  -9.4284    195.1343    203.5717   7.9149243738e+01   3.2825051965e+00    0.4001317    0.3104739 -26.13  0.001465012    1.221    0.181
       128  -9.3715    192.3570    197.4022   7.8558104053e+01   4.8281037162e+00    0.3411037    0.2407917 -53.37 0.0008558717    1.788    0.441
       129  -9.0805    183.9251    204.1760   8.1570329567e+01   4.9771536731e+00    0.3394288    0.2427847  61.49  0.001178105    2.243    0.554
       130  -8.7404    131.2059    203.9069   9.3195660511e+01   1.3741898912e+01     0.325043    0.2231479  78.21  0.001103524    2.382    0.580
       131  -8.5663     24.8166    205.0164   1.1783168605e+02   2.7837021049e+01    0.2134644    0.1086862  72.07  0.001013346    2.042    0.510
       132  -7.6595    218.3296    204.3087   7.4741305356e+01  -4.1634647214e-01    0.1373482   0.08954022  -3.12  0.000406145    1.663    0.399
       133  -9.5611    163.7716    202.8764   8.5657425853e+01   8.5428009851e+00    0.3966057    0.3039752  64.54  0.001085252    1.855    0.461
       134  -8.5269    211.0915    202.1970   7.5729520504e+01   1.0248529447e+00    0.2189025    0.1724951 -62.22 0.0004738485    2.008    0.502
       135  -9.1483    243.0666    200.7519   6.9598553792e+01  -3.3912759389e+00    0.3358215    0.1614555 -35.16  0.001101635    1.826    0.452
       136  -9.0407    140.3023    200.8580   9.0585989119e+01   1.2871444825e+01    0.3691939    0.2614951 -81.55  0.001708327    2.223    0.550
       137  -8.3748     79.9777    201.3956   1.0489209994e+02   2.2125448549e+01    0.3092293    0.1788953  70.46  0.001361194    2.335    0.572
       138  -8.3878     48.4037    202.2098   1.1234264688e+02   2.5955951326e+01    0.1820378    0.1100915 -88.50 0.0009411717    1.705    0.413
       139  -7.8834     10.4935    202.5118   1.2070019851e+02   2.9715788982e+01    0.1195993   0.09479818  79.66 0.0008104843    1.017    0.017
       140  -7.9420    221.8495    201.0930   7.3477573018e+01  -4.1559214510e-01    0.1895176     0.148866 -58.99 0.0007908577    1.985    0.496
       141  -9.2515    237.0179    198.6664   7.0264555909e+01  -2.2274619411e+00    0.2923915     0.165782 -42.33 0.0009854392    1.830    0.453
       142  -9.4008    149.5757    198.5891   8.8067309685e+01   1.1777746028e+01    0.4394796    0.3155607 -89.52  0.001412648    2.452    0.592
       143  -8.9358    123.8608    199.3609   9.4166679704e+01   1.5902517142e+01    0.3325762    0.2384475  78.12  0.001567467    2.009    0.502
       144  -9.1920    112.8059    198.4178   9.6637342445e+01   1.7888121355e+01    0.4671141    0.3010554  72.12   0.00184002    2.334    0.572
       145  -9.2885     88.6851    198.4656   1.0242343727e+02   2.1552583149e+01     0.447653     0.271899 -87.01  0.001883919    2.255    0.557
       146  -8.5905    177.0182    199.0208   8.2079200076e+01   7.0657458939e+00    0.2074568    0.1951528   8.64 0.0005042694    1.113    0.102
       147  -8.3205    202.3091    197.8294   7.6627148135e+01   3.1453001091e+00    0.2289038    0.2043608 -60.96 0.0008560618    1.554    0.357
       148  -8.5144    132.8766    197.0596   9.1660972906e+01   1.4905262149e+01    0.3645001    0.1546564 -49.77  0.001435047    2.430    0.588
       149  -9.3027     61.3946    196.9916   1.0875277018e+02   2.5587497642e+01    0.4466002    0.2235748  68.51   0.00172495    2.831    0.647
       150  -9.1097     12.8028    197.4629   1.1985741411e+02   3.0638185293e+01      0.31463    0.1316305  80.74  0.001391946    2.704    0.630
       151  -9.3161    245.6778    193.6755   6.7818581664e+01  -2.6642933177e+00    0.3792748    0.2645532 -57.36  0.002001789    2.464    0.594
       152  -8.5832    215.8959    195.5737   7.3550325813e+01   1.4000482958e+00    0.2479178    0.1681591 -52.25 0.0009067921    1.965    0.491
       153  -8.8953    185.4206    195.0363   7.9547672646e+01   6.4071212657e+00    0.2682053    0.2321292 -77.68 0.0005985126    1.700    0.412
       154  -8.7505    224.4569    194.1226   7.1667333159e+01   3.3631578506e-01    0.3356975    0.1893209 -46.93  0.001496606    2.058    0.514
       155  -9.0321    160.9348    194.3614   8.4733948028e+01   1.0693379466e+01    0.2837021    0.2431247  88.00 0.0009138224    1.620    0.383
       156  -8.9609     43.7653    193.5623   1.1253246816e+02   2.8466091641e+01    0.4211589    0.2104975  74.96  0.001819814    2.594    0.615
       157  -8.1879    230.6594    194.2336   7.0557228342e+01  -6.0533600898e-01    0.1822277    0.1039791 -28.85 0.0005151569    1.583    0.368
       158  -8.9005     77.0594    193.9463   1.0461206738e+02   2.4231688930e+01    0.2498369    0.2021431  74.09  0.000697616    1.253    0.202
       159  -7.8268    205.2377    191.9527   7.4916606010e+01   3.7066462364e+00      0.17324    0.1066655 -38.17  0.000390735    1.554    0.356
       160  -8.3739    198.9714    191.5693   7.6091650189e+01   4.7949326245e+00    0.2485037    0.1848086 -51.18 0.0007478687    1.627    0.386
       161  -8.0887    178.9545    191.9099   8.0320385891e+01   8.0864324671e+00    0.2022419    0.1776389  89.79 0.0005715318    1.642    0.391
       162  -8.5989    172.2926    191.7804   8.1736323824e+01   9.2514554566e+00    0.2497736    0.2184354 -75.70  0.001184822    1.549    0.355
       163  -9.1079    139.5033    190.7906   8.9002029453e+01   1.5115883608e+01    0.3463549    0.2666163  83.82  0.001063386    1.881    0.468
       164  -8.7441      6.6931    190.8706   1.2071805723e+02   3.2639489557e+01    0.3016617     0.112158  81.42  0.001204045    3.306    0.698
       165 -10.4942     92.3361    188.8283   1.0013248009e+02   2.3222422521e+01     1.034937    0.3037553  45.86  0.003260529    3.779    0.735
       166  -8.8113    148.2788    189.3606   8.6689635614e+01   1.3902147680e+01    0.2956463    0.1732343 -56.60   0.00117077    1.997    0.499
       167  -8.9939    129.3409    188.7496   9.1053596802e+01   1.7290937967e+01    0.3160441    0.2368049  77.82 0.0009843105    1.868    0.465
       168  -8.3787    237.1975    188.4839   6.8288327455e+01  -6.3759864237e-01    0.2352869    0.1521232 -32.36 0.0005459991    1.348    0.258
       169  -8.9005    216.6455    188.0004   7.1938346118e+01   2.5717421733e+00    0.2834397    0.2116526 -49.13 0.0008546024    1.613    0.380
       170  -8.7933    191.6215    187.6808   7.6830715128e+01   6.7308090502e+00    0.3047941    0.2253997 -76.48  0.001041832    2.565    0.610
       171  -9.2900    155.9940    187.6334   8.4588086606e+01   1.2914198892e+01     0.363239    0.2306283 -58.46 0.0008155926    1.940    0.484
       172  -9.7243    120.7793    186.4923   9.2731546375e+01   1.9232956125e+01    0.5561211    0.3129316 -73.24  0.002110264    2.894    0.654
       173  -9.3279     34.0716    187.8135   1.1423361645e+02   3.0841607220e+01    0.3696355    0.1800106  85.28  0.001619959    2.449    0.592
       174  -9.4679    248.5444    186.1110   6.5891054927e+01  -1.8889433194e+00    0.3578982    0.2385756 -11.03  0.001674224    1.465    0.317
       175  -8.7869    241.4064    192.2020   6.8270790581e+01  -1.8352820988e+00    0.1830367    0.1430877 -24.47 0.0004189091    1.118    0.105
       176  -8.3109    230.4997    187.5131   6.9287442010e+01   5.1473290523e-01    0.2313768    0.1128394 -46.99 0.0009974008    2.384    0.581
       177  -9.1962     54.6645    186.8607   1.0917697530e+02   2.8781233008e+01    0.4200484    0.2276829  73.97   0.00145799    2.428    0.588
       178  -8.7100    164.8335    186.8987   8.2447303689e+01   1.1513545524e+01    0.2463504    0.2045143 -72.79  0.000752684    1.619    0.382
       179  -9.1747    109.5718    186.0197   9.5409360017e+01   2.1183472887e+01    0.4099163    0.2743291  78.28  0.001130463    2.237    0.553
       180  -8.7385    182.9953    185.1868   7.8146465143e+01   8.6788654499e+00    0.2907801    0.1894764 -50.01 0.0007859732    1.715    0.417
       181  -8.5353    210.1571    184.4770   7.2484702124e+01   4.2275220392e+00     0.239066    0.1722037 -33.53 0.0004963152    1.285    0.222
       182  -8.7208    202.8037    184.5932   7.3951251297e+01   5.4190580495e+00    0.2515941    0.1761687 -53.81 0.0008441437    1.815    0.449
       183  -8.9986     66.4059    184.3552   1.0595696516e+02   2.7910899538e+01    0.3789307    0.2388911  82.31  0.001224204    1.932    0.482
       184  -8.6006    223.8898    183.5450   6.9708469951e+01   2.1929614419e+00    0.2402168     0.167165 -31.79 0.0005373632    1.281    0.219
       185  -8.9891    174.2088    183.4454   7.9696217098e+01   1.0553810549e+01    0.3014033    0.2257863 -55.85  0.001084622    1.592    0.372
       186  -8.2603      2.1400    183.9301   1.2123936152e+02   3.4575726729e+01    0.2088026    0.1212602  49.37  0.001230465    1.667    0.400
       187  -8.0924    242.6637    183.3454   6.6347074406e+01  -6.1047102161e-01     0.118761    0.1011676 -60.83 0.0007048966    1.772    0.436
       188  -9.1747     44.2312    182.3137   1.1120754814e+02   3.1063555624e+01    0.3284824    0.1945494  79.38 0.0009696014    1.908    0.476
       189  -8.5871     19.8053    182.9914   1.1713739442e+02   3.3338421835e+01    0.2190365    0.1149373  73.06  0.001078289    2.027    0.507
       190  -9.3820    147.4784    180.6678   8.5228319539e+01   1.5882218091e+01    0.3541859    0.2776468 -84.93  0.001042944    1.829    0.453
       191  -9.6865     25.8315    179.2565   1.1536613714e+02   3.3667744134e+01     0.658201    0.2628449  77.35  0.002235859    4.325    0.769
       192  -8.0854    235.4502    181.5167   6.7234268953e+01   7.5498455437e-01    0.1319696    0.1097866 -17.90 5.962203e-05    1.037    0.035
       193  -8.0176    240.3736    180.2051   6.6123895887e+01   2.3247361674e-01    0.1802883    0.1074946 -41.51 0.0009410683    1.618    0.382
       194  -8.6115    137.6731    179.4220   8.7327920351e+01   1.7893289557e+01    0.3433533    0.2406542  72.36  0.001272885    2.212    0.548
       195  -8.8604    204.9419    177.9146   7.2183715571e+01   6.2724533567e+00    0.3250074    0.1891583 -39.53  0.001029557    1.620    0.383
       196  -9.2907    191.5876    178.4369   7.4987511780e+01   8.4725919625e+00    0.3003558    0.2690186  77.02 0.0006781067    1.558    0.358
       197  -8.0571    169.1176    178.6610   7.9864335027e+01   1.2417850734e+01    0.2376263    0.1949381 -54.99  0.000566261    1.391    0.281
       198  -9.1033     36.0688    176.9698   1.1263028259e+02   3.3211717146e+01    0.5413105    0.2272716  75.39  0.001750265    4.608    0.783
       199  -9.5414    248.5454    176.4644   6.4018126197e+01  -3.6542950012e-01    0.4752986    0.2473017 -47.04  0.002027901    2.181    0.542
       200  -8.5949    250.5281    172.8804   6.2990740300e+01  -8.1664817664e-02    0.2294947    0.1538968 -36.62 0.0005033746    1.313    0.238
       201  -8.6377    231.1066    177.0190   6.7106757855e+01   2.1687039329e+00    0.2590609    0.1711948 -40.87 0.0007138734    1.461    0.316
       202  -8.3965    217.4807    177.4273   6.9674083073e+01   4.2731787345e+00    0.2110314    0.1812503 -63.70 0.0005832577    1.635    0.388
       203  -8.6966    129.0481    177.4204   8.9051806931e+01   1.9854143741e+01     0.273887    0.2108071 -76.12 0.0007468453    1.639    0.390
       204  -8.9688    183.0538    176.2809   7.6340226520e+01   1.0393997913e+01    0.2863826    0.2273925 -65.15 0.0006877367    1.700    0.412
       205  -9.4082    104.2474    174.9229   9.4846896591e+01   2.4620506397e+01    0.5709433    0.3251824  60.70  0.002225966    2.503    0.600
       206  -7.8843     97.5274    177.5349   9.7021009891e+01   2.5073608164e+01      0.14124    0.1384312 -32.21 0.0007163794    1.069    0.065
       207  -9.0472     89.0294    176.8155   9.9088408994e+01   2.6546597890e+01    0.2886004    0.2202517  81.82 0.0009431113    1.523    0.344
       208  -9.3452     58.7235    175.4783   1.0671880656e+02   3.1019504720e+01    0.4926008    0.2654327  73.41  0.001999064    2.701    0.630
       209  -9.1957     55.7470    170.7464   1.0685181232e+02   3.2535949546e+01    0.4445534    0.2374663 -86.29  0.001226308    2.375    0.579
       210  -9.0428     12.7673    175.8542   1.1817954747e+02   3.5616480460e+01    0.4172508    0.1535855 -83.69   0.00172509    2.748    0.636
       211  -9.2602    158.8550    175.0899   8.1469104890e+01   1.5013164315e+01    0.3968736    0.2988814  81.24  0.001468249    2.158    0.537
       212 -10.7261     75.8366    170.1308   1.0147057291e+02   3.0074351507e+01      1.29407    0.5172399 -74.80  0.003821768    4.515    0.779
       213  -8.2645    224.5627    174.6970   6.7814094123e+01   3.6000357534e+00     0.177352    0.1184144 -43.56 0.0006753349    1.517    0.341
       214  -8.0768    149.6717    174.7216   8.3539089869e+01   1.6763529483e+01    0.1503315    0.1139278  -2.76  0.000287547    1.596    0.373
       215  -8.3363    193.7352    172.9547   7.3418568114e+01   9.1372881385e+00    0.2991725     0.174156  12.64  0.001178848    2.658    0.624
       216  -9.5826    175.7918    171.9801   7.7021923361e+01   1.2558237518e+01    0.4207123    0.2388346 -41.92  0.001097902    1.718    0.418
       217  -8.5759    143.0144    172.9528   8.4774931633e+01   1.8357076219e+01    0.2302098    0.1849937  78.01 0.0006317199    1.686    0.407
       218  -8.8389    134.7254    171.8918   8.6584423825e+01   2.0088958105e+01    0.2646526    0.2106324 -72.61 0.0008808148    1.533    0.348
       219  -9.5208    121.4902    170.4329   8.9609977650e+01   2.2765238302e+01    0.4577614    0.3028028 -74.48  0.001152418    2.101    0.524
       220  -9.2899     44.8927    170.2994   1.0961722481e+02   3.3893853565e+01      0.54119    0.2442641 -77.91  0.001845993    2.410    0.585
       221  -8.7819    230.3684    170.2480   6.5872172274e+01   3.4325405450e+00    0.2338272    0.1517731 -40.67 0.0007100118    1.449    0.310
       222  -8.5445    205.8051    170.2999   7.0448018589e+01   7.5200182490e+00    0.3171305    0.1762325 -52.91  0.001069031    2.314    0.568
       223  -8.2100    237.1229    169.5806   6.4564302702e+01   2.4791185813e+00    0.2243319    0.1566606 -40.89 0.0005618556    1.377    0.274
       224  -8.5181    198.4531    170.1570   7.1877042056e+01   8.8331610688e+00    0.2063166    0.2008542  81.56  0.000581747    1.310    0.237
       225  -9.2489    167.2892    168.8058   7.8248986853e+01   1.4772374983e+01    0.3513172    0.2733806  79.83   0.00107524    1.994    0.498
       226  -8.6256    149.9739    169.8195   8.2473566630e+01   1.7766970906e+01    0.2916778    0.2175861  81.83   0.00106919    2.128    0.530
       227  -8.4533    244.3168    169.0180   6.3241438523e+01   1.4661197492e+00    0.1892729    0.1417935 -30.31 0.0005162534    1.129    0.115
       228  -8.4657     88.4898    168.5357   9.7854803287e+01   2.8621179883e+01    0.2489034    0.1403895 -73.15 0.0008080834    2.194    0.544
       229  -8.3288    218.8181    168.2149   6.7540360131e+01   5.6776223957e+00    0.1983082     0.175757 -39.58 0.0005937406    1.230    0.187
       230  -7.9941    211.3728    168.1534   6.8925689521e+01   6.9521664891e+00    0.2007397    0.1209315 -47.80 0.0005211113    1.783    0.439
       231  -8.5102    111.5102    167.4608   9.1605119251e+01   2.5176026497e+01    0.3205968    0.2151171  75.10 0.0008641006    2.294    0.564
       232  -8.9705     12.8231    167.3197   1.1741678619e+02   3.7637675810e+01     0.312787    0.1428635  86.42  0.001397961    2.390    0.582
       233  -8.9882    191.9497    166.6740   7.2469525982e+01   1.0661781651e+01    0.2745055    0.1993664 -45.17 0.0006632454    1.398    0.285
       234  -9.0520    185.0350    166.5071   7.3879657007e+01   1.1955989016e+01     0.266882    0.1974031 -54.02 0.0005994084    1.559    0.359
       235  -9.8430     95.0853    162.4547   9.5015174359e+01   2.9074416670e+01    0.9641268    0.5962958 -86.57  0.002971056    2.571    0.611
       236  -9.0899     20.3734    166.2436   1.1543229085e+02   3.7274367625e+01    0.3295353    0.1558871  68.41  0.001331646    2.634    0.620
       237  -9.9647    136.5931    164.4080   8.4611364799e+01   2.1431441989e+01    0.6202709    0.3839308  57.94  0.002110489    2.160    0.537
       238  -7.7509    250.5433    165.4788   6.1522888178e+01   1.1052834128e+00    0.1318786    0.1044316 -19.91 9.011241e-05    1.060    0.057
       239  -8.2516    233.8679    165.0775   6.4207949568e+01   3.7535059333e+00    0.1956027    0.1621117 -40.79 0.0004737377    1.258    0.205
       240  -8.6337    159.6698    164.2827   7.9037078629e+01   1.7147593200e+01     0.248329    0.2282597 -75.70 0.0007927568    1.295    0.228
       241  -9.4616     33.6132    163.5040   1.1172879501e+02   3.6728813010e+01    0.5967576    0.2261681  51.57  0.001996464    3.217    0.689
       242  -9.6825    243.2296    149.9790   5.9545766581e+01   4.7975523700e+00    0.3344105    0.2621906  55.71  0.001965528    1.695    0.410
       243  -9.2168    245.9946    163.0295   6.1764312204e+01   2.1929389396e+00    0.4310544    0.1537936 -39.10    0.0010095    2.386    0.581
       244  -8.9289    237.4285    150.4932   6.0592504357e+01   5.6602022119e+00    0.2441155    0.1569736  10.41 0.0009661068    2.208    0.547
       245  -9.1281    242.8379    154.8433   6.0610650435e+01   4.0454070532e+00    0.2396179     0.186291  80.83 0.0003768637    2.286    0.563
       246  -9.0622    243.8130    159.1919   6.1341446997e+01   3.1657420988e+00    0.3423436    0.1918698  17.73   0.00151877    2.756    0.637
       247  -9.7823    250.1529    157.8421   6.0053885332e+01   2.4051228877e+00    0.3337593      0.18163 -40.04 0.0007697017    1.588    0.370
       248  -8.7937    246.6986    155.6862   6.0163506140e+01   3.2945611009e+00     0.240562    0.1598286 -11.39 0.0006753675    1.712    0.416
       249  -8.0389    240.0175    164.2972   6.3005359604e+01   2.9100643241e+00    0.1803784    0.1541362 -20.86 0.0004762445    1.046    0.044
       250  -8.4186    213.0039    163.7457   6.7693113526e+01   7.4716162345e+00    0.2501221    0.1799545 -37.31 0.0006440741    1.278    0.218
       251  -9.5767      3.6756    162.5856   1.1925376965e+02   3.9447158881e+01    0.4159278    0.1962577  49.60  0.001758065    2.207    0.547
       252  -8.4317    204.9179    163.0393   6.9094742478e+01   9.0218213064e+00     0.207934    0.1854932 -52.89 0.0005122997    1.312    0.238
       253  -8.9030    151.5159    160.9924   8.0254071439e+01   1.9398102387e+01    0.3408983    0.2582463 -79.20 0.0008747764    1.925    0.480
       254  -9.0439    177.3485    160.6416   7.4272278478e+01   1.4562838981e+01    0.2851304     0.255851 -62.65 0.0008536997    1.313    0.239
       255  -8.5905     60.8596    160.6040   1.0402276428e+02   3.4410029556e+01    0.3687506    0.1914044  58.20    0.0014673    2.528    0.604
       256  -8.4272    227.4089    159.1758   6.4111005853e+01   5.8297328738e+00    0.2485795    0.1860899 -55.16 0.0009034638    1.650    0.394
       257  -8.4036    128.1244    159.1988   8.5665208495e+01   2.4173328022e+01    0.2747106    0.2018584 -84.21  0.000681704    1.968    0.492
       258  -9.6126    105.8061    157.8433   9.1251095981e+01   2.8431657734e+01    0.5354648    0.3569416  75.32  0.001128795    2.339    0.572
       259  -8.1854    237.2707    158.9372   6.2369446110e+01   4.2492897426e+00     0.196154    0.1486405 -30.45 0.0005245731    1.122    0.108
       260  -8.2874    196.7715    158.0421   6.9635300427e+01   1.1443664355e+01    0.2142345     0.190351 -58.07 0.0008425422    1.328    0.247
       261  -8.0236    188.0361    157.9632   7.1408078836e+01   1.3084832981e+01    0.2146517    0.1796118 -72.85 0.0005507492    1.610    0.379
       262  -9.0708    167.6346    157.3308   7.5706825275e+01   1.7098350181e+01    0.3320591    0.2709286  89.58  0.001039007    1.758    0.431
       263  -8.0550     79.5193    158.4794   9.8544290202e+01   3.2413483032e+01     0.241111    0.1460805  16.40 0.0008222986    2.206    0.547
       264  -9.4032     81.7785    154.9722   9.7293568229e+01   3.2949574600e+01    0.4955965    0.3249533  82.86  0.001376681    2.202    0.546
       265  -8.5116    218.0205    156.5896   6.5246628605e+01   7.8943805369e+00    0.2702252    0.1761261 -50.74 0.0009371518    1.722    0.419
       266  -8.9817    157.5868    156.4058   7.7819848467e+01   1.9230724709e+01    0.3131226    0.2414278 -82.28  0.001017497    1.921    0.479
       267  -9.0669     22.5092    156.6788   1.1386884718e+02   3.9418872088e+01    0.3117097       0.1673 -27.93  0.001383617    2.924    0.658
       268  -9.2244    119.5147    155.2616   8.7076967313e+01   2.6652375931e+01    0.3789091    0.2869984 -86.95   0.00160479    1.802    0.445
       269  -9.2784     49.6209    155.4748   1.0635051270e+02   3.7029711958e+01    0.3917864    0.2098698  60.84  0.001660688    2.443    0.591
       270  -7.8609    204.9467    155.4639   6.7462606375e+01   1.0434370347e+01    0.1713394    0.1294219  75.35 0.0004879242    2.182    0.542
       271  -8.4851    144.3854    154.7128   8.0620545078e+01   2.2141585654e+01    0.2858447    0.2260333  84.07  0.001127125    1.783    0.439
       272 -10.0021    133.1434    151.8985   8.2820498853e+01   2.4917296764e+01    0.7244458    0.3876281 -49.32  0.001615854    1.854    0.461
       273  -9.2399     67.9071    153.7038   1.0095797943e+02   3.5215919750e+01     0.460252    0.2822417  79.07  0.001347503    2.398    0.583
       274  -8.6601    151.5375    152.9733   7.8497784884e+01   2.1146385774e+01    0.2348017    0.1479408 -47.03  0.001020784    1.574    0.365
       275  -8.3802     20.2293    152.7832   1.1404066116e+02   4.0564594229e+01    0.1707419    0.1312224 -55.96 0.0006424357    1.247    0.198
       276 -10.0048     29.3250    150.5506   1.1129883388e+02   4.0328629075e+01    0.5811427    0.2817365  79.06  0.002277415    3.079    0.675
       277  -9.5419    248.8839    149.3864   5.8534602184e+01   3.9911890182e+00    0.3325304    0.1658671 -39.84 0.0007083557    1.699    0.411
       278  -9.1517    247.0468    143.8853   5.7687532124e+01   5.1967937629e+00    0.2532363    0.1560275 -37.32 0.0005301945    1.361    0.265
       279  -8.7983    189.2788    150.2394   6.9443736009e+01   1.4372415846e+01    0.3012527    0.2158938 -50.23 0.0007515649    1.478    0.323
       280  -8.0955    182.4283    151.1918   7.1092863771e+01   1.5502338262e+01    0.2078302    0.1361059 -53.16 0.0007183356    1.716    0.417
       281  -8.3732    162.6599    150.7117   7.5370346743e+01   1.9461819854e+01    0.2827501    0.2179273 -86.04 0.0008693184    1.975    0.494
       282  -8.6824     98.2133    150.7070   9.1900992259e+01   3.1425723394e+01    0.3094182    0.2288553  88.99  0.001064262    1.792    0.442
       283  -8.9361      2.5912    150.2707   1.1844605798e+02   4.2466163599e+01    0.3001948    0.1318988 -82.09  0.001416935    2.024    0.506
       284  -8.3637    213.0446    149.8444   6.4709063455e+01   1.0006575620e+01    0.2034186    0.1833855 -52.28 0.0003733332    1.254    0.203
       285  -9.9348     39.8826    147.9250   1.0799021329e+02   3.9963856705e+01    0.5811384    0.2939926  67.37  0.001886385    3.032    0.670
       286  -8.0040    229.0000    148.9522   6.1680641985e+01   7.3487163811e+00    0.2245677   0.06924672 -39.23 0.0005097248    2.840    0.648
       287  -8.4148    198.7685    148.8753   6.7223688624e+01   1.2830784201e+01    0.2586254    0.1891574 -56.00 0.0006316001    1.606    0.377
       288 -10.0876     89.1564    146.2938   9.3559897835e+01   3.3966085318e+01    0.6762968    0.4032817 -88.14  0.002407652    3.149    0.682
       289 -10.4278     54.9614    144.8332   1.0317606068e+02   3.9071841349e+01    0.8449478       0.4284  68.44  0.002862019    3.802    0.737
       290  -9.7466     55.4694    136.0356   1.0150903688e+02   4.1216525288e+01    0.4792695    0.2694861  -6.11  0.001810167    3.308    0.698
       291  -9.4931    233.3857    147.7002   6.0675346888e+01   6.8175069014e+00    0.2663798    0.1444387 -36.48  0.000673242    1.598    0.374
       292 -10.2833    106.7432    144.1962   8.8175216272e+01   3.1552245465e+01    0.7740251    0.5251143 -86.47  0.002274064    2.331    0.571
       293  -9.0670     77.9813    147.0349   9.6900213616e+01   3.5474203379e+01    0.3148018    0.1960574 -88.54 0.0008306402    2.414    0.586
       294  -8.2463    223.3051    146.9742   6.2241907158e+01   8.6903878653e+00     0.200004    0.1583666 -33.00 0.0004141516    1.110    0.099
       295 -10.2784    148.8868    144.9038   7.7313604293e+01   2.3438198394e+01    0.5643283    0.4025163 -82.27  0.001478276    2.316    0.568
       296 -10.0182    139.0306    144.9532   7.9770313589e+01   2.5365049099e+01    0.5401177    0.3415529 -70.34  0.001424254    2.496    0.599
       297  -9.4490    139.5056    137.5423   7.7925862999e+01   2.6937308645e+01    0.4464506    0.2928701   3.09  0.001690048    2.543    0.607
       298  -8.8195      8.4640    153.0000   1.1717565891e+02   4.1410417054e+01    0.2355668   0.07273027  20.36 0.0009326015    3.917    0.745
       299  -9.5375     13.2418    146.0349   1.1518212370e+02   4.2760902651e+01    0.3805785    0.2147425  82.54  0.001410862    1.910    0.476
       300 -10.2075    241.2267    137.9942   5.7360780542e+01   7.1490455818e+00    0.4066026    0.3007802 -63.65  0.002208726    1.804    0.446
       301  -9.4636    240.1900    145.2111   5.9040251393e+01   6.1004873424e+00    0.2583418    0.1670125 -40.72 0.0006435336    1.362    0.266
       302  -8.2280    175.6754    146.2052   7.1421099799e+01   1.7835936089e+01    0.2290822    0.1848992 -61.03 0.0007042848    1.456    0.313
       303  -8.8350    165.7935    144.1701   7.3157886743e+01   2.0225346266e+01    0.3090019    0.2371533  68.21 0.0007873592    1.749    0.428
       304  -9.8413    125.0848    142.7567   8.2877680299e+01   2.8549190371e+01    0.5816067    0.3917784 -78.92  0.001456456    2.391    0.582
       305  -7.7971    194.3979    144.2213   6.7049487392e+01   1.4564035470e+01    0.2027072    0.1311888 -48.92 0.0004144475    1.596    0.374
       306  -9.3712    242.6857    143.3100   5.8246920164e+01   6.0076588146e+00    0.3065308    0.1859483 -27.91   0.00113639    1.540    0.351
       307  -8.7624    182.3077    142.0429   6.9039880940e+01   1.7365773857e+01    0.3635401    0.2376507 -63.47  0.001353222    2.197    0.545
       308 -10.8104     69.3245    139.3434   9.7970391484e+01   3.8611179444e+01    0.9362391    0.5098823 -64.94  0.003054575    1.849    0.459
       309  -9.4461     63.1987    134.2504   9.8837637681e+01   4.0698189774e+01    0.4692002    0.2737149 -22.28  0.001874391    2.666    0.625
       310  -9.4550      2.6965    141.5529   1.1758411206e+02   4.4562762256e+01    0.4331596    0.1990527  77.57  0.001903784    2.694    0.629
       311  -8.4989    250.4842    140.9292   5.6555124508e+01   5.1302479372e+00    0.2022907     0.109068 -37.74 0.0005789336    1.540    0.351
       312  -8.0138     39.6552    141.6785   1.0713952048e+02   4.1548380980e+01    0.1441949   0.09280673 -37.68 0.0006684771    1.731    0.422
       313  -7.9183    206.8057    146.3759   6.5115140817e+01   1.1796106098e+01    0.1945909    0.1659367 -41.35 0.0006489065    1.150    0.131
       314 -10.0760     23.4778    138.2112   1.1135701587e+02   4.3893768357e+01    0.5408946    0.2752839  66.29  0.002053594    2.747    0.636
       315  -8.8396    172.2151    138.1726   7.0318319583e+01   2.0181085196e+01    0.3246735    0.2324336 -59.03 0.0008175626    1.659    0.397
       316  -7.6537    218.5525    138.4935   6.1227268776e+01   1.1069257185e+01    0.1410939    0.1245903 -36.89 0.0002031864    1.077    0.071
       317  -8.4028    207.4740    138.0484   6.3130839632e+01   1.3226557514e+01    0.2188245    0.1915457 -58.79 0.0007426084    1.292    0.226
       318  -8.6036    197.6241    137.4550   6.4871787091e+01   1.5242215484e+01    0.2751366    0.1974702 -58.50 0.0009666829    1.673    0.402
       319  -8.9513    150.7740    136.3021   7.4837132070e+01   2.4943390544e+01    0.4995445     0.297972  11.77  0.001672377    3.287    0.696
       320  -9.0561     39.1236    136.1030   1.0643904950e+02   4.2996302429e+01    0.2759239    0.1982166  76.87 0.0008568576    1.609    0.378
       321  -9.1504    248.4917    135.3979   5.5709109472e+01   6.3689738270e+00    0.2713252    0.1879899 -42.61  0.000702708    1.276    0.216
       322  -9.2493    250.6521    129.8229   5.4233364322e+01   6.9305658766e+00    0.4306388    0.1057131 -38.63  0.001433221    3.366    0.703
       323  -8.0375    187.9981    135.9621   6.6447977485e+01   1.7439645266e+01    0.2246363      0.18123 -72.65 0.0005478867    1.624    0.384
       324  -8.1187    162.4601    136.5085   7.2124214930e+01   2.2515919254e+01    0.1526272    0.1464736 -31.08 0.0001565914    1.039    0.037
       325 -10.3594     83.4673    133.0625   9.2479671441e+01   3.8109853748e+01     0.534943    0.3249156 -69.48  0.001317332    1.971    0.493
       326  -8.7636     84.5045    123.1607   8.9960881371e+01   4.0361929785e+01    0.5271683    0.3329308 -20.72  0.002156207    2.257    0.557
       327  -7.9201    237.5547    133.7275   5.7030947142e+01   8.5036747925e+00     0.186758     0.111794 -45.91 0.0007858564    1.565    0.361
       328  -7.8360    231.4661    134.4747   5.8164735727e+01   9.4449741120e+00    0.1375356    0.1186361 -37.14 4.340865e-05    1.066    0.062
       329  -8.8822    179.4698    133.9165   6.7742817532e+01   1.9571530410e+01    0.2749617    0.2338796 -76.93 0.0007999213    1.479    0.324
       330  -9.0305    113.0398    133.4715   8.4009462155e+01   3.2974554329e+01    0.3340828    0.2529762  70.92  0.001008869    1.771    0.435
       331 -10.2341    131.9588    130.7601   7.8241505791e+01   2.9965044992e+01    0.5964742    0.3438593 -60.46  0.001588952    2.221    0.550
       332 -10.4708     98.4901    128.7414   8.7062336709e+01   3.6700155199e+01     1.297085     0.417033 -46.92  0.004132161    2.961    0.662
       333  -9.1679    143.0412    131.6748   7.5625676593e+01   2.7529652595e+01    0.3146281    0.2680855 -89.95 0.0008028395    1.484    0.326
       334  -9.8546     73.2333    129.5103   9.4822963336e+01   4.0508010020e+01    0.4388564    0.2984534  78.47  0.001206932    2.196    0.545
       335 -10.3616     12.8284    128.5418   1.1322594070e+02   4.7078507456e+01    0.6649908    0.3247732 -86.96  0.002597576    2.278    0.561
       336  -8.4818    246.9244    130.1995   5.4856740822e+01   7.4925805361e+00    0.1974086    0.1577164 -48.04  0.000600173    1.229    0.187
       337  -8.2782    211.6809    129.5465   6.0442403538e+01   1.3991134329e+01    0.2446717    0.1560791 -53.72 0.0007068958    1.754    0.430
       338  -8.1906    204.5061    130.0611   6.1864692838e+01   1.5292148642e+01    0.2228641    0.1318642 -41.10  0.001013138    1.548    0.354
       339  -8.0521    192.8123    130.3240   6.4163246657e+01   1.7570965185e+01    0.2062298    0.1719713 -44.20 0.0004416459    1.159    0.137
       340  -9.4400    168.2697    129.3810   6.9091847849e+01   2.2804767631e+01    0.3295356    0.2460941 -59.78  0.000774511    1.558    0.358
       341  -9.4945    152.9509    128.3302   7.2377256472e+01   2.6216754902e+01    0.6210099    0.2714814 -46.31  0.002044703    2.263    0.558
       342  -8.6903     25.3086    129.9682   1.0967032949e+02   4.5785944703e+01    0.3265561    0.1640462  -9.51  0.001310467    3.480    0.713
       343  -8.3489      2.1597    130.3923   1.1656815464e+02   4.7297158421e+01    0.1618925    0.1067262  40.31 0.0009457794    1.749    0.428
       344  -7.8069    220.4859    129.5900   5.8918815337e+01   1.2309704681e+01    0.1386876    0.1245266 -34.41 0.0001591184    1.034    0.033
       345 -10.7029     44.8069    123.4904   1.0253458121e+02   4.5555022212e+01     1.081892    0.5818539  77.77  0.003797414    3.857    0.741
       346 -10.4824     59.8180    124.9099   9.8048040365e+01   4.3454074719e+01    0.8052223    0.4876043  87.54  0.002680313    2.769    0.639
       347  -8.7069     59.4875    115.2474   9.6123110769e+01   4.5870237972e+01    0.3857732    0.2087049   7.75  0.001493708    2.918    0.657
       348 -10.0152    117.9404    125.3666   8.0696840534e+01   3.3939337723e+01    0.5747949    0.3758476  70.57  0.001311051    2.603    0.616
       349  -7.7644    228.4929    125.5174   5.6692441681e+01   1.1540425956e+01    0.1386546    0.1203961 -40.58 9.663813e-05    1.065    0.061
       350 -10.3193     28.2399    122.3216   1.0759261744e+02   4.7432259792e+01    0.7394825    0.3740291  78.80  0.002741264    3.623    0.724
       351  -8.6427     27.0830    113.6908   1.0652653831e+02   4.9650693424e+01    0.2216254    0.1666906   8.55 0.0008222251    1.571    0.363
       352  -7.6926    244.0042    124.0681   5.3994336120e+01   9.0121341415e+00    0.1660839    0.1273247 -36.55 0.0005808969    1.099    0.090
       353  -8.8028    179.1313    124.6850   6.5599855323e+01   2.1487461232e+01     0.286775    0.2197447 -64.13 0.0005932191    1.584    0.369
       354  -8.1150    188.6090    123.8458   6.3460210789e+01   1.9681086001e+01    0.2165368    0.1307964 -49.66 0.0006285944    1.709    0.415
       355  -9.8543    130.6807    118.7096   7.5559753784e+01   3.2913264016e+01    0.4749484    0.3483465 -87.25  0.001231476    2.159    0.537
       356  -9.1022    158.6812    121.6669   6.9366029259e+01   2.6418795463e+01    0.3491971    0.2774836 -77.12   0.00102588    1.662    0.398
       357  -7.6158    203.0000    122.0182   6.0276745373e+01   1.7089135728e+01     0.231394   0.07685256 -39.55 0.0003693505    2.759    0.638
       358  -8.8765    172.0335    121.6172   6.6360032135e+01   2.3594670727e+01     0.278883      0.20234 -54.96  0.000497636    1.502    0.334
       359  -9.7611     71.0904    119.8586   9.3399132218e+01   4.3182173962e+01    0.4407357    0.3034002 -86.19  0.001403915    2.076    0.518
       360 -10.0174    141.5012    118.0846   7.2605598711e+01   3.0808172583e+01    0.5823753     0.306565 -54.24 0.0009898097    2.224    0.550
       361  -9.7739      2.9101    117.2205   1.1479628006e+02   5.0440705783e+01    0.4986253    0.2483506  74.90  0.002228876    2.782    0.641
       362  -8.2826    120.9702    119.0000   7.8257375124e+01   3.4798894153e+01    0.2551129   0.08885221  40.96 0.0008026359    2.944    0.660
       363  -7.9526    231.4585    117.5225   5.4466493742e+01   1.2370523787e+01    0.1375241    0.1182427 -42.53 0.0008081666    1.056    0.053
       364  -8.0594    185.5400    116.0562   6.2182450236e+01   2.1823022998e+01    0.2250554    0.1392607 -41.14 0.0004478988    1.521    0.343
       365 -10.0194    109.2824    114.2796   8.0343651564e+01   3.8128877905e+01    0.5080727     0.357665 -74.40  0.001397503    2.064    0.515
       366  -9.6276    249.4798    114.2979   5.1153511938e+01   9.6678707677e+00    0.4266634    0.2401613 -62.85  0.001885486    2.749    0.636
       367 -10.3889    248.3640    107.7749   4.9930817929e+01   1.0918647012e+01    0.3749336    0.3210426 -73.65  0.002375269    1.334    0.250
       368 -10.3288    248.9083    102.6541   4.8778021642e+01   1.1642163216e+01    0.3755527    0.2509165 -36.75  0.001687374    1.283    0.221
       369 -10.1480     92.7497    112.5876   8.4852303835e+01   4.1510451545e+01    0.5857304    0.3447549 -63.97  0.001201361    2.160    0.537
       370  -8.8550     93.6746    104.6543   8.2489374637e+01   4.3170048814e+01    0.3135912    0.2054523   3.54  0.001270376    2.295    0.564
       371 -10.1138     78.8626    112.3774   8.9164570772e+01   4.3829469201e+01    0.6052999    0.4278399  89.55  0.001919577    2.230    0.552
       372  -8.8447     78.9253    105.0272   8.7295534384e+01   4.5544279533e+01    0.3786537    0.2382093   8.34  0.001092818    2.252    0.556
       373  -7.9472    167.4702    114.4971   6.5568684040e+01   2.5997932363e+01     0.151766     0.145542 -38.74 0.0008097592    1.029    0.028
       374 -10.4322    133.5905    109.4839   7.2369973568e+01   3.4308749503e+01    0.7194717     0.328651 -46.86   0.00210443    2.200    0.545
       375  -9.4380    121.8020    112.6987   7.6387843854e+01   3.6037784401e+01    0.3369731    0.2859704  59.75 0.0007042467    1.339    0.253
       376  -8.5882    174.7833    111.9212   6.3348697309e+01   2.4924759601e+01     0.280754    0.1997282 -57.72 0.0007357077    1.596    0.374
       377  -8.6658    159.3416    111.8455   6.6706075339e+01   2.8291211520e+01    0.2831767    0.2239823 -66.91 0.0008404468    1.523    0.343
       378 -10.2524     66.4023    110.0490   9.2661435226e+01   4.6208251232e+01    0.5563703    0.3138236 -64.08  0.002043298    1.958    0.489
       379 -10.3052     14.0031    111.1569   1.1041480200e+02   5.1240466337e+01    0.4040925    0.2560753  56.48  0.001732482    1.995    0.499
       380  -7.9404    149.6481    110.2180   6.8548366067e+01   3.0724846901e+01    0.2160071    0.1408446 -32.53  0.000316367    1.603    0.376
       381  -8.3779     43.1211    109.3524   1.0032920714e+02   4.9205067615e+01    0.3399197    0.1337063   8.55 0.0009479594    6.105    0.836
       382  -8.3926      3.7502    109.2270   1.1347542736e+02   5.2317250840e+01    0.1757193   0.09568116 -10.05 0.0008860744    2.426    0.588
       383  -8.2080    189.1708    107.9112   5.9469644368e+01   2.2587041236e+01    0.2735196    0.1561982 -46.22 0.0006885363    1.703    0.413
       384  -9.4390    108.0748     92.2237   7.4612911048e+01   4.3174069588e+01    0.6780514    0.3152282  31.48  0.002407202    2.695    0.629
       385 -10.1528    119.2940    105.6320   7.5182716035e+01   3.8085935198e+01    0.3994136    0.3131015 -36.46  0.001562973    1.253    0.202
       386 -10.7247    109.3539     99.1348   7.6220364056e+01   4.1464121549e+01    0.8545374    0.5022006  67.11   0.00193027    3.519    0.716
       387  -9.1203    110.0340    106.9123   7.8171123046e+01   3.9637614846e+01    0.4099148    0.1948273  29.20  0.001418792    2.768    0.639
       388  -9.2390    140.1354    104.8865   6.9454970308e+01   3.3876979382e+01     0.419178    0.3120959  83.33  0.001050499    2.008    0.502
       389 -10.5540     45.5753    102.3559   9.7976816508e+01   5.0624341911e+01    0.7471342    0.4509081  72.91  0.002956594    3.256    0.693
       390 -10.6567     22.8073    102.5225   1.0597778389e+02   5.2695227054e+01    0.7893357    0.4414622  79.22  0.002602299    3.075    0.675
       391  -8.7058    166.4607    103.9990   6.3081254597e+01   2.8282017331e+01    0.2987495    0.2302396 -62.89 0.0006764224    1.508    0.337
       392  -9.5288    150.6405    103.0918   6.6411652165e+01   3.1952021955e+01    0.4759513    0.2799134 -58.70  0.001230217    2.256    0.557
       393  -9.5919      6.5622    102.8985   1.1162303152e+02   5.3675783740e+01    0.3544848    0.1931734 -87.39  0.001398542    2.122    0.529
       394 -10.0759    128.4001    101.8316   7.1650289759e+01   3.7012445338e+01    0.4250877    0.2696498 -48.78 0.0009211281    1.621    0.383
       395  -8.0296    175.5047    102.0378   6.0677618063e+01   2.6658223121e+01    0.2306143    0.1413582 -42.02 0.0006207983    1.564    0.360
       396  -8.2932    159.8821    101.1733   6.3777103518e+01   3.0286234656e+01    0.2306837    0.2018416 -71.62 0.0004643144    1.293    0.226
       397  -9.2371     81.9548     99.8111   8.4925611560e+01   4.6254626883e+01    0.3765977    0.2731538 -74.85 0.0007911085    1.933    0.483
       398  -8.4022    192.9204    115.2222   6.0542672612e+01   2.0427601636e+01    0.2193621    0.1906004 -60.11 0.0005244116    1.226    0.184
       399 -10.3253     86.3723     85.8828   7.9504425528e+01   4.8549213416e+01    0.7421085    0.6281146 -65.98  0.002161938    1.445    0.308
       400  -9.6974     94.9608     97.1699   8.0026816797e+01   4.4604693233e+01      0.50727    0.2549968 -42.85 0.0005330238    1.917    0.478
       401  -9.4058     92.8810     92.6253   7.9384503176e+01   4.5964172987e+01    0.3638623    0.2640567  29.52  0.001282822    1.431    0.301
       402 -10.2310     63.9142     95.9053   8.9982449770e+01   4.9865122582e+01    0.5451812     0.381157  86.00  0.001644004    2.516    0.603
       403  -9.1806    188.7144     95.5206   5.6462879184e+01   2.4940526858e+01    0.4526789    0.1918371 -36.49  0.001715874    2.298    0.565
       404  -8.4633    151.2047     95.1652   6.4119335473e+01   3.3380324454e+01    0.3173646     0.185989 -17.70  0.001150507    2.722    0.633
       405  -7.8955    153.2822    115.6700   6.9104283108e+01   2.8816327283e+01    0.1531332    0.1230457 -76.64 0.0003869138    1.607    0.378
       406  -8.2540    176.4559     93.4353   5.8256164357e+01   2.8033298623e+01    0.2590299    0.1923376 -69.95 0.0005662194    1.681    0.405
       407  -8.1652    164.8050     94.0692   6.0804934767e+01   3.0534293131e+01    0.2297647    0.1944368 -62.67 0.0005185104    1.285    0.222
       408 -10.3199    123.8882     91.3999   6.9899213229e+01   4.0096869675e+01    0.6176417    0.4561554  31.88  0.001196156    1.423    0.297
       409  -9.2888     46.0308     92.5826   9.5517141576e+01   5.2866468965e+01    0.4211684    0.2358251  -6.60  0.001760576    2.692    0.629
       410  -9.4878    138.8612     92.0274   6.6198997205e+01   3.6729612482e+01    0.4193276    0.2833531 -57.59 0.0007297148    1.779    0.438
       411  -9.4508      5.4631     92.4683   1.1032708024e+02   5.6195067509e+01    0.3132529    0.2053812  57.30   0.00157919    2.043    0.510
       412  -8.7838    249.3016     92.3065   4.6547313470e+01   1.3199686897e+01    0.1195087   0.09709159  -5.61 0.0002263598    1.598    0.374
       413  -8.1415    157.8297     91.5853   6.1639036602e+01   3.2569366213e+01    0.2514808    0.1699472 -43.38 0.0005029226    1.461    0.316
       414  -9.8777     34.7517     89.8606   9.9022077994e+01   5.4659602382e+01    0.4782289    0.2815499 -82.53  0.001742837    2.712    0.631
       415  -9.2236     22.8880     90.1802   1.0351329282e+02   5.5603312686e+01    0.2909774    0.2078487 -18.98 0.0009777586    1.487    0.328
       416  -8.0387    151.0942     89.1680   6.2479561136e+01   3.4540906304e+01    0.2048436    0.1754812 -65.35 0.0004479982    1.305    0.234
       417  -8.9090     65.4232     87.6590   8.7208620169e+01   5.1504740503e+01    0.5703161    0.2208825  22.28  0.001820805    4.052    0.753
       418  -7.4434    188.2997     87.2797   5.4451396266e+01   2.6473427537e+01    0.1382288    0.1130188  13.67 0.0006959558    1.542    0.352
       419  -9.7779     48.4686     84.2914   9.2479238907e+01   5.4466728434e+01    0.5106984    0.3476213  81.76   0.00202855    2.877    0.652
       420  -9.7904    104.8312     83.1561   7.2868223209e+01   4.5656744403e+01    0.4736358    0.3366684 -67.33  0.001297981    2.055    0.513
       421  -8.9909    105.9389     76.8845   7.0593366221e+01   4.6651137701e+01    0.3776874    0.1907528  32.03  0.001056663    2.346    0.574
       422  -8.2395    157.8885     84.0815   5.9553346344e+01   3.3925847713e+01    0.2216964    0.1966412 -64.31 0.0004197089    1.206    0.171
       423  -9.2556    140.7418     82.6029   6.3028252189e+01   3.8089396763e+01    0.4112302     0.236572 -49.22 0.0009478402    1.906    0.475
       424  -9.7774      9.7431     81.4184   1.0669001893e+02   5.8504634089e+01    0.4018879    0.2621146 -84.33   0.00157692    1.863    0.463
       425  -9.7892     24.7114     80.6567   1.0069194870e+02   5.7638749577e+01     0.436649    0.2807614  88.75  0.001447089    2.549    0.608
       426  -7.8856    185.2976     82.6517   5.3800156662e+01   2.7933179724e+01    0.1504951    0.1074599 -67.35 0.0007035129    1.681    0.405
       427  -8.2728     63.8880     82.3955   8.6249037966e+01   5.2869836542e+01    0.1919463    0.1725354 -51.54 0.0005696162    1.207    0.171
       428  -8.5708    249.6708     81.2886   4.4190061968e+01   1.4816543753e+01    0.1287271   0.08518751 -64.21 0.0002097143    1.618    0.382
       429  -8.4314    150.1632     80.6645   6.0284625439e+01   3.6301013387e+01    0.2554528    0.1976558 -51.61 0.0006112398    1.367    0.268
       430  -8.9646    119.3600     80.0245   6.7742885856e+01   4.3268082997e+01    0.3945474    0.2486749 -43.25  0.001190101    1.612    0.380
       431  -8.8070     74.5448     80.3130   8.1831841188e+01   5.1693639054e+01    0.3533257    0.2256815 -63.57  0.001147054    2.210    0.547
       432  -8.2230    166.9357     79.5291   5.6424780671e+01   3.2647313971e+01    0.2254039    0.1848109 -37.62 0.0005400007    1.208    0.172
       433  -7.8284     39.6632     79.2988   9.4501971028e+01   5.6553308230e+01    0.1248604    0.1052845  69.88 0.0005831763    1.657    0.396
       434  -9.3729    128.0813     75.3718   6.4010108603e+01   4.2226271321e+01    0.3875428    0.2693183 -60.99 0.0007801427    1.889    0.471
       435  -8.0268    157.1899     76.2602   5.7507571463e+01   3.5452820199e+01    0.2045401    0.1707815 -74.08 0.0006746292    1.380    0.275
       436  -8.6610    140.2765     75.2877   6.0988897236e+01   3.9503296174e+01    0.2425188    0.2036153 -42.03 0.0006112533    1.211    0.174
       437  -9.9797     63.1095     73.5199   8.3851366205e+01   5.4844084399e+01    0.4350001    0.2778804 -56.63  0.001022351    1.820    0.451
       438  -9.7804     82.1723     72.4926   7.6739429356e+01   5.1988860649e+01    0.4083159    0.2997495 -61.60 0.0009186752    1.827    0.453
       439  -8.2361    163.4696     73.1131   5.5342441674e+01   3.4527841420e+01    0.2181993    0.1401563 -38.52 0.0006825709    1.545    0.353
       440  -8.9367    115.7283     72.7608   6.6487991479e+01   4.5379353967e+01    0.2828178    0.1938405 -46.34 0.0005652425    1.559    0.359
       441  -9.4290     95.0709     71.1968   7.2093883100e+01   4.9864997899e+01    0.3924841    0.2267862 -50.33  0.001067482    2.009    0.502
       442  -8.4450     42.7279     72.8858   9.1506002169e+01   5.7607579070e+01    0.2350389    0.1794923 -67.88  0.000643258    1.634    0.388
       443  -7.7124    175.5014     72.5714   5.2910764612e+01   3.1833351842e+01    0.1407552    0.1360372 -79.04 8.052882e-05    1.012    0.012
       444  -8.9062    105.6790     71.6530   6.9006023768e+01   4.7677103114e+01    0.2630065    0.2470276 -53.70 0.0005933941    1.208    0.172
       445  -9.5059     51.2415     69.3934   8.7091596502e+01   5.7312666486e+01    0.4880081     0.296819 -68.44  0.001587053    2.770    0.639
       446  -9.2764     29.3430     70.3581   9.6206417149e+01   5.9506075203e+01    0.4104637    0.1921533 -21.43  0.001670926    2.979    0.664
       447  -9.1060     16.6646     70.0645   1.0137515636e+02   6.0588655955e+01    0.2737222    0.2114334  76.84 0.0009686343    1.913    0.477
       448  -8.7733    147.0887     68.2244   5.7350793249e+01   3.9134403362e+01    0.3096849    0.1982483 -43.69 0.0007063886    1.607    0.378
       449  -8.7502    138.7990     66.3601   5.8653556523e+01   4.1351150030e+01    0.2442769    0.1919281 -50.77 0.0006535982    1.379    0.275
       450  -8.9398    121.4224     65.7395   6.2727910173e+01   4.5367693513e+01    0.3055551    0.2314283 -54.82 0.0007722585    1.560    0.359
       451  -8.8838     83.3101     65.3703   7.3997324442e+01   5.3131885362e+01    0.4544488    0.2418108  10.47  0.001396819    4.578    0.782
       452  -8.9806     64.4310     63.4555   8.0083520469e+01   5.6633352064e+01    0.4636589    0.2832732  -9.31  0.002068968    2.216    0.549
       453  -9.0333     37.1806     64.2967   9.1200135580e+01   6.0003897311e+01    0.2993575    0.2217044 -71.88  0.001062092    1.913    0.477
       454  -7.9599    141.1573     70.1818   5.9262398487e+01   4.0176605734e+01    0.1985482    0.1674021 -61.63 0.0002508883    1.336    0.252
       455  -9.0739    110.2009     63.5719   6.5069184348e+01   4.8157214991e+01    0.3108383    0.2362697 -64.61 0.0008386901    1.808    0.447
       456  -9.3789     97.5884     60.6553   6.7794206052e+01   5.1248857978e+01    0.3105323    0.2777507  51.60 0.0007868636    1.249    0.199
       457  -7.9888    158.1698     61.8238   5.3194954130e+01   3.7565572496e+01    0.1866316    0.1652886  19.46 0.0002581482    1.261    0.207
       458  -9.6313     73.3026     59.5561   7.5481409801e+01   5.5929614291e+01    0.3751027    0.2338491 -49.73  0.001038963    1.867    0.464
       459  -7.7070    164.4874     60.4391   5.1601408016e+01   3.6295085942e+01    0.1395009    0.1342072  81.51 8.733861e-05    1.010    0.010
       460  -7.8732     88.8122     59.5795   7.0190535195e+01   5.3143530763e+01    0.1824218    0.1329844  50.71 0.0004748361    1.543    0.352
       461  -8.0265     38.3666     59.3006   8.9129249139e+01   6.0879570202e+01    0.1406867   0.08623617 -18.77 0.0007033623    1.733    0.423
       462  -8.4835    130.7276     57.9107   5.7921981396e+01   4.4542198293e+01    0.1934746    0.1805891 -31.60 0.0003981821    1.113    0.101
       463  -9.8416     23.4023     56.3686   9.4702692521e+01   6.2935270433e+01    0.3872162    0.2792001  89.91  0.001858212    2.606    0.616
       464  -9.5011      7.4378     57.2460   1.0209158783e+02   6.3904787708e+01    0.2591403    0.2058481 -80.42 0.0009054591    1.636    0.389
       465  -9.1093    119.1260     55.5548   6.0022073648e+01   4.7516240813e+01    0.3873557    0.2103951 -46.91  0.001462091    2.156    0.536
       466  -7.8354    193.6892     56.7055   4.5811223815e+01   3.0084868307e+01    0.1303191    0.1050087  27.37 0.0003214227    1.592    0.372
       467  -8.3451    139.9361     56.1381   5.5273910231e+01   4.2690752991e+01    0.2139983    0.1881475 -73.87 0.0004197806    1.289    0.224
       468  -9.2299     62.7646     54.1493   7.7465502133e+01   5.8597286044e+01    0.4650888    0.1861694 -48.02  0.001540688    2.872    0.652
       469  -8.8586     43.9875     55.2661   8.5411838116e+01   6.1003853084e+01     0.291435    0.1805153 -55.78  0.001062284    1.953    0.488
       470  -9.0796     53.7356     53.6238   8.0822783589e+01   6.0025247829e+01    0.3689034    0.2169994 -58.49  0.001358181    2.620    0.618
       471  -8.7900    248.9929     54.7609   3.8761027198e+01   1.8747604699e+01    0.1509715   0.09880704  71.05 0.0008947723    1.658    0.397
       472  -8.4351    105.9148     53.4450   6.2870504438e+01   5.0706086885e+01    0.2565376    0.1922681 -52.06 0.0007140923    1.629    0.386
       473  -9.5880     92.4368     50.6345   6.5879741982e+01   5.3907111978e+01     0.379499    0.2273002 -45.71  0.001124755    1.951    0.487
       474  -8.4111     75.0968     51.3620   7.1905599163e+01   5.7036047559e+01    0.2688009    0.1162191  33.54   0.00108074    2.450    0.592
       475  -8.9178    144.9748     48.9791   5.2025305521e+01   4.2547910786e+01    0.2148937    0.1632542 -67.70  0.000511234    1.595    0.373
       476  -8.5211    129.5599     49.0313   5.5360594005e+01   4.6124685548e+01    0.2042742    0.1379019 -32.07 0.0004777046    1.554    0.356
       477  -8.7093    120.9461     47.5209   5.6904949560e+01   4.8297187547e+01     0.237437    0.1888443 -46.60 0.0005025844    1.408    0.290
       478  -8.3776    112.1822     46.9548   5.8931830566e+01   5.0324150180e+01    0.2045646    0.1874674 -63.84 0.0005900292    1.305    0.234
       479  -9.0080     82.0434     46.5214   6.7725638636e+01   5.6549672752e+01    0.2389747    0.1851839 -45.73 0.0006288425    1.536    0.349
       480  -8.3572     45.1168     44.8392   8.1169837774e+01   6.2749210582e+01    0.1779858    0.1657517 -13.91  0.000537325    1.268    0.211
       481  -9.1561     16.5258     44.8049   9.4194173602e+01   6.5762971564e+01    0.1951467     0.191937 -86.36 0.0006484216    1.479    0.324
       482  -8.2787    132.7094     43.3804   5.2843955167e+01   4.6175299010e+01    0.2361746    0.1600587 -43.26 0.0006046265    1.606    0.377
       483  -8.7226     92.7964     42.7698   6.2908755293e+01   5.5011162945e+01    0.2894208    0.1924443  -8.71  0.001433343    1.770    0.435
       484  -8.8854     58.0582     42.5107   7.4934302875e+01   6.1290467192e+01    0.3054459    0.1826551 -51.38  0.001291818    2.323    0.569
       485  -9.2650     69.5062     41.3499   7.0127217794e+01   5.9598817940e+01    0.3408817    0.2333413 -49.34  0.001197525    1.927    0.481
       486  -9.4840      5.1636     42.0056   9.8812684665e+01   6.7089414637e+01    0.2927093    0.1992653 -74.05  0.001359054    2.114    0.527
       487  -8.7174    106.0261     41.4982   5.8663795088e+01   5.2423395815e+01    0.2497198    0.1831227 -45.51 0.0006024986    1.593    0.372
       488  -7.8068    140.4169     41.5053   5.0646288227e+01   4.4623400322e+01    0.1350571    0.1285387  58.22 8.852161e-05    1.022    0.021
       489  -8.7036     36.8883     40.8401   8.3260930910e+01   6.4466298936e+01    0.2071984    0.1754141 -40.03 0.0005483015    1.359    0.264
       490  -8.6661     95.5131     38.0719   6.0364472984e+01   5.5106762226e+01    0.2289847    0.1915533  68.04 0.0007214968    1.481    0.325
       491  -8.3230     80.7592     36.8772   6.4478731855e+01   5.8202597661e+01    0.2295104     0.178067 -46.29  0.000750585    1.618    0.382
       492  -7.4635    133.4932     36.4629   5.0462223426e+01   4.6880473480e+01    0.1359226    0.1255507  53.40 0.0008094349    1.014    0.014
       493  -8.6424    125.3566     35.6710   5.1936850814e+01   4.8860938074e+01    0.3026425    0.1772743  62.46  0.000926269    1.708    0.415
       494  -9.2613     26.1112     35.4667   8.6209057000e+01   6.6582111083e+01    0.2611845    0.1916218 -47.23 0.0007868382    1.526    0.345
       495  -8.6018    111.9088     34.7007   5.4742759693e+01   5.2020082354e+01    0.2492556    0.1911768 -38.53 0.0006624162    1.446    0.308
       496  -7.6735     88.5219     34.5484   6.1118166141e+01   5.6997660512e+01    0.1334317    0.1187316  22.51 0.0001288197    1.038    0.037
       497  -8.8684     48.7017     33.2906   7.5053294193e+01   6.4128290493e+01    0.2313009    0.1892499 -45.21 0.0007346575    1.597    0.374
       498  -8.1815    119.0866     33.0801   5.2473064080e+01   5.0607132507e+01    0.2034805    0.1602211 -67.34 0.0006618201    1.644    0.392
       499  -8.7530     60.5469     32.5010   6.9931215312e+01   6.2409564837e+01    0.2329815    0.1961242 -48.21 0.0005999411    1.631    0.387
       500  -7.6489    139.4187     31.9191   4.7853169856e+01   4.6038745608e+01    0.1894149    0.0994838 -52.39 0.0008043282    2.477    0.596
       501  -8.8707     72.1445     31.3503   6.5197955852e+01   6.0556460705e+01    0.2318072     0.161402 -45.33 0.0007007578    1.852    0.460
       502  -8.9459     12.8627     30.1937   9.0800198564e+01   6.8708031609e+01      0.30629    0.1607543 -54.83  0.001383828    2.196    0.545
       503  -8.0697    228.7142     30.3288   3.5576217865e+01   2.5920797986e+01    0.1284312   0.07559329 -62.41 0.0002780249    1.612    0.380
       504  -8.4035    101.4910     29.4892   5.5525298758e+01   5.4927155193e+01    0.2134548    0.1754486 -65.80 0.0006547328    1.655    0.396
       505  -7.8380     42.2097     29.9811   7.6475239823e+01   6.5539289700e+01    0.1586365   0.08996364 -34.90 0.0004113406    1.666    0.400
       506  -8.8479     81.4637     27.2439   6.0442107747e+01   5.9317331280e+01    0.2637099    0.1949874 -51.40 0.0008442971    1.906    0.475
       507  -9.0617      3.6271     27.2269   9.4575299188e+01   6.9902568089e+01    0.2998858    0.1476713 -59.19  0.001559025    2.485    0.598
       508  -9.1295     91.8056     26.2510   5.6953579399e+01   5.7350476631e+01     0.306383    0.1781869 -37.28  0.001121535    1.941    0.485
       509  -7.7133    241.3298     25.2859   3.3448721684e+01   2.3969993693e+01    0.1033696   0.08883078  43.39 0.0002336871    1.614    0.380
       510  -8.2154     34.2944     23.1001   7.7095688097e+01   6.7595363755e+01    0.1976476    0.1562099  50.71  0.001120107    2.089    0.521
       511  -9.0424     63.6152     21.1565   6.3950200530e+01   6.3370995292e+01    0.2792617     0.194445 -43.33  0.001133777    1.906    0.475
       512  -8.6876     48.3170     21.6987   7.0197565999e+01   6.5821601580e+01    0.1936608    0.1708388 -11.32 0.0006068979    1.262    0.208
       513  -8.1795     19.3360     21.6504   8.3894713769e+01   6.9518993753e+01    0.1486352    0.1421296  36.48  0.001079853    1.717    0.418
       514  -7.9166    120.5298     21.0178   4.8038986839e+01   5.1617246757e+01    0.1832689    0.0977307 -50.56 0.0008096569    2.553    0.608
       515  -9.1177     73.9753     19.3892   5.9611895099e+01   6.1674768326e+01    0.2436175    0.1693658 -39.82 0.0008273632    1.779    0.438
       516  -8.2157     87.7917     17.7629   5.4752125579e+01   5.9105996113e+01     0.156786    0.1516598 -85.89 0.0004283382    1.331    0.249
       517  -7.7459     38.5973     18.5071   7.2999731598e+01   6.7658523023e+01    0.1218926   0.09579537  -0.68 0.0001661076    1.021    0.020
       518  -8.0254    112.7785     16.9935   4.8284324629e+01   5.3776065283e+01    0.1529287    0.1068665 -20.32 0.0003160867    1.592    0.372
       519  -7.8639     30.3594     16.1582   7.5788613095e+01   6.9064533097e+01    0.1546174    0.1005186 -39.29 0.0005521004    1.755    0.430
       520  -8.1749     97.0006     15.2265   5.1312658170e+01   5.7419532123e+01    0.1777106    0.1522071  36.57 0.0004402195    1.007    0.006
       521  -9.2753    211.1462    246.9735   8.3487180613e+01  -5.8907153382e+00    0.2703279    0.2071716 -54.70  0.001167205    2.179    0.541
       522  -7.8158    191.4770    249.5105   8.7645537252e+01  -3.5955103155e+00     0.122162     0.100623  15.66  0.000372643    1.082    0.076
       523  -8.9710    175.6989    247.8698   9.0505140175e+01  -1.1311993638e+00    0.2947685    0.2030208  53.31  0.001333457    2.023    0.506
       524  -9.1292    146.9844    245.7999   9.6037327042e+01   3.3792107034e+00    0.3340457    0.2136322  64.59  0.001624287    2.638    0.621
       525  -9.2624    103.8992    247.0655   1.0510769547e+02   9.3849085248e+00    0.3620776    0.2206537 -82.55  0.001880235    2.371    0.578
       526  -9.0778    242.7944    246.6445   7.7695121489e+01  -9.8093322407e+00    0.3369901    0.1313334 -30.86  0.001622504    2.412    0.585
       527  -9.5309    232.9265    246.6661   7.9441406695e+01  -8.6250095793e+00    0.4164705    0.2092846 -21.22  0.002264441    2.012    0.503
       528  -8.3477    218.4401    247.7921   8.2258347079e+01  -6.9547228004e+00    0.2023511    0.1089669 -40.40   0.00112548    2.094    0.522
       529  -8.5890    156.2283    248.2969   9.4491758109e+01   1.6127245755e+00    0.2157062    0.1411509  40.61 0.0005658204    1.418    0.295
       530  -8.6823    132.1351    247.7141   9.9355532557e+01   5.2256743285e+00    0.2321084    0.1785115  69.19  0.000545054    1.681    0.405
       531 -10.1049    223.9083    244.1426   8.0662069489e+01  -7.1578919588e+00    0.4389018    0.2272261 -43.67  0.002339052    2.403    0.584
       532  -9.2469    120.3725    245.8165   1.0155219050e+02   7.2663153154e+00    0.3352477    0.2283593  74.57  0.001802157    2.123    0.529
