#   1 NUMBER                 Running object number                                     
#   2 MAG_AUTO               Kron-like elliptical aperture magnitude                    [mag]
#   3 X_IMAGE                Object position along x                                    [pixel]
#   4 Y_IMAGE                Object position along y                                    [pixel]
#   5 X_WORLD                Barycenter position along world x axis                     [deg]
#   6 Y_WORLD                Barycenter position along world y axis                     [deg]
#   7 A_WORLD                Profile RMS along major axis (world units)                 [deg]
#   8 B_WORLD                Profile RMS along minor axis (world units)                 [deg]
#   9 THETA_WORLD            Position angle (CCW/world-x)                               [deg]
#  10 FWHM_WORLD             FWHM assuming a gaussian core                              [deg]
#  11 ELONGATION             A_IMAGE/B_IMAGE                                           
#  12 ELLIPTICITY            1 - B_IMAGE/A_IMAGE                                       
         1 -14.9168    162.0382     41.8253   8.1450023197e+01   3.9269987595e+01     1.436639     1.056773 -12.94   0.00398295    1.483    0.325
         2 -14.5855    175.4671      8.6772   6.8691079437e+01   3.9657221390e+01     1.087496     0.977773  39.51  0.003776059    1.121    0.108
         3 -13.0488    197.0350      6.6781   6.5434268195e+01   3.4384593678e+01    0.6543872    0.2863758 -88.05  0.002293546    3.519    0.716
         4 -11.8008    168.0805    244.3014   1.2561416050e+02   3.5546413737e+00    0.1753581    0.1704883  67.22 0.0002745716    1.300    0.231
         5 -20.0489     76.0294    175.2316   1.3449670352e+02   2.9598748551e+01     16.26292     6.217439 -65.54   0.07172369    2.634    0.620
         6 -13.7989    195.5289    170.8856   1.0854096645e+02   9.6443427656e+00    0.8539445    0.4554162 -49.19  0.002916034    2.399    0.583
         7 -10.3322     25.4177    181.5961   1.4544735310e+02   3.4143522151e+01     0.141919     0.116155 -62.76 5.392308e-05    1.445    0.308
         8 -10.6593     28.3282    179.3251   1.4470315563e+02   3.4315455798e+01     0.176332    0.1591921 -54.92  0.000832397    1.488    0.328
         9  -9.4970    154.3038    239.6346   1.2743434597e+02   6.3429192107e+00     0.114672   0.08103164  66.68 0.0007036006    1.739    0.425
        10 -11.6987    144.8792    178.5230   1.2028882070e+02   1.7879742505e+01     0.377439    0.2017539 -49.61   0.00177184    2.046    0.511
        11 -12.5726      5.8995    177.3618   1.4885256466e+02   3.6720104685e+01    0.3424732    0.2000063  64.42  0.001515941    1.469    0.319
        12 -13.8006    177.5550    172.3241   1.1239760806e+02   1.2865321645e+01    0.7413501    0.4748301 -41.14  0.003732723    1.684    0.406
        13 -12.9699    123.1939    166.2275   1.2283618221e+02   2.4119543027e+01     1.252011    0.5209783  61.27  0.003009798    7.814    0.872
        14 -13.3976    138.8240    171.8586   1.2041175372e+02   2.0232833671e+01    0.5998392    0.4782524  79.34  0.002233786    1.500    0.333
        15 -14.5775    144.1511    169.1214   1.1877624175e+02   1.9782015837e+01     0.941277    0.6297964  67.49  0.004486216    1.975    0.494
        16 -10.9987     13.8032    238.6485   1.5082852141e+02   2.4899299303e+01   0.08156729   0.05943368 -76.34 0.0006736586    1.530    0.347
        17 -11.7408    166.9982    173.5298   1.1478376738e+02   1.4673836818e+01    0.2435251    0.1991831 -64.75 0.0008608886    1.514    0.340
        18 -10.3367     11.9292    173.9878   1.4748055874e+02   3.6888707102e+01    0.1410103    0.1060361 -62.12  0.001041673    1.490    0.329
        19 -11.8706    203.0840    172.3618   1.0737797737e+02   7.9621669885e+00    0.2514272    0.2026018 -39.85  0.000965486    1.391    0.281
        20  -8.6866    132.6774    235.2609   1.3073809462e+02   1.0342948118e+01    0.3680171    0.1862961  33.99  0.001868255    2.006    0.501
        21 -10.8010    126.4468    236.5561   1.3199041097e+02   1.1097480064e+01    0.1984677    0.1438261 -43.45  0.001320692    1.837    0.456
        22 -11.0395     36.2560    177.0736   1.4294277467e+02   3.3971796154e+01    0.3051787    0.1684311  20.09  0.001623299    3.000    0.667
        23 -11.5803    229.9907    165.9754   1.0110580935e+02   3.8712922327e+00    0.1957355    0.1721031 -67.37 0.0009282812    1.711    0.415
        24 -11.6755    201.0971    164.9797   1.0625895979e+02   9.5249042212e+00    0.3093972    0.2228452 -56.63  0.001029722    1.921    0.479
        25 -10.5824     25.6239    230.1559   1.4857946145e+02   2.5142827339e+01    0.1491495   0.07842018 -83.55 0.0009377967    1.693    0.409
        26 -10.7600    222.8664    162.2777   1.0161190597e+02   5.7525656543e+00    0.2963356    0.1819184 -46.54  0.001046237    2.033    0.508
        27 -13.2482    164.0095    157.7473   1.1231172331e+02   1.8124839352e+01    0.4062318    0.3239618  48.24 0.0009618205    1.228    0.186
        28 -10.6156     25.3324    224.9199   1.4833416824e+02   2.6070787873e+01    0.1470123   0.09685422 -80.40 0.0005407464    1.412    0.292
        29 -14.8481    134.4235    146.7765   1.1663541280e+02   2.6036642830e+01      1.77384    0.5659674 -55.57  0.005173883    4.525    0.779
        30 -10.1250     25.5070    185.0151   1.4569188757e+02   3.3456659937e+01    0.1447894     0.103999 -86.42 1.341576e-06    1.145    0.127
        31 -11.2504    139.2047    248.6830   1.3111807996e+02   7.4045582667e+00    0.3195759    0.2140904 -60.97  0.002154026    1.946    0.486
        32 -14.1772    135.9138    128.3615   1.1229571401e+02   2.9551830642e+01     2.576757    0.3512457 -48.48  0.004954228    9.143    0.891
        33 -12.6410    174.1409    149.2657   1.0837354236e+02   1.7654167536e+01     0.394311    0.3286788 -44.10  0.001580995    1.274    0.215
        34 -14.3559    143.5423    143.8017   1.1392211181e+02   2.4881823399e+01     1.026304    0.4747245 -57.45  0.003723921    2.927    0.658
        35 -10.6029     22.9563    156.1258   1.4378838759e+02   3.9609507100e+01    0.1687601    0.1356335 -85.32  0.000512983    1.059    0.055
        36 -11.8552    174.7943    141.0726   1.0642030691e+02   1.9032380701e+01    0.2187847    0.2048074 -89.08 0.0005424612    1.254    0.203
        37  -9.9558    181.2973    147.6300   1.0652023399e+02   1.6479646994e+01    0.1440307    0.1173621 -80.42 0.0007029622    1.734    0.423
        38 -11.0595      8.3551    137.9234   1.4532467927e+02   4.4671782664e+01    0.2431695    0.1722813   7.98   0.00117157    2.137    0.532
        39 -10.6124     22.5404    221.2180   1.4857796365e+02   2.6996891457e+01    0.1145549   0.08015758 -74.35 0.0003920433    1.480    0.324
        40 -12.9364    160.4294    128.0923   1.0654050712e+02   2.4545567151e+01     0.459581    0.3582168 -52.17  0.001945188    1.385    0.278
        41 -11.5766     21.9174    242.9577   1.4981282282e+02   2.3396799365e+01    0.1919661    0.1057532 -86.35  0.001437755    1.599    0.375
        42 -11.7990    140.8619    121.0770   1.0939079842e+02   3.0054519564e+01    0.3651405    0.2411642  70.35  0.001506037    2.274    0.560
        43 -13.1599     11.6809    205.8883   1.4952095254e+02   3.0783948923e+01    0.3734416    0.2660668  28.78   0.00283448    1.944    0.486
        44 -12.3359    154.4266    196.0152   1.2124792019e+02   1.3067991800e+01    0.4565062    0.2977007 -78.72  0.002128253    2.759    0.638
        45 -12.2202    158.0487    202.8473   1.2161504406e+02   1.1296828453e+01    0.5317044    0.2907115  62.84  0.002279633    2.909    0.656
        46 -12.3706    163.8855    203.0679   1.2051798937e+02   1.0244826433e+01    0.3182526    0.2758709 -65.14 0.0004325091    1.424    0.298
        47 -12.9327    161.3598    197.7730   1.2016224419e+02   1.1550687932e+01    0.3854662    0.3253869 -78.79    0.0018017    1.524    0.344
        48 -10.8938    205.3054    110.2462   9.2815090740e+01   1.7852407585e+01    0.3166226      0.20259  43.14 0.0009552304    1.580    0.367
        49 -10.3403     22.2817    205.3274   1.4767591721e+02   2.9885342574e+01   0.09198189   0.07278357 -62.55 0.0005070216    1.601    0.375
        50 -12.0111    168.8590    202.4311   1.1945604929e+02   9.4757282372e+00    0.2448998    0.1965249  83.04  0.000620273    1.756    0.430
        51 -11.2812    138.0076    198.5950   1.2491122640e+02   1.5461906451e+01    0.5389006    0.3130609  68.90  0.002239007    2.741    0.635
        52 -10.7111     12.1347    100.5416   1.4014398279e+02   5.2568056699e+01    0.1873861    0.1076006  32.24  0.001135308    2.103    0.524
        53 -11.9984    125.0699    243.6177   1.3299980917e+02   1.0246704640e+01    0.1789052    0.1488372 -65.41 0.0006101928    1.473    0.321
        54 -12.3745    155.6534    190.4888   1.2010165949e+02   1.3796677252e+01    0.3308124    0.2366087  69.40  0.001428413    1.830    0.453
        55 -12.6749    154.3536    185.6736   1.1955542738e+02   1.4871329836e+01    0.3447871    0.2493704  50.40  0.001341209    1.314    0.239
        56 -13.8165    207.9839    179.6021   1.0787958418e+02   5.9251137553e+00    0.9261503    0.5706313 -36.54  0.004792045    1.732    0.423
        57 -14.4719    150.7843     56.4670   8.8529618263e+01   3.9900095215e+01       1.2223     1.070966  25.85 0.0009585764    1.138    0.121
        58 -10.0338    159.8794    247.2170   1.2739542903e+02   4.4458421335e+00    0.1437616    0.1163205  20.82 0.0004785372    1.331    0.248
        59 -11.0774     13.5281     59.9541   1.3250990063e+02   6.1256517975e+01    0.1742473    0.1582925  65.96    0.0004637    1.421    0.297
        60 -13.0858    165.7952     33.3613   7.8019952152e+01   3.9425873075e+01    0.4455287    0.3927826   9.30 0.0008292269    1.186    0.157
        61 -11.9486    133.8444    246.5326   1.3180139131e+02   8.5132136301e+00    0.1572282    0.1469505  65.93 0.0003143591    1.224    0.183
        62 -11.3847    189.8359     14.8695   6.8649247857e+01   3.5393858742e+01    0.2137872    0.1842079  40.70 0.0007094876    1.202    0.168
