#   1 NUMBER                 Running object number                                     
#   2 MAG_AUTO               Kron-like elliptical aperture magnitude                    [mag]
#   3 X_IMAGE                Object position along x                                    [pixel]
#   4 Y_IMAGE                Object position along y                                    [pixel]
#   5 X_WORLD                Barycenter position along world x axis                     [deg]
#   6 Y_WORLD                Barycenter position along world y axis                     [deg]
#   7 A_WORLD                Profile RMS along major axis (world units)                 [deg]
#   8 B_WORLD                Profile RMS along minor axis (world units)                 [deg]
#   9 THETA_WORLD            Position angle (CCW/world-x)                               [deg]
#  10 FWHM_WORLD             FWHM assuming a gaussian core                              [deg]
#  11 ELONGATION             A_IMAGE/B_IMAGE                                           
#  12 ELLIPTICITY            1 - B_IMAGE/A_IMAGE                                       
         1 -11.3018    189.4145     46.6592   6.1047162585e+01   3.1541727414e+01      2.08768    0.7047527 -45.43  0.006416339    3.493    0.714
         2 -12.4255    180.4466     23.6938   5.5197059504e+01   3.6815030224e+01     3.531628     1.703935  46.71   0.01407674    2.133    0.531
         3 -13.3868    213.4921     70.1575   6.4038658268e+01   2.2134356319e+01     11.94548     3.007304 -47.37   0.02099716   11.395    0.912
         4 -14.3743    222.3295     45.2346   5.5909350970e+01   2.3358831661e+01     9.295082     1.583338 -38.90   0.02542868    4.571    0.781
         5 -12.5297    187.0592    101.1821   7.7102352461e+01   2.3585172167e+01        3.607    0.7926838 -33.34  0.009071909    5.156    0.806
         6 -12.8384    175.9241     60.6755   6.7726351718e+01   3.2979266647e+01     2.582107     1.439247 -89.47  0.007829972    4.166    0.760
         7 -12.2060    180.2435     78.0791   7.2085387368e+01   2.9103558103e+01     1.917995     1.186601 -64.20  0.007408666    2.471    0.595
         8 -13.2563    135.3901     39.4024   6.9078120185e+01   4.6485537714e+01     3.612632     1.625627  48.14   0.01389338    2.153    0.536
         9 -12.3924    226.9310      7.4429   4.5091889968e+01   2.6493289686e+01    0.9195173    0.4102752 -32.46  0.002412359    2.013    0.503
        10 -13.6927    245.0033      5.1109   4.3038958567e+01   2.2385232181e+01     3.905564          nan  63.05   0.01026241    6.837    0.854
        11 -11.7213    248.1546     24.1544   4.7553797555e+01   1.9676918545e+01    0.5950904    0.3983594 -18.00   0.00110489    1.555    0.357
        12  -9.5547    115.8668     12.2148   6.2907692573e+01   5.4782864775e+01    0.3086039    0.2922592 -24.03  0.001239162    1.133    0.118
        13 -10.5254    120.3598      8.8698   6.0467601709e+01   5.4056517597e+01     0.418425    0.3831266  31.98  0.001032264    1.009    0.009
        14  -9.2626    172.1299      2.7148   4.9428142077e+01   4.1187984315e+01    0.3922236    0.2153535 -57.25  0.001655097    2.164    0.538
        15 -10.1953    235.2089    174.6614   8.4758609879e+01   2.7763802914e+00    0.3789451    0.2694921  49.11  0.001896986    1.594    0.372
        16  -9.5538    234.6845    169.9880   8.3949386000e+01   3.4456423485e+00    0.2293333    0.1490051  20.43 0.0004268943    1.488    0.328
        17  -9.5233    228.0374    175.5205   8.6125718820e+01   3.9221128308e+00    0.1921363    0.1116582  42.90  0.001026323    1.589    0.371
        18  -8.6674     88.9542    170.4604   1.1286225209e+02   2.9347646822e+01    0.1667871    0.1467239  80.05 0.0001552913    1.071    0.066
        19  -8.1830    155.2953    169.9790   9.8741348750e+01   1.8210814161e+01    0.1736025    0.1598445  42.28 0.0002861262    1.041    0.039
        20  -8.7310    244.4702    169.4816   8.2245677710e+01   1.8063707162e+00     0.126208    0.1036444  11.78 4.691575e-05    1.016    0.016
        21  -9.6765    202.5737    167.0972   8.9015747801e+01   9.7165034752e+00    0.2278438    0.1847536  39.21 0.0004155821    1.146    0.127
        22  -8.2211    230.3321    166.6844   8.4036081417e+01   4.6388727398e+00    0.1146511    0.1051497 -86.80 0.0003391631    1.685    0.406
        23  -8.6656    207.8833    164.7631   8.7592777451e+01   9.0481829842e+00     0.284841    0.1719193  64.90  0.001222669    2.896    0.655
        24 -10.1366     62.2605    164.3931   1.1794453662e+02   3.4223232280e+01    0.3636448    0.1939329  55.20  0.001990812    1.734    0.423
        25 -10.6731    235.9898    160.7472   8.1908516166e+01   4.3810711319e+00    0.3860404    0.2929005  68.18  0.002117473    2.125    0.529
        26  -9.5220    244.4295    245.0573   9.4858069264e+01  -5.9304286484e+00    0.1865232    0.1153537  35.80 0.0003723846    1.300    0.231
        27 -11.8293    249.2179     47.0540   5.3234142279e+01   1.6781213417e+01     0.765848    0.5354458 -31.54  0.001137206    1.287    0.223
        28  -9.2298     90.4909    242.5015   1.1976984227e+02   1.6745764539e+01     0.107684   0.07643756  56.47 0.0008104806    1.026    0.026
        29  -8.7288    234.7628    240.9925   9.5767944734e+01  -4.2233079822e+00    0.1172563   0.08263947 -15.18 0.0003490791    1.578    0.366
        30  -9.1198    136.3155    241.5806   1.1199542285e+02   1.0420995048e+01    0.2239108   0.07812959  45.30  0.001134979    2.124    0.529
        31 -11.2115    177.9247    141.6135   8.8591695551e+01   1.8643884387e+01    0.8283879    0.5226422 -72.91   0.00311148    3.489    0.713
        32 -10.0195     69.5050    145.0103   1.1389976138e+02   3.7352883913e+01    0.4092408    0.2456235  86.48  0.001406895    1.919    0.479
        33  -9.7945     66.4866    144.4853   1.1455061822e+02   3.7864688717e+01    0.4359347    0.2451707 -88.76  0.001743073    2.080    0.519
        34  -8.6929    134.0000    149.0540   9.9507660342e+01   2.6026107684e+01     0.364459   0.07919397 -49.23  0.001050655    4.928    0.797
        35  -8.6019    192.1138    144.0894   8.6311393805e+01   1.5303740786e+01    0.2067956    0.1958611  26.32 0.0005407952    1.071    0.066
        36  -9.4892    158.2923    141.9037   9.2755873888e+01   2.2626049440e+01     0.362502    0.2426409 -71.59  0.001599991    2.328    0.571
        37 -11.2965    189.3173    138.8943   8.5728536223e+01   1.6729423137e+01    0.5994275     0.331479  36.87  0.002662216    1.820    0.450
        38  -8.7211    211.6691    136.3055   8.0946881962e+01   1.2493998841e+01    0.2689018    0.1610885  -8.28  0.001152474    2.302    0.566
        39  -9.3933    160.6297    128.5785   8.9349885962e+01   2.4604132595e+01    0.2848901    0.2647087  85.14  0.001594937    1.190    0.160
        40  -8.3452    136.0000    129.0017   9.5009296582e+01   2.9598678977e+01     0.233625   0.08209065 -47.02 0.0008038122    2.952    0.661
        41  -8.3756    224.2884    128.6527   7.7003269221e+01   1.1033563199e+01    0.1331885    0.1091909 -60.77 0.0005652634    1.658    0.397
        42 -10.5681    186.8461     72.7803   6.9299176433e+01   2.8320262545e+01     0.362529    0.3125048 -64.65 0.0005415716    1.301    0.231
        43 -10.1711    138.1662    231.2928   1.1058011192e+02   1.1539384172e+01    0.1840976    0.1526654  50.19 0.0002710658    1.093    0.085
        44 -11.7178      2.6155    203.3878   1.3227839020e+02   3.2998686000e+01     0.617661    0.2182319 -84.92  0.003647159    2.427    0.588
        45  -9.6834    233.2162    119.8281   7.3482735808e+01   1.0464421254e+01     0.265918    0.1887369  70.02  0.001032512    2.017    0.504
        46 -10.8642    230.3968    114.9648   7.2797714781e+01   1.1742949863e+01    0.5324754    0.3256058 -16.14  0.002499612    1.766    0.434
        47  -8.7283    193.2826    117.6139   8.0032618201e+01   1.9404373713e+01    0.1478609    0.1151752 -67.33 0.0007006306    1.737    0.424
        48 -10.3583    167.9379    113.8195   8.4263645240e+01   2.5736512374e+01    0.3420386    0.3174936 -80.36 0.0006398961    1.214    0.176
        49  -9.3077    216.1239    113.8741   7.4935610512e+01   1.4958908451e+01    0.2040277    0.1619813   8.55 0.0005132933    1.325    0.245
        50  -8.9876    135.0000    113.0616   9.1606191275e+01   3.3014818111e+01    0.3453503    0.1645055 -45.68  0.001367913    2.131    0.531
        51 -10.3097    205.2488    110.5160   7.6045191774e+01   1.7884999911e+01    0.4668958     0.307831  30.16  0.002162155    1.672    0.402
        52  -8.6647      3.3483    109.3274   1.2651850719e+02   5.1734907486e+01    0.1142092   0.06879744 -51.64    0.0005161    1.756    0.431
        53  -9.0215    247.4793    202.2739   8.7736310947e+01  -2.3460320747e+00    0.2031581    0.1307297  34.38 0.0005357377    1.312    0.238
        54  -8.7118    165.0524    101.4961   8.1733255954e+01   2.8648112257e+01     0.219388    0.1965379 -33.51  0.001149427    1.129    0.114
        55  -8.2719    143.6100    102.2144   8.6809304580e+01   3.3345526121e+01    0.2102411    0.1430028 -31.28 0.0006262712    1.622    0.384
        56  -9.6939    149.8811     97.7198   8.4138726114e+01   3.2821442201e+01    0.4332726    0.2934683  36.07  0.001070352    1.588    0.370
        57 -10.4974    222.4856     95.4189   6.9283845098e+01   1.6318497362e+01      0.47875    0.3484907  80.93  0.002283843    1.935    0.483
        58  -8.6630    136.1680     95.3155   8.6778000197e+01   3.6333878298e+01    0.2733608    0.2175456  87.03 0.0006282051    1.605    0.377
        59  -9.0847    159.3613     91.3058   8.0219743245e+01   3.1841151149e+01    0.3081968    0.2672257  82.71  0.001367734    1.337    0.252
        60  -9.8236    163.1457     89.1682   7.8787527109e+01   3.1337296200e+01    0.5550996    0.3123667  47.89  0.002305017    1.753    0.429
        61 -10.0574    144.3717     87.0306   8.2469849240e+01   3.6115638566e+01    0.3295908    0.3080391 -26.78  0.000740802    1.079    0.073
        62  -8.3172    206.8344     82.8712   6.8587883193e+01   2.1848779658e+01    0.2062939    0.1662008 -50.10 0.0006553706    1.334    0.250
        63 -11.3481    160.0939     79.3730   7.6632684830e+01   3.3819375950e+01    0.4074723    0.3036844 -17.60 0.0005781099    1.520    0.342
        64  -9.4976    191.7490    192.7450   9.5599378398e+01   8.0648747537e+00    0.4019336    0.2626143 -76.06   0.00161149    4.685    0.787
        65  -8.0329    153.0000     84.9390   7.9848783217e+01   3.4506260464e+01    0.2533404   0.08697935 -37.74  0.000760715    2.919    0.657
        66  -8.4009     42.7046     77.9864   1.0994983383e+02   5.5584765574e+01    0.1824479    0.1414195 -68.00 0.0006529203    1.141    0.123
        67 -10.1555    201.8853    125.8170   8.0351534296e+01   1.6184340080e+01    0.4717195    0.3346415 -85.27  0.001992701    2.649    0.622
        68  -8.6100    146.4828     73.4555   7.7935191894e+01   3.8143170223e+01    0.2735093    0.1355035 -47.06 0.0008191332    2.198    0.545
        69  -8.6174    151.8438     71.5604   7.6113508938e+01   3.7194893075e+01    0.3124683    0.1881838 -49.55 0.0009490374    1.847    0.459
        70 -11.9594    233.1819     41.1984   5.3502007072e+01   2.1225000835e+01     0.638833    0.3772375  41.96  0.001624002    1.971    0.493
        71  -8.8271    142.0686    121.8366   9.1991889656e+01   2.9794313654e+01    0.2313356    0.2015118 -89.86  0.000816739    1.299    0.230
        72  -9.3967    140.3030     60.6597   7.5318099372e+01   4.1876555837e+01    0.2536216    0.1865057 -50.70 0.0008797561    1.480    0.324
        73 -12.7852     16.3621    184.1684   1.2892323747e+02   3.5273958003e+01     1.015471    0.4573378 -82.50  0.006217247    1.908    0.476
        74 -13.1858     31.5650    180.3977   1.2575876670e+02   3.4520224876e+01    0.8053926    0.6639793 -82.23  0.002661777    1.280    0.219
        75 -10.8769    197.5621    119.8174   7.9745257468e+01   1.8094554484e+01    0.4132352    0.3133007 -22.83  0.001347263    1.357    0.263
        76  -9.5928    144.1780     59.0674   7.3879832016e+01   4.1210513529e+01    0.3583601    0.2703097 -60.42 0.0009438983    1.588    0.370
        77 -10.2843    122.6076     59.6750   7.9450380216e+01   4.6161113176e+01     0.261484    0.2542054 -10.16 0.0002454332    1.009    0.009
        78  -8.3390     72.7016     58.1274   9.4208665036e+01   5.6024715966e+01    0.1965566    0.1547311 -42.16 0.0005633495    1.147    0.128
        79  -8.2799     88.0457    155.0423   1.1097136198e+02   3.2603009237e+01    0.1460808    0.1277358  71.40 0.0002943965    1.017    0.017
        80 -10.9218    248.9226    143.5588   7.6259075593e+01   4.2238495598e+00    0.4540357    0.2737527 -21.51  0.002387995    1.578    0.366
        81 -10.0679    201.1267    116.3830   7.8244825554e+01   1.7864486573e+01    0.3511655    0.2557139  61.80   0.00112131    1.590    0.371
        82 -11.7034    200.8661     63.1845   6.4089407672e+01   2.6265790945e+01     1.085224    0.4482953  38.77  0.003492932    3.368    0.703
        83 -11.5251    109.0483     38.2283   7.5379448102e+01   5.2819646703e+01    0.5565857    0.3444498  31.99   0.00250466    1.827    0.453
        84  -9.1855    205.9524    122.3029   7.8771917480e+01   1.5863715822e+01    0.2509974    0.1988712 -59.53 0.0008808922    1.627    0.386
        85 -10.8016    245.7712     35.2813   5.0602424532e+01   1.8968755336e+01    0.6590965    0.4155342 -60.17  0.002332516    1.728    0.421
        86  -8.9489    250.4600     34.4965   4.9940039729e+01   1.7986906603e+01    0.4462721    0.1658205 -27.07  0.001782712    2.431    0.589
        87  -8.5256    204.2327    152.4555   8.5782263910e+01   1.1557841952e+01    0.1858516    0.1265996  54.88 0.0007999443    1.639    0.390
        88  -8.0586    151.2994    123.6541   9.0292059734e+01   2.7509785090e+01    0.1482134    0.1164365 -86.60 0.0007036656    1.679    0.405
        89  -8.3454    238.7796     34.4015   5.1093374108e+01   2.0704465280e+01    0.1899004    0.1209934  54.25 0.0009413941    1.665    0.399
        90  -9.2023    234.7238     30.3172   5.0442298751e+01   2.2144531959e+01    0.5360472    0.2004816 -41.72  0.002091277    2.429    0.588
        91  -9.3385    201.4182     33.1541   5.5187292698e+01   3.0165882836e+01    0.2955308    0.2096422 -31.96 0.0008980482    1.376    0.273
        92 -12.8785     44.6407    171.2522   1.2238886378e+02   3.4923885627e+01    0.8837078    0.7088106  74.02  0.003083827    1.034    0.033
        93 -10.4973    165.0669     27.6752   5.8957187505e+01   4.0431867824e+01    0.5307503    0.3822773 -10.78  0.001914919    1.537    0.349
        94  -8.7163    222.0846    149.9956   8.2062704773e+01   8.4216376968e+00    0.1945122    0.1699075  22.46 0.0003164263    1.055    0.052
        95  -8.5884    150.8960    148.1823   9.5625328916e+01   2.2945148298e+01    0.3470778    0.1879557 -64.04  0.001343249    3.030    0.670
        96  -9.0111    134.7304    121.6504   9.3679607730e+01   3.1331907138e+01    0.4473854    0.1243775 -43.35  0.001347664    3.871    0.742
        97  -9.6663    245.3925    184.0209   8.4841793895e+01  -4.0141617129e-02    0.2285159    0.1977041 -49.22 0.0009943916    1.806    0.446
        98  -9.0612    233.4899    179.2119   8.5900826882e+01   2.5184124746e+00    0.2713988    0.1971469  41.03  0.001206452    1.347    0.257
