#   1 NUMBER                 Running object number                                     
#   2 MAG_AUTO               Kron-like elliptical aperture magnitude                    [mag]
#   3 X_IMAGE                Object position along x                                    [pixel]
#   4 Y_IMAGE                Object position along y                                    [pixel]
#   5 X_WORLD                Barycenter position along world x axis                     [deg]
#   6 Y_WORLD                Barycenter position along world y axis                     [deg]
#   7 A_WORLD                Profile RMS along major axis (world units)                 [deg]
#   8 B_WORLD                Profile RMS along minor axis (world units)                 [deg]
#   9 THETA_WORLD            Position angle (CCW/world-x)                               [deg]
#  10 FWHM_WORLD             FWHM assuming a gaussian core                              [deg]
#  11 ELONGATION             A_IMAGE/B_IMAGE                                           
#  12 ELLIPTICITY            1 - B_IMAGE/A_IMAGE                                       
         1 -13.0003    186.0430     33.0325   6.1667332635e+01   3.4467870687e+01     1.432553    0.9382886  30.50  0.005327911    1.883    0.469
         2 -12.0532    190.0967     26.7626   5.9197622375e+01   3.4178006390e+01    0.8648988    0.4833546  54.23  0.001536787    1.708    0.414
         3 -11.3649    208.5157      2.5407   5.0154800176e+01   3.2030566116e+01    0.7481036    0.3132199  72.97  0.003159805    2.227    0.551
         4  -9.3495    164.1584    218.1809   1.0933605240e+02   7.9828913120e+00    0.1717112    0.1334431  57.40  0.000668647    1.348    0.258
         5 -10.0006    140.9690    250.0000   1.1748479721e+02   7.1364753019e+00    0.4932816    0.1138688  40.49  0.001944553    3.402    0.706
         6 -10.2002    139.0000    246.0171   1.1739721514e+02   7.9857496501e+00    0.2467644    0.1632491 -64.72  0.001419513    2.045    0.511
         7 -19.4381     25.1105    140.6297   1.2937385069e+02   4.3143624818e+01     17.91533     2.558284 -72.74   0.04990509    6.723    0.851
         8 -10.0652    104.7065    199.8377   1.1853040294e+02   2.0811938781e+01    0.2769065    0.2196632 -36.13  0.001706838    1.781    0.438
         9 -10.1430    193.7081    192.8151   9.9692075332e+01   6.6167653406e+00    0.6044469    0.3600112 -41.83  0.003170493    1.943    0.485
        10 -10.5884     67.2641    195.6733   1.2561715997e+02   2.6936909464e+01    0.3644716    0.1968271  60.71  0.001014832    1.719    0.418
        11 -12.2003     73.6720    190.8944   1.2383697846e+02   2.7024966532e+01    0.8279026    0.7015562  67.08  0.004354175    1.064    0.060
        12  -8.1820    209.9859    199.9955   9.7913898685e+01   2.7109292581e+00    0.1523185    0.1292586  16.78 0.0004284945    1.053    0.050
        13 -10.3032     60.5673    190.1587   1.2643485878e+02   2.8870783728e+01    0.3780641     0.228558 -68.96  0.001522496    1.625    0.385
        14  -8.3011    167.4701    187.9546   1.0398978286e+02   1.2179704744e+01    0.1822045    0.1342911 -46.14  0.001017688    1.561    0.359
        15  -9.1872    205.8461    180.6184   9.5169947739e+01   6.2260433870e+00    0.2762656    0.1494661  49.24  0.001062607    1.910    0.476
        16  -9.2311    208.6981    178.6673   9.4264009704e+01   5.9901276832e+00      0.23027    0.1784197 -11.23  0.001202036    1.347    0.257
        17  -8.8537     99.4921    180.7095   1.1716720131e+02   2.5305127433e+01    0.2261002    0.1586828  44.78  0.000695352    1.312    0.238
        18  -9.6464    195.6541    169.9082   9.5059865143e+01   9.8191050843e+00    0.2952859    0.2496748  -0.88 0.0009998294    1.210    0.174
        19  -7.9801    112.2889    214.6557   1.1878957100e+02   1.6993763236e+01     0.124046   0.08046611  68.50 0.0007023829    1.652    0.395
        20  -9.2051    141.0427    157.8338   1.0420659855e+02   2.2673163045e+01    0.2192288    0.1999764 -62.74 0.0003537543    1.171    0.146
        21 -10.7295     98.9104    155.2572   1.1352605604e+02   3.0680136403e+01    0.5658033    0.3940155 -32.13  0.002486089    2.060    0.515
        22 -10.6151     63.6885    155.5375   1.2191471051e+02   3.5702457895e+01    0.2780316    0.1900902  61.92 0.0009791934    1.413    0.292
        23  -8.3230    164.2572    152.9999   9.8116094743e+01   1.9023464835e+01    0.1840657    0.1258139 -42.98 0.0008898912    1.562    0.360
        24  -8.3013    174.5311    149.4550   9.5174324958e+01   1.7576305348e+01    0.1448026    0.1348067  30.43 7.310156e-05    1.002    0.002
        25 -10.2530    133.7768    144.5552   1.0328236892e+02   2.6756529600e+01     0.918906    0.2451088 -53.03  0.002621791    4.600    0.783
        26 -10.7191     97.9421    140.2875   1.1119225790e+02   3.4096266225e+01    0.2584587    0.2515604  19.69   0.00039679    1.186    0.157
        27  -8.6219     97.1166    213.4461   1.2157314860e+02   1.9486814415e+01    0.2274285    0.1620139  32.58  0.001415543    1.575    0.365
        28  -8.3448     82.5029    133.5303   1.1392092275e+02   3.8012355578e+01    0.1350054    0.1229531 -88.56 0.0002192374    1.010    0.010
        29  -9.6143    106.1611    131.0002   1.0732823649e+02   3.4756895019e+01     0.369776    0.2910662 -86.76  0.001503642    1.437    0.304
        30  -9.6994    104.0404    126.7962   1.0701687902e+02   3.6054692257e+01    0.3011022    0.2605123 -13.34 0.0006747074    1.443    0.307
        31 -10.5690    117.1997    130.1416   1.0434194500e+02   3.2956911020e+01    0.5002523    0.2938839  31.28  0.002168748    2.017    0.504
        32  -7.9456    110.3095    211.3211   1.1878652130e+02   1.7877918870e+01    0.1098395   0.09500575   7.16 0.0007035546    1.645    0.392
        33  -9.2327    160.5965    126.8314   9.3158617056e+01   2.4824482600e+01    0.2106542    0.1420824 -53.57 0.0004496598    1.665    0.399
        34  -9.7400    120.0141    124.9674   1.0250747208e+02   3.3547747628e+01    0.2327343    0.1841506  -9.27  0.001134303    1.720    0.419
        35 -10.3113    109.2388    140.3257   1.0838418096e+02   3.2177862294e+01    0.4782419    0.2861725 -33.77  0.002057476    2.379    0.580
        36  -9.0568    111.0208    119.4569   1.0360598419e+02   3.6428601121e+01    0.2149417    0.1901527 -55.48 0.0003904443    1.114    0.102
        37  -9.5742     69.5244    116.4997   1.1431893432e+02   4.3719877555e+01    0.2196362    0.1354303  17.71 0.0008440096    2.356    0.575
        38  -8.8450    168.0612    112.9992   8.8098148359e+01   2.5842296668e+01    0.2484989    0.1928041 -80.71  0.001132353    1.775    0.437
        39  -8.7813    120.9976    111.2405   9.9057383417e+01   3.6315556050e+01    0.1987918    0.1242115  43.61 0.0008831098    1.610    0.379
        40  -8.6332    205.8236    110.2205   7.9704447462e+01   1.7699304804e+01     0.209248    0.1686887  20.44 0.0005139323    1.337    0.252
        41  -9.6651    115.0120    209.7289   1.1767996285e+02   1.7425467805e+01    0.1799535    0.1348833  48.36 0.0005558893    1.119    0.106
        42  -8.9106     94.0470    205.0402   1.2126294092e+02   2.1454202786e+01     0.246216    0.1767775 -26.19  0.001342441    2.642    0.621
        43  -8.1885    163.8552    204.8167   1.0742582995e+02   1.0083931180e+01    0.1670771    0.1384056  60.70 0.0004089246    1.305    0.234
        44 -10.7543    171.8305     71.0406   7.5695325400e+01   3.2540206357e+01     0.432166    0.3281912  88.50  0.001376018    1.700    0.412
        45  -7.8319    108.3092     62.7107   8.8722280081e+01   4.8768398941e+01    0.1399067     0.117655 -82.47 0.0001688825    1.578    0.366
        46 -11.7069    171.6085     47.4515   6.8544339162e+01   3.6272700272e+01    0.5822177    0.4688277 -26.44  0.001412747    1.285    0.222
        47  -8.7745     78.9572    231.9970   1.2666442876e+02   1.8830215357e+01    0.1630101     0.128234  60.08  0.001213961    1.066    0.062
        48 -10.3481    183.9652    215.8785   1.0529998806e+02   4.9711775507e+00    0.3763632    0.3036465 -70.30  0.002351312    1.881    0.468
