#   1 NUMBER                 Running object number                                     
#   2 MAG_AUTO               Kron-like elliptical aperture magnitude                    [mag]
#   3 X_IMAGE                Object position along x                                    [pixel]
#   4 Y_IMAGE                Object position along y                                    [pixel]
#   5 X_WORLD                Barycenter position along world x axis                     [deg]
#   6 Y_WORLD                Barycenter position along world y axis                     [deg]
#   7 A_WORLD                Profile RMS along major axis (world units)                 [deg]
#   8 B_WORLD                Profile RMS along minor axis (world units)                 [deg]
#   9 THETA_WORLD            Position angle (CCW/world-x)                               [deg]
#  10 FWHM_WORLD             FWHM assuming a gaussian core                              [deg]
#  11 ELONGATION             A_IMAGE/B_IMAGE                                           
#  12 ELLIPTICITY            1 - B_IMAGE/A_IMAGE                                       
         1 -11.0221     79.0034     31.4444   7.6921759212e+01   6.0756109426e+01    0.7805114    0.3991443 -18.33   0.00303728    2.715    0.632
         2 -11.4446    177.5314     30.5460   5.3175025581e+01   3.7071710265e+01    0.4949737    0.2661535 -44.86  0.002060903    1.882    0.469
         3 -11.8721     60.6902     23.8013   8.0326510919e+01   6.5226058011e+01    0.7158403    0.4157134 -51.79  0.003341589    2.316    0.568
         4 -10.9869     91.8587      6.6779   6.0878265685e+01   6.1410317793e+01    0.4536143     0.297201  32.07    0.0013158    1.479    0.324
         5 -10.5607     65.1796     13.9823   7.3512322651e+01   6.5926211049e+01    0.5853763    0.2614431  29.34  0.002331766    3.000    0.667
         6 -11.4926     74.0636      7.2040   6.6633025033e+01   6.5101273365e+01    0.2857407    0.2222004 -15.31 0.0004746394    1.189    0.159
         7 -12.2868     80.6460      7.3797   6.4561228399e+01   6.3745469610e+01    0.7462665     0.407029  21.39  0.003340324    2.217    0.549
         8 -11.3794     70.4254     14.9251   7.2020173621e+01   6.4836555684e+01    0.4725252    0.2263935 -20.00  0.001607454    2.285    0.562
         9 -11.5116     75.2911     16.0704   7.0852873881e+01   6.3755574118e+01    0.3825297    0.2769785  38.83  0.001815511    1.377    0.274
        10 -11.9799     20.1339     17.6903   9.6970065981e+01   7.1470314267e+01    0.4984996    0.4093073  71.79  0.002454567    2.114    0.527
        11 -11.3083    130.5207     20.1703   5.7673390158e+01   5.0675418639e+01     0.433514    0.3637098 -44.58  0.001327598    1.275    0.216
        12 -12.2835     84.8255     20.3197   6.9722278949e+01   6.1278233402e+01     0.529061    0.4253376 -46.77  0.001039862    1.468    0.319
        13 -11.3890      4.8212     18.5669   1.0606112689e+02   7.2442262162e+01    0.3889981    0.2883688  30.89  0.002109029    1.772    0.436
        14  -9.8491     34.9849     15.4529   8.7910037876e+01   7.0285647244e+01    0.3049174    0.1819274 -12.60 0.0008967521    1.972    0.493
        15 -10.5183    100.0047     12.8700   6.1663459740e+01   5.8905635982e+01    0.3309382     0.200252 -14.28  0.001099224    1.706    0.414
        16 -10.1322     55.0449     13.5346   7.7416767323e+01   6.7721860668e+01    0.2422717    0.1674885 -33.40 0.0004668619    1.356    0.263
        17 -10.2627     58.4387     10.2802   7.4202072969e+01   6.7610991946e+01    0.3839276    0.1774216  45.11  0.001547537    2.282    0.562
        18 -10.9559     26.6444     13.9669   9.1550798571e+01   7.1496338013e+01    0.2016704    0.1488805 -17.85 0.0003701121    1.201    0.167
        19 -10.3894     30.8624     12.9784   8.8757022090e+01   7.1193116125e+01    0.2235422    0.1820569 -18.25 0.0004261285    1.054    0.051
        20 -11.6545    116.9419      8.6585   5.5693388486e+01   5.5316325819e+01    0.6702168    0.2868555 -35.05  0.002421471    2.378    0.579
        21 -10.0759    138.3042     11.9749   5.2903190498e+01   4.9565760035e+01    0.2357342    0.1956594  85.15 0.0006328569    1.295    0.228
        22 -10.1403    133.0227     11.4671   5.3662957041e+01   5.0982394726e+01     0.312436    0.1727892   6.96  0.001168356    2.444    0.591
        23 -10.1476     50.4266     11.3937   7.8270132062e+01   6.8766984321e+01    0.2664063    0.1648054  -2.45 0.0008967004    1.901    0.474
        24 -11.1938     17.0492      3.4111   9.1319435406e+01   7.4252342391e+01    0.3390341     0.208142 -38.03  0.001057409    1.310    0.236
        25 -11.8548     11.4899      2.8789   9.4508623577e+01   7.4851718187e+01    0.3349127    0.1859993 -22.66  0.001353643    1.722    0.419
        26 -11.7906     23.1382      7.1502   8.9839061741e+01   7.3019316640e+01    0.5314567    0.3968575 -48.55  0.002879927    1.539    0.350
        27 -12.9986     32.0186      2.0876   8.1849353168e+01   7.2742172735e+01    0.2895671    0.2085612  16.38 0.0005978571    1.374    0.272
        28 -10.6727     27.4850      3.4386   8.5180357488e+01   7.3111683915e+01    0.2011362    0.1638636 -28.39 0.0007075024    1.215    0.177
        29 -10.2129      5.5037     11.4572   1.0266623317e+02   7.3770801697e+01    0.2012645   0.09082095 -40.76 3.939302e-05    1.681    0.405
        30  -9.7729      6.4175      8.1534   1.0053990387e+02   7.4320805672e+01    0.2260431    0.1579342 -60.17 0.0004664199    1.594    0.373
        31 -11.2507    235.5983     10.0981   4.0876595561e+01   2.4664953261e+01    0.2970668    0.2246783   3.46  0.001014663    1.712    0.416
        32 -10.0314     39.2540     10.1685   8.2877447697e+01   7.0582440721e+01    0.2803271    0.2156863 -70.56 0.0009731145    2.667    0.625
        33  -9.2978    183.0110      9.9976   4.5780701362e+01   3.7923566121e+01    0.1660908    0.1575403 -53.29 0.0003640035    1.053    0.050
        34 -10.8984    127.2991      8.5127   5.3534101237e+01   5.2736840760e+01    0.2991576    0.2205503 -47.27 0.0001867747    1.518    0.341
        35  -9.5646    107.8424      9.4252   5.8089279135e+01   5.7445573772e+01    0.2290136    0.1584699 -10.54  0.001050146    1.476    0.322
        36  -9.2962     43.4260      7.9212   7.9547865380e+01   7.0326203184e+01    0.1628533   0.09846155 -50.55 0.0008047464    2.437    0.590
        37 -10.2108    146.9942      7.4876   4.9727557104e+01   4.7726994858e+01    0.5760279    0.1831542 -41.03  0.001921598    3.354    0.702
        38  -9.6094    150.5046      6.0403   4.8655016754e+01   4.6934250626e+01    0.2333747    0.1815344  46.81 0.0003505603    1.251    0.200
        39 -10.2886    228.8112      5.1669   4.0112881715e+01   2.6782280454e+01    0.2110415    0.1568417 -55.25 0.0006563702    1.199    0.166
        40  -9.2776    132.4683      5.4720   5.1336277389e+01   5.1698512274e+01    0.1435876    0.1292808  39.69 0.0008085988    1.053    0.050
        41  -9.8324    243.7365      3.9300   3.8747530089e+01   2.3413838429e+01    0.2326763    0.1051112 -50.78  0.001075897    1.953    0.488
        42 -11.4512    167.9296      2.2907   4.5011605814e+01   4.2644416995e+01    0.2429076    0.2153193 -42.78 0.0003060897    1.151    0.132
        43 -10.2607    125.9419      2.2904   5.1184761724e+01   5.3646601610e+01    0.3078304     0.200286 -60.24   0.00144622    1.955    0.488
        44 -10.6850    236.6914      2.3366   3.8823204967e+01   2.5199384551e+01    0.2763318    0.1474731  68.45   0.00137785    1.907    0.476
        45 -11.2126    235.8038    214.6124   8.8258620617e+01  -3.0909863100e+00    0.3448545    0.2035965  -4.39  0.001524673    1.865    0.464
        46 -10.1442    247.3171    250.0741   9.1909678902e+01  -8.2062813123e+00    0.2027242    0.1217029  14.56  0.001437463    1.368    0.269
        47 -10.5738    250.3009    245.6608   9.0809944913e+01  -8.2006728164e+00    0.3078673      0.13527 -24.23  0.001868233    2.454    0.592
        48 -11.7281    232.3649    246.1221   9.3673542471e+01  -5.8624077464e+00    0.5718931    0.2313189 -20.97  0.002943581    3.378    0.704
        49 -12.0881     74.4767    238.6091   1.1986334302e+02   1.7803371722e+01    0.5833189     0.337622 -60.28  0.003864648    2.151    0.535
        50 -12.9581     20.2866    248.6425   1.2930049527e+02   2.2394317969e+01    0.9484117    0.2993287  38.02   0.00546957    2.673    0.626
        51 -12.7547      6.2353    244.6067   1.3131541937e+02   2.4416468278e+01    0.7351494    0.4516933  60.23  0.005325895    1.096    0.088
        52 -11.1735    241.0140    211.8475   8.6946045985e+01  -3.5550756683e+00    0.3422334     0.247116  11.39  0.002339401    1.125    0.111
        53  -9.3366    201.2916    215.7802   9.4319560821e+01   2.0938285979e+00    0.1943265    0.1156702  13.82  0.001030991    2.054    0.513
        54  -9.4500    136.8352    216.1422   1.0623096007e+02   1.2463630950e+01    0.1635765    0.1311703  27.68   0.00106483    1.319    0.242
        55 -10.4079     31.1539    215.6769   1.2598498684e+02   2.6898025349e+01    0.2306569    0.1623001  46.47  0.001712484    1.369    0.269
        56  -9.5914    170.3006    213.3255   9.9552527003e+01   7.4614849823e+00    0.1210286   0.08757868  12.21 0.0004686713    1.636    0.389
        57 -10.7839     21.3542    212.2388   1.2754375552e+02   2.8541558897e+01    0.3187125    0.1215892  53.75  0.001852311    1.954    0.488
        58 -10.2025    208.9805    212.0768   9.2382476316e+01   1.3394940803e+00    0.1844106    0.1460101  20.37 0.0004817515    1.034    0.033
        59  -9.1871     76.3289    212.3134   1.1739354902e+02   2.2090162035e+01   0.09950878   0.09254986  -8.09   0.00070437    1.672    0.402
        60  -9.5943      2.2996    212.3310   1.3085861281e+02   3.0324520254e+01    0.1451689    0.1118869  77.47 0.0005284842    1.198    0.165
        61 -11.8815      5.3678    208.1706   1.3017128136e+02   3.0814822113e+01    0.5070158    0.2131048  77.68  0.003053494    1.949    0.487
        62  -9.9801     10.7606    208.3721   1.2923480014e+02   3.0283173361e+01     0.159347    0.1056689 -69.10 0.0006829164    1.717    0.418
        63  -9.7387    124.0287    205.9616   1.0740942848e+02   1.6203149583e+01    0.1762998    0.1472353  50.75            0    1.017    0.017
        64 -11.3110     18.9695    202.9599   1.2750410898e+02   3.0519594445e+01    0.3234059    0.2223898  80.24   0.00122498    1.120    0.108
        65 -10.3435    175.3007    202.7092   9.6997134724e+01   8.1979280181e+00    0.2035846    0.1725346  50.95 0.0005709379    1.240    0.194
        66  -9.2547     67.9731    203.7742   1.1824539487e+02   2.4786546512e+01    0.1460066    0.0834769  42.32 0.0003897175    1.570    0.363
        67  -9.4289    223.6096    201.8277   8.8131758150e+01   2.8983044266e-01     0.150651    0.1098413 -39.27 0.0006117258    1.718    0.418
        68  -9.4147     34.5695    201.2170   1.2449650432e+02   2.9252735507e+01    0.1345358    0.0901551 -73.59 0.0003978014    1.507    0.336
        69  -9.3460    227.1460    196.8614   8.6654260527e+01   3.4344494414e-01    0.1762834    0.1212592  12.57 0.0007647247    1.362    0.266
        70 -10.2148    215.6588    194.6458   8.8248765544e+01   2.5087373042e+00    0.2127611    0.1411428 -14.39 0.0006104387    1.616    0.381
        71 -10.2171    186.7684    190.9955   9.2882106552e+01   7.9854251590e+00    0.1610633    0.1074224 -36.94 0.0008857233    1.662    0.398
        72 -10.0940      2.1554    189.0063   1.2995331000e+02   3.4762761028e+01    0.3094621    0.1036667  72.29  0.001521349    2.721    0.632
        73  -9.6214    211.3834    188.7633   8.7947791949e+01   4.0287160348e+00    0.1786571    0.1120007 -18.92 0.0009525636    1.763    0.433
        74  -9.4605     61.6594    184.8455   1.1776472074e+02   2.9353964158e+01    0.1727331   0.09841146 -86.20 0.0009431181    1.749    0.428
        75 -10.0024    167.0274    183.4924   9.5417542675e+01   1.2715080941e+01     0.208115    0.1190121  41.71  0.001024456    1.565    0.361
        76 -11.3105     16.0125    182.7267   1.2696384917e+02   3.4798196081e+01    0.3957046    0.1698626  80.12  0.002120814    2.114    0.527
        77  -9.6649      2.0025    180.3054   1.2958992658e+02   3.6514450789e+01    0.1506551    0.1086194  68.52 0.0005140563    1.102    0.092
        78 -10.0473    244.2631    178.3712   8.0347964665e+01  -9.8865843857e-02    0.2270133    0.1337075 -14.70 0.0009392894    1.703    0.413
        79 -10.9506    224.0864    178.4680   8.3769246126e+01   3.2657964912e+00     0.233648     0.205913  11.69 0.0004156052    1.103    0.093
        80  -9.6395     70.1883    177.7330   1.1519647493e+02   2.9720484588e+01    0.1469052     0.145367 -80.38 0.0005265093    1.355    0.262
        81  -9.2642     36.4512    178.4655   1.2250104447e+02   3.3641245036e+01    0.1179429   0.09193601  78.18 0.0001867278    1.021    0.021
        82  -9.7853     46.6315    177.1178   1.2023070392e+02   3.2792240688e+01    0.2180289    0.1345202  53.54  0.001315307    1.420    0.296
        83  -9.8971    200.3253    176.3783   8.7656832386e+01   7.7840350506e+00    0.2074854    0.1439348   9.72  0.001005034    1.649    0.393
        84 -10.9739     18.1321    173.0198   1.2593868934e+02   3.6615339879e+01    0.3830337    0.1582134  68.03  0.001946011    2.285    0.562
        85  -9.6861      8.3267    173.3146   1.2797531150e+02   3.7421909059e+01    0.1014392   0.07563847 -59.38  0.000704355    1.670    0.401
        86  -9.4550     75.4125    170.7681   1.1322460613e+02   3.0487508899e+01    0.1731446    0.1086332 -56.28 0.0009338798    1.715    0.417
        87 -10.6736     12.9000    170.1086   1.2684552621e+02   3.7700032325e+01    0.3229785    0.1135961  86.39  0.001459227    2.839    0.648
        88  -9.4620      4.7633    168.2697   1.2842952506e+02   3.8773714847e+01    0.1773166   0.06190405 -69.91 0.0007561694    2.406    0.584
        89 -11.0543     50.5986    165.3536   1.1822617374e+02   3.4867092121e+01    0.4102437    0.2077527 -55.48  0.002097709    2.164    0.538
        90 -11.2170     44.3521    162.4556   1.1935387897e+02   3.6226473866e+01    0.3194324    0.1956257 -76.30  0.001345938    1.435    0.303
        91 -10.0670     48.2074    159.5872   1.1817246118e+02   3.6424286875e+01    0.3098159    0.1979764  44.96  0.001817827    1.530    0.346
        92 -11.3400     36.7446    165.0560   1.2131477077e+02   3.6485049839e+01    0.5277428    0.2725855 -63.73  0.002916678    1.848    0.459
        93 -11.8757     36.9957    157.9632   1.2060629928e+02   3.8025882692e+01    0.2299784    0.1769215  82.96 0.0003159087    1.043    0.041
        94  -9.3286    210.0058    166.0000   8.3816230700e+01   7.5853637512e+00    0.2162869   0.07195409  44.71 0.0007137799    2.888    0.654
        95  -9.6528     67.1819    165.1741   1.1441760231e+02   3.2824840271e+01    0.1863694    0.1284188  69.57 0.0008581376    1.359    0.264
        96  -9.4727    200.3163    162.8978   8.4988054369e+01   9.8908521178e+00    0.1852361    0.1658245  -6.65 0.0005081538    1.078    0.073
        97 -11.3340     22.5118    156.4512   1.2379219748e+02   3.9792397857e+01    0.4464087    0.3056689  62.34  0.002929114    1.287    0.223
        98 -10.1706    247.4763    158.4667   7.5825331526e+01   1.9484936733e+00     0.129104    0.1093406  -3.30 8.034394e-05    1.054    0.051
        99  -9.0576    147.6622    156.3309   9.4476890907e+01   2.1320352138e+01    0.1465041    0.1110568  80.03 0.0007051987    1.737    0.424
       100  -9.0675    198.0117    154.3441   8.3640059470e+01   1.1727273953e+01    0.2230548    0.1176582  64.98 0.0007050451    4.465    0.776
       101 -10.4101     12.0768    153.5251   1.2593536673e+02   4.1351739048e+01    0.2395629     0.199711   1.14  0.001465663    1.874    0.466
       102 -10.3586    178.1572    151.4859   8.6970054873e+01   1.6183227377e+01    0.2642249    0.2453922  76.91  0.001015409    1.262    0.207
       103  -8.7382     32.6634    149.6997   1.2082945738e+02   4.0331538443e+01    0.1150096   0.08634742 -49.18 0.0002751981    1.660    0.398
       104 -10.2606     17.9801    146.5040   1.2403608470e+02   4.2419904774e+01    0.2569779    0.1774676 -35.33 0.0008700477    2.224    0.550
       105 -10.1092    207.0138    146.1063   8.0146645765e+01   1.1294332356e+01    0.2149813    0.1975658  10.71 0.0007340703    1.037    0.036
       106 -11.4851     10.8153    145.5136   1.2564658946e+02   4.3234543143e+01     0.398777     0.237374  39.56  0.002506581    1.777    0.437
       107  -9.5904     30.6323    144.7735   1.2083559823e+02   4.1655845866e+01    0.1736583   0.09602347 -86.54 0.0005359097    1.586    0.369
       108  -9.6734    220.3225    144.2887   7.7332013181e+01   8.9579643452e+00    0.1428368    0.1000445  10.72 0.0007009102    1.605    0.377
       109 -11.4769     20.1993    141.5225   1.2307597351e+02   4.3359124662e+01    0.4087459    0.1881263  75.57  0.001536416    2.257    0.557
       110 -10.9430     15.8587    139.8054   1.2398569146e+02   4.4117517532e+01    0.2746887    0.1620305   4.21  0.001450155    3.084    0.676
       111 -10.3953      2.9550    144.0301   1.2737595723e+02   4.4161468914e+01    0.1756761    0.1150708 -55.73  0.001133622    1.738    0.424
       112  -9.1864     50.6631    140.7038   1.1536520599e+02   4.0457664540e+01    0.1227217   0.09460191 -42.18 0.0007030463    1.652    0.394
       113 -10.9800     55.3251    135.7220   1.1348585284e+02   4.1071478950e+01    0.5899655    0.2766149  85.67  0.002147116    3.411    0.707
       114 -11.3112      9.1029    136.8337   1.2539292353e+02   4.5325927618e+01    0.2103987    0.1460444 -82.63 0.0002822636    1.128    0.113
       115 -11.0890      2.7661    137.3313   1.2696578275e+02   4.5673039873e+01    0.3748092    0.1340518 -74.94 0.0009720098    2.123    0.529
       116 -10.0374      5.4231    133.2083   1.2601608211e+02   4.6419081841e+01    0.2601101    0.1457119  88.41 0.0009154898    1.433    0.302
       117  -9.1093    143.6869    137.3236   9.1428768826e+01   2.5958464723e+01    0.1502837     0.116995  86.83 0.0007040573    1.659    0.397
       118 -10.6313     21.2542    135.9165   1.2229653621e+02   4.4556045407e+01    0.2310129    0.1712073  74.27 0.0008204452    1.184    0.156
       119  -9.4868    137.8585    135.3876   9.2371181666e+01   2.7541305645e+01    0.2139863    0.1380145  33.47 0.0009463655    1.728    0.421
       120  -9.2235    250.3254    134.2894   7.0151920018e+01   4.7536761143e+00     0.136674   0.09308314   8.67 0.0007012807    1.612    0.380
       121 -10.1583    106.9859    133.2023   9.9533761430e+01   3.3897520386e+01    0.2463383    0.2098046 -59.11 0.0009421125    1.150    0.130
       122  -9.7320     79.5828    133.2092   1.0668469126e+02   3.8382247059e+01    0.1860595    0.1204024 -54.16 0.0004393191    1.510    0.338
       123 -11.5330     37.7136    130.5854   1.1745058660e+02   4.4256940846e+01    0.3401457    0.2541828 -83.34 0.0002442923    1.109    0.098
       124 -11.0942     33.2955    125.9818   1.1806321449e+02   4.5786080017e+01    0.2594731    0.1819685  80.71 0.0009929717    1.315    0.240
       125  -9.3328    227.0553    131.7753   7.3322889180e+01   9.5643592764e+00    0.1737346    0.1145539  47.00  0.000438321    1.610    0.379
       126 -10.4611     74.0342    129.4000   1.0750150773e+02   4.0092862472e+01     0.255621    0.1876651 -72.86 0.0007205106    1.258    0.205
       127  -9.1805    233.6985    127.6981   7.1271414562e+01   8.8691353704e+00    0.1418153    0.1004617   7.43 0.0003065582    1.588    0.370
       128 -11.6130     10.6164    122.5769   1.2378369932e+02   4.8495539601e+01    0.4619717    0.2093759  68.96   0.00225622    2.373    0.579
       129 -11.3229      2.3860    123.8399   1.2605073569e+02   4.8767042051e+01    0.5036181    0.1332199 -67.61  0.001858181    2.692    0.629
       130  -9.7144     82.0733    125.1394   1.0453756910e+02   3.9910806800e+01    0.2006704    0.1794738 -52.21 0.0004145464    1.185    0.156
       131 -10.0045    226.0065    124.2319   7.1728183132e+01   1.0945421151e+01    0.1801048    0.1174747  47.06  0.000875167    1.623    0.384
       132  -9.9461    219.9563    124.3167   7.2779542150e+01   1.2177813161e+01    0.1975802    0.1800615   9.23 0.0005694443    1.063    0.059
       133 -10.9551     21.0830    121.3271   1.2083678235e+02   4.7980343698e+01    0.2222113     0.174754 -33.59  0.001057179    1.698    0.411
       134  -9.8173     32.8188    118.9342   1.1729094699e+02   4.7510548416e+01    0.1918152    0.1432842 -62.78 0.0004523355    1.235    0.190
       135 -11.3782     17.3916    115.5087   1.2120829165e+02   4.9649445269e+01    0.3105044    0.2245423 -66.78  0.001365084    1.212    0.175
       136  -9.6046    220.4442    116.9866   7.0919048332e+01   1.3248649595e+01    0.2207139     0.131954 -33.68 0.0004995692    1.552    0.356
       137 -10.0826     86.2013    116.7494   1.0170372631e+02   4.1252492821e+01     0.192691    0.1601229 -41.47 0.0005691325    1.310    0.237
       138 -10.6851     51.0903    116.5382   1.1171967293e+02   4.6161574676e+01    0.3036861    0.1570678 -61.89            0    1.649    0.394
       139  -9.5549    166.1775    115.6699   8.1131591062e+01   2.5520886403e+01    0.2138479    0.1871105 -49.38 0.0004810294    1.169    0.145
       140  -9.1943    214.4257    115.5173   7.1595020512e+01   1.4774545742e+01    0.1477528    0.1327725  -9.42 0.0001339972    1.043    0.041
       141 -10.0109     35.3728    114.2395   1.1591284198e+02   4.8391381038e+01    0.2655393    0.1694281 -80.30  0.001471748    1.367    0.268
       142 -12.0310     35.4496    108.4108   1.1502398299e+02   4.9787599107e+01    0.4391015    0.2541099  80.73  0.001796092    1.988    0.497
       143 -10.5579    249.0219    112.0140   6.5212563971e+01   8.1718147210e+00    0.2179023    0.1839141 -20.39  0.000680632    1.024    0.024
       144 -12.7125     15.5263    109.2515   1.2102294538e+02   5.1271618929e+01    0.5209149    0.4097129  74.21 0.0007087573    1.231    0.187
       145 -11.6434     23.4613    106.8470   1.1838437887e+02   5.1229912763e+01    0.3218488    0.2324709  58.40 0.0009900379    1.472    0.320
       146 -11.1975     54.9862    110.1780   1.0947220531e+02   4.7236237026e+01    0.2918136     0.238113 -45.86 0.0006769873    1.319    0.242
       147  -9.5068     29.4729    109.4583   1.1695846589e+02   5.0089966632e+01    0.1285984    0.1038888 -77.13 0.0001525607    1.014    0.014
       148 -11.1015      6.1761    105.8182   1.2335892518e+02   5.2716406558e+01    0.3954546     0.194495 -73.50  0.001570678    1.540    0.350
       149 -11.3175      2.5106    105.9091   1.2442915698e+02   5.2917092359e+01    0.4100368    0.1523786 -70.61   0.00185899    1.964    0.491
       150 -11.9910      2.8426    100.4309   1.2377549376e+02   5.4179924198e+01    0.2641816    0.2006345 -80.57  0.000941802    1.006    0.006
       151 -11.2654      1.4783     96.4455   1.2376318341e+02   5.5189887966e+01    0.4486912    0.1128073 -72.11 0.0005306222    2.756    0.637
       152 -10.9856     62.8676    106.7778   1.0645191384e+02   4.7060605033e+01    0.2852902    0.2534262  61.67 0.0008540394    1.200    0.167
       153  -8.9540     69.6292    106.3002   1.0431306786e+02   4.6252255980e+01    0.1462815    0.1021195  74.76 0.0007030931    1.743    0.426
       154 -10.3013    243.7226    104.4489   6.4168819235e+01   1.0330921414e+01    0.1846353    0.1272359  36.11 0.0009405735    1.604    0.376
       155 -10.9109    247.6473    102.1352   6.3043014467e+01   9.8746613313e+00    0.2440639    0.2024509  50.22  0.001174245    1.378    0.274
       156  -9.8798    223.3093    104.0043   6.7203255460e+01   1.4702640639e+01    0.2109661    0.1709004 -27.96 0.0004251786    1.128    0.114
       157  -9.3850     89.2880    103.3091   9.7767099804e+01   4.3921956626e+01    0.1433478     0.111858 -26.56  0.000210227    1.576    0.365
       158 -10.4142     36.6873    101.7512   1.1357664260e+02   5.1275457612e+01    0.3658485    0.1883488  40.05   0.00161271    2.146    0.534
       159  -9.4870    119.5010    101.5084   8.8760663198e+01   3.8674946861e+01    0.1528909    0.1462807 -32.22 0.0008094916    1.076    0.071
       160  -9.8569    145.9658     99.5479   8.1458124540e+01   3.3348106101e+01    0.3747571    0.2606328  -4.04  0.001494241    2.252    0.556
       161 -10.6967     94.9498     91.1534   9.2926216124e+01   4.5754696133e+01    0.5096396    0.3144871   9.30  0.001801047    3.490    0.714
       162 -10.8228     92.7054     96.8886   9.5138770908e+01   4.4834249128e+01    0.4673894    0.2069622 -46.66   0.00111779    2.142    0.533
       163  -9.3691     67.2903     93.3156   1.0211982448e+02   4.9692088907e+01    0.2335715    0.1773131 -39.97  0.000731723    1.371    0.271
       164 -11.0457     62.3168     98.5827   1.0490373932e+02   4.9108742704e+01    0.3266033    0.3010388 -29.02 0.0008268736    1.248    0.199
       165 -10.3202     66.6147     98.2432   1.0347744140e+02   4.8608639989e+01    0.2997408    0.1715714 -54.35  0.001418019    1.539    0.350
       166 -11.5917     20.2656     96.9776   1.1798548065e+02   5.3843560548e+01    0.4035134    0.2321886 -81.18   0.00193989    1.517    0.341
       167  -9.1865     85.4254     98.4818   9.7731707433e+01   4.5699543188e+01    0.1462763    0.1321682 -62.17 4.424044e-05    1.012    0.012
       168  -9.9437     40.8363     97.0986   1.1144458572e+02   5.1985393853e+01    0.2489539    0.1507681 -51.42 0.0008310793    1.518    0.341
       169 -11.0837     14.2634     96.0762   1.1975183893e+02   5.4491987814e+01    0.3858858    0.1304003 -60.87  0.001755833    2.194    0.544
       170  -9.6356     57.4796     96.5182   1.0599067556e+02   5.0229245583e+01    0.1387227    0.1197387 -66.03 -6.04027e-05    1.003    0.003
       171  -9.6901    249.7652     95.5766   6.1154209548e+01   1.0393580469e+01    0.1619661    0.1385265  77.84 0.0002759512    1.488    0.328
       172 -10.1257     31.4960     92.9784   1.1372989695e+02   5.3875266171e+01    0.3361663    0.1354479 -70.04  0.001463072    2.140    0.533
       173 -10.7711     25.7563     91.3422   1.1533558952e+02   5.4760217517e+01    0.2498442    0.2336881 -26.38  0.001032316    1.315    0.240
       174 -11.2029    103.9672     91.9055   9.0464575802e+01   4.3904755366e+01    0.2808312    0.2257882 -42.41 0.0003113169    1.200    0.166
       175 -11.6486     10.3022     90.9689   1.2032803521e+02   5.5963918275e+01    0.2410625    0.2187399  71.93  0.001743661    1.253    0.202
       176 -10.6369      4.5857     86.3913   1.2158844290e+02   5.7379837659e+01    0.3236752    0.2195394 -76.03  0.002069086    1.130    0.115
       177 -11.9344     13.6946     77.0177   1.1705900602e+02   5.9046184683e+01    0.5910169    0.2345913 -46.82  0.002718605    2.357    0.576
       178 -12.0618      5.5110     75.6850   1.1976813160e+02   5.9839920219e+01    0.7361698     0.368644 -50.21  0.003499138    1.755    0.430
       179 -11.0892     14.8059     83.3694   1.1771532628e+02   5.7473461991e+01    0.5157645    0.1760009 -51.51  0.002293278    2.472    0.595
       180 -10.9154     21.0196     81.2539   1.1520334209e+02   5.7537210972e+01    0.3211749    0.2152398 -18.94  0.001479872    2.012    0.503
       181 -11.9789     21.2476     76.9656   1.1433337526e+02   5.8535479146e+01    0.3127126    0.2374332 -59.10   0.00021449    1.094    0.086
       182 -10.9261    158.1620     90.3680   7.5976097886e+01   3.2331787097e+01    0.3350011    0.2486966  -8.89  0.001465227    1.716    0.417
       183  -9.2687     21.2690     91.3598   1.1681356626e+02   5.5110500232e+01    0.1316948    0.0748207 -50.27 0.0003849837    1.645    0.392
       184  -9.7885     39.7114     79.4007   1.0820597085e+02   5.6340782480e+01    0.2607015    0.1364666 -57.82 0.0009614431    1.547    0.353
       185 -11.2800     47.0445     84.6654   1.0683096143e+02   5.4309037708e+01     0.631428    0.3949798 -73.86  0.003211866    1.602    0.376
       186  -9.5476     42.3045     82.6379   1.0801759856e+02   5.5305013210e+01    0.1903776    0.1643424  82.36 0.0005461734    1.255    0.203
       187  -9.2935    139.1940     87.6210   7.9660431597e+01   3.7334727657e+01    0.2038479    0.1482955  39.61 0.0009147963    1.459    0.315
       188 -10.6048     22.8803     86.6508   1.1550425578e+02   5.6111431101e+01    0.2597466    0.1874244 -50.27  0.001142645    1.315    0.239
       189 -10.7553     66.9504     85.0211   1.0016576171e+02   5.1702256733e+01    0.3404011     0.215965 -32.05  0.001268688    1.929    0.482
       190 -11.2181    167.0335     84.4118   7.2273167589e+01   3.1309994575e+01    0.4696153    0.3144099  63.01  0.002023396    1.686    0.407
       191 -10.5098     29.8990     82.6372   1.1235346859e+02   5.6492643540e+01    0.3726242    0.1387461 -59.59  0.001648761    2.036    0.509
       192 -10.3908     88.0242     83.3556   9.2854424469e+01   4.8755828649e+01    0.2561825    0.1941763 -57.49 0.0003372436    1.270    0.212
       193 -10.3340    117.9421     82.8948   8.3818343273e+01   4.3038865722e+01    0.2867647    0.2138641 -40.28  0.001355017    1.290    0.225
       194  -8.9235     56.2557     83.6964   1.0344180963e+02   5.3445768923e+01    0.1312499     0.100347 -89.28 0.0002859891    1.510    0.338
       195  -9.6341    130.4948     82.5113   8.0319101055e+01   4.0359550817e+01    0.1558738    0.1503748 -33.30 -0.0001421594    1.012    0.012
       196 -10.0802     70.9151     79.3329   9.7295204358e+01   5.2447073171e+01    0.2141288    0.1743034  68.61 0.0008892593    1.486    0.327
       197  -9.4260    150.6495     77.6213   7.3830533873e+01   3.6580147212e+01    0.2451352    0.1893362   7.10 0.0007085268    1.650    0.394
       198 -10.0475     92.7189     77.8797   8.9735955172e+01   4.9139758234e+01     0.269046    0.2156985  -0.04  0.001175638    1.579    0.367
       199  -9.2226     64.4870     68.9460   9.6491871800e+01   5.5749952170e+01    0.2032782    0.1266294 -61.58 0.0009624246    1.641    0.391
       200 -11.6280     58.3986     74.9124   1.0040362123e+02   5.5225480297e+01    0.4888054    0.3380716  78.88  0.001358203    2.151    0.535
       201 -10.6820     61.9340     72.1162   9.8350938185e+01   5.5391641655e+01    0.4036312    0.1790199 -46.15 0.0009930044    2.017    0.504
       202  -9.7998    122.0052     76.1915   8.0585040630e+01   4.3546280409e+01    0.2345964    0.2099113  88.30  0.001058628    1.281    0.220
       203  -9.8675     75.0166     76.2824   9.5028123421e+01   5.2514080094e+01    0.1932671    0.1892724  32.02  0.001149313    1.138    0.121
       204 -12.3321     44.6505     75.2368   1.0543977381e+02   5.6802641210e+01    0.2884807    0.2438151  65.95 0.0003284892    1.392    0.281
       205  -9.8511     38.4665     71.5542   1.0680819385e+02   5.8311147317e+01    0.2500779    0.1972094 -33.66 0.0006851223    1.332    0.249
       206 -10.6286     36.0088     68.5325   1.0698588428e+02   5.9255699155e+01    0.2739039    0.2531927  32.13  0.001816907    1.303    0.233
       207  -9.7790     32.7931     75.9534   1.0993124148e+02   5.7820767028e+01     0.178167    0.1409335 -61.82            0    1.030    0.029
       208  -9.6233    139.0230     75.0116   7.5780593952e+01   3.9871514086e+01    0.1878861    0.1851572 -21.98 0.0004219475    1.018    0.018
       209  -9.8237    145.4930     73.9368   7.3868655768e+01   3.8524960438e+01    0.2488952    0.1527206 -36.13  0.001032283    1.589    0.371
       210 -11.6341    102.6272     72.9158   8.5095287421e+01   4.8311009335e+01    0.3230713    0.2825191 -14.12 0.0003980218    1.230    0.187
       211 -10.3603    103.0136     68.0035   8.3340673667e+01   4.9253552912e+01    0.2878496    0.2076776 -33.25  0.001369727    1.368    0.269
       212 -10.0136    150.4925     72.4106   7.2213034380e+01   3.7588908521e+01    0.1547853    0.1522219 -50.29 5.062874e-05    1.031    0.030
       213 -10.6985    128.9083     71.7840   7.7299353569e+01   4.2864072462e+01    0.2591676     0.213999 -43.73 0.0002765174    1.180    0.153
       214 -11.1543     77.0823     71.3144   9.2813322722e+01   5.3296138620e+01    0.5113376     0.352183  65.37  0.001386985    2.085    0.520
       215 -10.6457     77.2063     64.0169   9.0398120525e+01   5.4864068834e+01    0.4163063    0.2868925 -45.12  0.001333083    1.305    0.234
       216 -10.3051    116.4361     71.3096   8.0527930149e+01   4.5756580842e+01    0.3443484    0.1879913  47.91 0.0008885546    1.919    0.479
       217  -9.5027    161.0992     69.7942   6.9035045763e+01   3.5421255041e+01    0.2111358    0.1817999  10.83 0.0003355264    1.301    0.231
       218 -12.3031     94.2987     68.3348   8.6161836134e+01   5.0898417636e+01    0.4498436    0.2669417 -37.94 0.0009186878    1.632    0.387
       219 -10.4613     68.8267     67.6697   9.4543323571e+01   5.5396689241e+01    0.4196108    0.1708933 -48.18  0.001113041    2.144    0.534
       220 -11.4902     50.8298     67.8308   1.0118055956e+02   5.7805668891e+01    0.4862592    0.2860648 -34.37  0.001746512    1.882    0.469
       221 -10.6464     51.4702     63.0395   9.9527349630e+01   5.8810243465e+01    0.3450046    0.2004796 -37.49  0.001512209    1.726    0.421
       222 -10.6557     31.0783     66.0357   1.0826658554e+02   6.0292101345e+01    0.3802712    0.1791182 -62.17  0.001268393    1.744    0.427
       223 -10.3955     27.9999     68.2242   1.0998063507e+02   6.0051763807e+01     0.375767     0.144757 -54.40 -0.000430966    1.976    0.494
       224  -9.8909    146.1184     68.5617   7.1973627710e+01   3.9367890357e+01    0.3025854    0.2072918 -13.99 0.0005543445    1.829    0.453
       225 -12.4173     17.9552     65.9908   1.1337317231e+02   6.1341330882e+01    0.7628294      0.50459 -51.46   0.00144725    1.264    0.209
       226  -9.5006    157.0145     69.0000   6.9659064142e+01   3.6586063642e+01     0.253872   0.09041197  55.15 0.0007936684    2.882    0.653
       227  -9.4327    123.1514     68.2124   7.7634269769e+01   4.4875725612e+01    0.2086643    0.1744901 -58.66 0.0005972697    1.297    0.229
       228 -12.5437      4.2733     65.0859   1.1850624276e+02   6.2365449017e+01    0.3897746    0.2674005  77.29     0.000622    1.634    0.388
       229 -10.8342     11.0647     62.5969   1.1538314072e+02   6.2568270597e+01    0.2102325    0.1690989 -66.08 0.0003026358    1.052    0.049
       230 -10.8571      5.5429     58.3512   1.1676094763e+02   6.3846096656e+01    0.3670177    0.2018568 -78.05  0.002044662    1.646    0.392
       231 -11.1807      5.3972     51.8672   1.1548517353e+02   6.5322343013e+01    0.3343095    0.2178462 -56.00  0.001017563    1.169    0.144
       232  -9.2978     83.9635     72.4597   9.0863918569e+01   5.1889890428e+01    0.1914982     0.146179  39.31 5.183333e-05    1.436    0.304
       233 -10.1386     61.4078     54.1061   9.2755934945e+01   5.9421822700e+01    0.3429327    0.2704123   8.08  0.001917708    1.477    0.323
       234 -11.1087     56.4948     65.5225   9.8379091491e+01   5.7614031127e+01    0.4576739    0.1705568 -41.32  0.001685691    2.826    0.646
       235 -11.6930     63.9785     60.1727   9.3872820644e+01   5.7755855398e+01    0.4302415    0.2322197  32.21  0.001371875    2.145    0.534
       236 -11.3088     57.3812     59.1459   9.6026996384e+01   5.8906025997e+01     0.348977    0.3365676   4.07  0.001103732    1.168    0.144
       237  -9.5577    120.3232     65.0406   7.7317376135e+01   4.6127859565e+01    0.2194038    0.1917352 -35.55 0.0003962427    1.097    0.089
       238  -9.8737    106.0177     64.4992   8.1227966712e+01   4.9343514195e+01    0.2343312    0.1912817 -38.33 0.0003681812    1.156    0.135
       239 -10.0949     99.5097     65.0172   8.3391524188e+01   5.0567985544e+01    0.2359728    0.1400556 -39.60  0.001025152    1.590    0.371
       240 -10.4416    140.1829     69.1077   7.3568015427e+01   4.0711889676e+01     0.231153    0.2094772   2.74 0.0002807743    1.177    0.151
       241  -9.3167     41.4424     64.2193   1.0374961735e+02   5.9696056625e+01    0.1698027    0.1141379 -67.61 0.0003688875    1.455    0.313
       242 -11.3744     87.0723     52.1841   8.2747138856e+01   5.5528159060e+01    0.3349947     0.260215 -55.32 0.0003932102    1.425    0.298
       243 -10.7951     83.8189     61.4833   8.7252928052e+01   5.4259785293e+01    0.4423988    0.3155137  43.43  0.002226455    1.542    0.351
       244 -10.2673     86.3847     57.6768   8.5025933621e+01   5.4573050079e+01    0.4090985    0.2447137 -31.66  0.001823196    1.734    0.423
       245 -10.0986    201.1230     61.9750   5.9296100195e+01   2.6551490865e+01    0.2195643     0.208462 -33.34 0.0003227639    1.019    0.018
       246  -9.1572    140.6194     61.8048   7.1002635380e+01   4.1932932787e+01     0.217667    0.1391733 -44.82 0.0002401119    1.580    0.367
       247 -10.8693     45.2364     50.2292   9.7888578962e+01   6.2366045071e+01     0.543255     0.213386 -50.64  0.002330636    2.094    0.523
       248  -9.9657     47.4324     58.2052   9.9611160992e+01   6.0373740422e+01     0.292126    0.1791809 -69.74  0.001407759    1.964    0.491
       249  -9.9882     43.9842     57.0320   1.0062529024e+02   6.1031686073e+01    0.2036339    0.1670254 -43.62 0.0003465346    1.046    0.044
       250 -11.3578     29.4803     60.8421   1.0758387063e+02   6.1625547311e+01    0.6338835    0.2692122  12.85  0.002625294    3.754    0.734
       251 -12.7996     37.8855     50.8181   1.0117859410e+02   6.3056597966e+01    0.8306251     0.596512 -33.17  0.003506924    1.329    0.247
       252 -10.2390    103.3509     58.1228   7.9754890080e+01   5.1148252218e+01    0.4826013    0.2151248 -28.30  0.001603032    3.023    0.669
       253 -10.4683    100.0323     55.5477   7.9823890562e+01   5.2328445723e+01    0.3936467    0.2364815  52.08  0.001405083    1.863    0.463
       254 -10.7165    146.9311     57.1066   6.7928377951e+01   4.1177043465e+01    0.2924579    0.2242241 -33.08            0    1.275    0.216
       255 -10.4972    129.8097     55.9244   7.1593353872e+01   4.5592932927e+01     0.421686     0.236083  38.83   0.00167904    2.008    0.502
       256 -10.0236    123.1533     56.1905   7.3414063460e+01   4.7120390775e+01    0.2730807    0.2039253 -54.84 0.0006754003    1.506    0.336
       257 -12.8760    128.6090     50.5933   6.9954860472e+01   4.6796533128e+01    0.4714784    0.3837046   9.56 0.0005172991    1.389    0.280
       258 -11.8682     75.4021     56.0509   8.8250803711e+01   5.6834366195e+01    0.2417923    0.2219574 -31.65 0.0002148257    1.033    0.032
       259 -10.8631     12.6197     51.6776   1.1232436849e+02   6.4958208034e+01    0.2881865    0.2025049 -81.32   0.00133947    1.481    0.325
       260 -10.8623     70.2566     50.6183   8.8119587591e+01   5.8783512601e+01    0.4341162    0.3333774  74.47  0.002150224    2.026    0.506
       261 -11.4128    103.9630     49.4962   7.6322881517e+01   5.2622277632e+01    0.4550022    0.2983327  65.34  0.001992949    2.059    0.514
       262  -9.7484     76.6876     50.3350   8.5656210160e+01   5.7764103806e+01     0.213635    0.1471369  43.06 0.0007181378    1.613    0.380
       263 -10.3282     78.4622     47.4730   8.3905608242e+01   5.8008270819e+01    0.3071002    0.1306164 -42.53  0.001080441    2.153    0.536
       264  -9.9696    220.7173     48.9534   5.2820314430e+01   2.3571832604e+01    0.2031101    0.1700889 -38.69  0.001097208    1.091    0.084
       265  -9.6456    166.5824     49.0609   6.1161823631e+01   3.7407560309e+01     0.229992    0.1983136  60.56 0.0001571897    1.176    0.150
       266 -11.5335    152.0644     47.8509   6.3603521663e+01   4.1363351930e+01    0.7572689    0.3332361  50.18  0.001936603    2.241    0.554
       267 -10.6473     95.4548     48.6501   7.8627573211e+01   5.4551486392e+01    0.3182919     0.238476 -22.66  0.001018059    1.347    0.258
       268 -10.3336    120.1260     47.3513   7.0926672349e+01   4.9359214605e+01    0.2582401    0.2074381 -37.52 0.0004789754    1.222    0.182
       269 -11.1129     11.5712     44.2693   1.1089681934e+02   6.6666908826e+01    0.5217347    0.1907058 -44.30  0.001734769    2.264    0.558
       270  -9.8001      4.2279     47.1672   1.1494943671e+02   6.6431755406e+01    0.3157412    0.1137015 -45.96  0.001528897    2.230    0.552
       271 -10.1659      7.0125     41.3576   1.1223947708e+02   6.7567406202e+01    0.3247816    0.1163564 -59.86 0.0009577808    1.970    0.492
       272  -9.9826    142.9078     45.9994   6.4902567608e+01   4.3992918872e+01    0.2308754     0.224038 -30.60 0.0005250901    1.029    0.028
       273 -10.1386     86.1104     45.5377   8.0466772732e+01   5.6962163966e+01    0.2251957    0.1795117 -32.33 0.0007816264    1.155    0.134
       274  -9.0169     54.3382     46.2437   9.2686720045e+01   6.2042259000e+01    0.1311594   0.09532644 -14.70 0.0002858897    1.556    0.357
       275  -9.0107     18.2987     46.2875   1.0839064921e+02   6.5775423831e+01    0.1264531   0.07373928 -39.14 0.0002506311    1.555    0.357
       276  -8.8730    233.2941     45.3779   5.0357642504e+01   2.1042481628e+01    0.1425023    0.1065099  15.84 0.0007022226    1.746    0.427
       277  -9.7091     51.2401     44.9865   9.3492061274e+01   6.2713242017e+01    0.1882918    0.1485644 -38.46 0.0002995964    1.074    0.069
       278 -10.5988     51.7702     40.5301   9.1535899476e+01   6.3537105583e+01    0.3429381    0.2668263  71.07  0.001628024    2.082    0.520
       279  -8.9646    199.3015     43.7108   5.4148952720e+01   2.9648537901e+01    0.1536375    0.1071616 -61.01  0.000698238    1.563    0.360
       280  -9.5693    115.5228     48.4749   7.2600643597e+01   5.0236371957e+01    0.1519582    0.1416552  -2.38 -3.535436e-05    1.049    0.047
       281  -9.8124    110.7302     41.9034   7.1359304829e+01   5.2428446867e+01    0.2049344    0.1864006 -35.73 0.0004610111    1.111    0.100
       282 -11.0600     96.9494     40.9313   7.5046415664e+01   5.5601679211e+01    0.4100879    0.2676134  31.68  0.001414374    1.700    0.412
       283 -10.7897    101.7801     36.8583   7.1876085862e+01   5.5235371536e+01    0.2690495    0.2175457  27.43 0.0006872943    1.264    0.209
       284 -10.3010    104.9708     34.0186   6.9747334850e+01   5.4970918834e+01     0.317436    0.2375216 -47.11 0.0003425807    1.478    0.323
       285 -11.2599     89.2593     38.8770   7.6658565238e+01   5.7524891780e+01    0.4785326    0.3322153 -51.68  0.001762117    1.689    0.408
       286 -11.9088     81.5077     36.3266   7.8202148486e+01   5.9468147692e+01    0.5403104    0.3590069 -43.56  0.001730616    1.520    0.342
       287 -12.0690    226.1630    246.2672   9.4681271134e+01  -5.0275754382e+00    0.4719211    0.2794853   9.44  0.003065032    1.755    0.430
       288 -10.3711     66.5165     40.9826   8.5730360475e+01   6.1263780670e+01    0.2918475    0.2202377 -13.10  0.001582835    1.407    0.289
       289 -10.9871     69.7408     37.3877   8.2969634897e+01   6.1394071624e+01    0.3766486    0.2115413 -23.06  0.001011341    2.108    0.526
       290 -10.9425     23.2408     41.1839   1.0456264561e+02   6.6499402785e+01     0.248812    0.1967982  30.38 0.0008147745    1.563    0.360
       291 -12.8405     25.5026     36.2002   1.0178126967e+02   6.7353584113e+01    0.5103789    0.3904987  67.96  0.002346849    2.032    0.508
       292 -11.1823     19.9541     38.0186   1.0507674536e+02   6.7434379223e+01    0.3212642    0.1966011 -35.66  0.001516819    1.483    0.326
       293  -9.7104    172.7491     41.5701   5.7574645678e+01   3.6876706195e+01    0.1947807    0.1478806  81.88 0.0002600416    1.456    0.313
       294 -10.2084     42.6871     37.3819   9.4234018079e+01   6.5319645145e+01    0.4378146    0.3083841 -81.99  0.002144545    2.635    0.621
       295  -9.5387    226.4274     40.4506   4.9799933581e+01   2.3313862896e+01    0.1413686    0.1279567 -44.90 0.0001706212    1.013    0.012
       296  -9.4203    215.5208     40.5050   5.1090965885e+01   2.5975212786e+01    0.1456061    0.1328265 -50.13 4.147996e-05    1.013    0.013
       297 -10.0463     61.9314     37.7931   8.6205844523e+01   6.2587274505e+01    0.2195941    0.1679146 -35.09 0.0003266622    1.146    0.128
       298  -9.1405    199.6768     37.6888   5.2288462060e+01   3.0354816100e+01    0.1507451    0.1110975  28.93  0.000703862    1.654    0.395
       299 -10.2817    167.1188     36.6228   5.6874809795e+01   3.9043058683e+01    0.2867358    0.1831906  54.37  0.001245143    1.542    0.351
       300 -11.6477     98.0272     31.6833   7.0786695326e+01   5.6855600738e+01    0.6955442    0.3943343  -9.57  0.002237089    2.468    0.595
       301 -11.0778    101.0909     28.6576   6.8555110244e+01   5.6630774060e+01    0.2854075      0.24371 -45.22 0.0004196686    1.295    0.228
       302  -9.8918      2.7853     36.9483   1.1309327604e+02   6.8740303073e+01    0.2228689    0.1283716 -20.77  0.001318976    1.990    0.498
       303 -10.1599    155.3092     36.0559   5.8795880301e+01   4.2234565143e+01    0.2707192    0.1974908  34.25 0.0007326477    1.502    0.334
       304 -10.4713    126.4613     34.6431   6.4378775383e+01   4.9809260366e+01    0.5559617     0.247639 -50.10  0.001147765    3.169    0.684
       305  -9.4885     57.2681     34.9973   8.6916010073e+01   6.3815505790e+01    0.1806497    0.1700696  85.97  0.001124868    1.447    0.309
       306 -10.1361     56.0710     31.1132   8.5700449060e+01   6.4701353029e+01    0.2785138    0.1655112 -31.23   0.00105644    1.547    0.353
       307 -11.0016      9.8855     34.5360   1.0888858162e+02   6.8869134400e+01    0.4434151    0.2174353  15.79  0.002429496    2.525    0.604
       308 -11.0186      7.0371     30.0992   1.0893445270e+02   6.9970362511e+01     0.317244    0.1885474 -47.51 0.0009520656    1.265    0.210
       309 -10.6190     10.2535     25.2802   1.0556579865e+02   7.0763066034e+01    0.3022747    0.2292695 -39.82  0.001293442    1.063    0.059
       310 -10.6490     17.4084     31.0073   1.0390669738e+02   6.9090068923e+01    0.3859228    0.1952033  39.82  0.002009311    2.714    0.632
       311 -10.0473     14.5707     28.0169   1.0427833626e+02   6.9910859366e+01    0.3578321    0.1598292 -21.24  0.001572667    3.287    0.696
       312  -9.6479    206.1322     33.8349   5.0315683825e+01   2.9193501890e+01     0.187694     0.166893  27.03            0    1.280    0.219
       313  -9.4410    150.7671     34.4093   5.9069512595e+01   4.3648306139e+01    0.2138147    0.1341145  50.07 0.0009367135    1.569    0.363
       314  -9.6455    110.3805     33.9507   6.8204590697e+01   5.3751005202e+01    0.4037578    0.1073067 -37.10  0.001237926    3.487    0.713
       315 -10.7103    111.9852     24.9925   6.3980946824e+01   5.4635319643e+01    0.4365925    0.2601077  20.03   0.00136564    2.212    0.548
       316 -10.5037    109.3283     28.9113   6.6361755337e+01   5.4724238442e+01    0.2480133    0.2240254  33.30 0.0003400926    1.085    0.078
       317 -10.5750    108.0935     24.8378   6.4932206718e+01   5.5568039354e+01    0.3397893    0.1904901 -39.79  0.001124435    1.864    0.463
       318  -9.5849    129.5902     32.6805   6.2872739345e+01   4.9310294941e+01    0.2018153    0.1367135 -36.79 0.0007720941    1.478    0.323
       319  -9.3153     60.4511     33.4898   8.4940041836e+01   6.3606105275e+01    0.1345294    0.1173533 -28.11 3.957247e-05    1.070    0.066
       320  -9.2557    115.5119    244.5199   1.1323774264e+02   1.1314146843e+01     0.111577   0.08529282  48.66 0.0002249949    1.040    0.038
       321 -10.1404     42.9715     31.8991   9.1830307778e+01   6.6351005599e+01    0.1944214    0.1592018 -27.21 0.0004652001    1.040    0.038
       322 -10.9348     34.3725     34.1325   9.6763637972e+01   6.6908568827e+01     0.477593    0.1771456  37.76  0.002061847    3.296    0.697
       323  -9.5907    168.7869     30.2146   5.4419013294e+01   3.9435562358e+01    0.2012369    0.1678519  29.52 0.0002504949    1.307    0.235
       324  -9.7184    139.5880     30.2319   5.9746449001e+01   4.7106226625e+01    0.2090529    0.1437249  -8.51 0.0009423168    1.656    0.396
       325 -10.3480    109.5702    243.0298   1.1413214786e+02   1.2375638969e+01    0.2399328    0.1466245  67.15 0.0009836962    1.743    0.426
       326  -9.2708     63.1993    243.6203   1.2212733343e+02   1.8406955222e+01    0.1350237   0.08488237  37.37 0.0003906344    1.623    0.384
       327 -10.9009     37.4990    242.5254   1.2630874281e+02   2.1565823429e+01    0.2504633    0.1284974  42.75  0.001716516    1.622    0.384
       328 -10.6362     35.5119    239.4980   1.2648333244e+02   2.2280637969e+01     0.274043    0.1814855 -56.51  0.001978127    2.291    0.564
       329 -10.6526    156.4987    241.0710   1.0571208075e+02   5.7685345163e+00     0.139795    0.1149814 -48.04    0.0010295    1.580    0.367
       330 -10.1580     89.0000    240.9698   1.1753118451e+02   1.5521865429e+01    0.1450538    0.1313215  10.12 0.0009661386    1.695    0.410
       331  -9.2502     47.2689    241.3471   1.2464517277e+02   2.0661998480e+01   0.08328358   0.07760866 -75.62 0.0004076015    1.617    0.382
       332 -11.0465    214.6063     27.3997   4.7478179905e+01   2.7839054896e+01    0.2986805    0.2383597 -35.16 0.0001648204    1.181    0.153
       333  -9.9859     21.1014     27.5188   1.0068645720e+02   6.9496723750e+01    0.4128164    0.1179607 -47.73  0.001192671    2.527    0.604
       334  -9.4321     24.7926     26.8280   9.8504714767e+01   6.9304370100e+01    0.3411344     0.130548 -55.82   0.00126496    2.489    0.598
       335  -9.3109     50.3185    240.3161   1.2407996491e+02   2.0478674871e+01   0.08310603    0.0818667  49.05 0.0007039495    1.654    0.396
       336  -9.8819    247.9892     27.4865   4.4282823352e+01   1.9876527930e+01    0.1881407   0.09632457 -69.41 0.0008085788    2.406    0.584
       337 -10.0837    130.6116     26.7212   6.0283081169e+01   4.9849923621e+01    0.2958775    0.2647673  10.40  0.001191281    1.124    0.111
       338  -9.9709    125.9557     22.7985   5.9722071120e+01   5.1511506614e+01    0.4354793    0.2663204  82.00  0.001480654    2.286    0.562
       339 -10.5329    134.8428     22.8747   5.7864311661e+01   4.9252116807e+01    0.3728941    0.2172934  40.47  0.000972804    1.784    0.439
       340 -10.3308    195.6624    238.3920   9.8611005328e+01   2.0269683473e-01    0.2258492    0.1553763  25.35  0.001357008    1.215    0.177
       341 -11.5873     70.5415     25.5837   7.7299093492e+01   6.3252643762e+01    0.3140057    0.2678539  21.60   0.00187943    1.176    0.150
       342 -11.1935    237.4574     25.4581   4.4690023406e+01   2.2528808100e+01    0.2617545    0.2257171 -54.31 0.0005823585    1.031    0.031
       343 -11.0076    178.8724    243.6855   1.0216883182e+02   2.0801835225e+00    0.2393158    0.1164476  55.07  0.001164658    2.943    0.660
       344 -10.6165    197.2173     24.9591   4.8755769838e+01   3.2568936125e+01    0.2281338    0.2016428  83.96 0.0003205443    1.123    0.110
       345 -10.8252     48.9060     30.9563   8.8738875376e+01   6.5753918356e+01    0.4425177    0.2385489 -29.82  0.002138157    1.858    0.462
       346  -9.9091     93.9204     23.9147   6.8551803370e+01   5.8870396095e+01    0.2649524    0.1808438 -31.40  0.001337871    1.419    0.295
       347  -9.8150     54.2854     23.8700   8.3066412669e+01   6.6225378781e+01    0.1960062    0.1765102  22.27 0.0006995315    1.250    0.200
       348 -10.9871    120.2649     21.4005   6.0430035979e+01   5.3093116569e+01    0.2890587    0.2355398   6.24 0.0002848617    1.267    0.211
       349  -9.3161     35.3181     22.7846   9.1379213231e+01   6.8965096101e+01    0.2612599    0.1355431   6.27   0.00110266    3.363    0.703
       350  -9.3354     15.2836     13.7131   9.7848601056e+01   7.2624853097e+01    0.1786369    0.1393897 -52.53  0.000511061    1.354    0.262
       351 -10.5508    190.8995     21.1148   4.8344680137e+01   3.4662127293e+01    0.2274437    0.1818028 -60.24 0.0004017252    1.244    0.196
       352  -9.4939    185.4846     21.4954   4.9143570713e+01   3.6044750823e+01    0.1442416    0.1380494 -72.73 0.0001172256    1.001    0.001
       353 -10.3092     65.3058     20.4843   7.6821063627e+01   6.4965467000e+01    0.2546308    0.2137747 -74.68 0.0007305794    1.899    0.474
       354 -10.3191     45.4899     20.6985   8.5456162301e+01   6.8033797504e+01    0.2461271    0.1866797  36.48  0.001329108    1.542    0.352
       355 -11.5589     29.7473    233.4482   1.2713913654e+02   2.3914400033e+01     0.384326    0.1920537  79.20   0.00255658    1.738    0.424
       356 -10.7138     10.0874     15.5492   1.0173668039e+02   7.2684809954e+01     0.216289    0.1452947 -30.74 0.0006296496    1.253    0.202
       357  -9.8174    161.8754     19.9012   5.1941078227e+01   4.2503014686e+01    0.2171559     0.189445  34.36  0.001162094    1.195    0.163
       358  -9.7832    249.6817     19.3264   4.2116521434e+01   2.0430469540e+01    0.1444101   0.08055676 -55.26 0.0007045928    1.678    0.404
       359  -9.6097    226.9290     19.2264   4.3996237340e+01   2.5745857314e+01    0.1727688    0.1107729  78.65 0.0007401219    1.617    0.381
       360 -10.0949    217.2569     16.5997   4.4174469599e+01   2.8409867571e+01    0.3180127   0.09776565  61.27  0.001148167    3.021    0.669
       361 -10.0303    108.2636     17.1291   6.1476617993e+01   5.6496260138e+01    0.2219819    0.1829303  11.90  0.001207829    1.198    0.166
       362 -10.1686    159.9251    235.8788   1.0448080953e+02   5.9430161603e+00    0.1783696    0.1341279  25.84 0.0007185529    1.292    0.226
       363  -9.6003     50.2993     15.3972   8.0507496811e+01   6.8189933793e+01    0.2337533    0.1171089  35.17  0.001144689    2.141    0.533
       364 -12.0557     17.1682    238.3320   1.2939345912e+02   2.4385091740e+01     1.071569    0.1627904  37.82  0.004829023    4.186    0.761
       365 -10.8809    237.0059    246.4887   9.2994279585e+01  -6.5237060303e+00    0.3004403    0.1519688  28.94   0.00191808    1.523    0.344
       366  -9.8904    177.7989    234.7239   1.0119086658e+02   3.3534513427e+00    0.1764664    0.1460872   1.25 0.0008018989    1.351    0.260
       367 -10.9498    153.5495    233.8145   1.0535894780e+02   7.2037713687e+00    0.2143353     0.181254  -4.82 0.0008382669    1.499    0.333
       368  -9.9515    167.0181    233.9579   1.0298459863e+02   5.1105846282e+00    0.1790139    0.1435365  35.68 0.0007607837    1.026    0.025
       369 -10.5584    169.1439     13.2098   4.8570959160e+01   4.1283140206e+01    0.2518236    0.1754781  57.45 0.0004519113    1.381    0.276
       370  -9.7082    157.8144     12.6275   4.9973508441e+01   4.4360650362e+01    0.3142661    0.1635789 -76.29  0.001137602    2.932    0.659
       371 -10.1863     85.8774    233.0565   1.1742875514e+02   1.7211886362e+01    0.1795698     0.117289  61.75 0.0006267423    1.271    0.213
       372  -9.3014     90.0141     13.0278   6.4550904107e+01   6.1112529261e+01    0.1611792     0.143401  11.75 0.0003096391    1.006    0.006
       373  -9.8558     24.1025    232.3152   1.2801960249e+02   2.4696641554e+01    0.1553488    0.1113415  88.81 0.0005880964    1.312    0.238
       374  -9.8922     79.9153    231.6634   1.1837560474e+02   1.8236822673e+01    0.1619604    0.1091049  53.76 0.0005253426    1.132    0.117
       375  -9.6574     13.0085    231.2938   1.2979007450e+02   2.5979377082e+01    0.1419055   0.09585808  62.96  0.000975267    1.065    0.061
       376  -9.9252     72.6035    250.0742   1.2098402894e+02   1.6230416817e+01    0.1552095    0.1497636 -71.10  0.001345335    1.589    0.371
       377 -10.5187      5.1895    226.8409   1.3089485709e+02   2.7485019855e+01     0.389836    0.1198944  66.24  0.002107972    2.622    0.619
       378 -10.1808    190.5287    227.3942   9.7951882756e+01   2.3151111302e+00     0.311879    0.1156143 -40.14  0.001494855    3.280    0.695
       379  -9.8578    248.7716    227.4249   8.8257855531e+01  -6.2846245624e+00    0.1919373    0.1104648   1.92  0.000948512    1.768    0.434
       380  -9.8905    129.7899    226.7424   1.0882763714e+02   1.1891465116e+01    0.2614303    0.1094578  54.79  0.001186421    2.673    0.626
       381 -11.0417    120.1601    226.7607   1.1060257878e+02   1.3345513432e+01    0.1792185    0.1298617  56.76 0.0006324645    1.197    0.165
       382  -9.9205     87.8379    227.1492   1.1656891979e+02   1.7927511388e+01    0.1414523    0.1270148  47.00   0.00107303    1.312    0.238
       383 -10.2953     66.6520    226.3085   1.2032959183e+02   2.0860077975e+01    0.2690865    0.1180586  42.18  0.001064544    1.855    0.461
       384  -9.9354     25.7233    225.4463   1.2743085978e+02   2.5717894709e+01    0.1855012    0.1447296 -43.98  0.001366757    2.320    0.569
       385  -9.1435     37.6825    224.7117   1.2534082316e+02   2.4568599334e+01   0.08500271   0.08158696 -82.24 0.0004385473    1.593    0.372
       386 -10.1958    123.3358    222.3215   1.0951847396e+02   1.3574607222e+01    0.1785671    0.1378103 -46.93 0.0006637791    1.658    0.397
       387 -10.3829     13.5513    221.9784   1.2933086173e+02   2.7547035925e+01     0.163114     0.129283  84.97 0.0008624594    1.295    0.228
       388 -10.2666    141.3048    221.3390   1.0604657268e+02   1.0939763589e+01    0.2363237    0.1756951  18.17  0.001225325    1.660    0.397
       389 -10.3573     21.9309    220.6640   1.2785051339e+02   2.6953057286e+01    0.1488823    0.1003039  63.77  0.000474122    1.065    0.061
       390  -9.4003    250.5080    219.4505   8.6694839922e+01  -5.7242865071e+00    0.1149375   0.08380854  13.23 3.355655e-05    1.024    0.023
       391 -10.0279    174.2288    219.4696   9.9722042176e+01   5.9465572341e+00    0.2462292   0.09848854  37.92   0.00115459    2.111    0.526
       392 -10.8428      9.5648    216.9275   1.2979897315e+02   2.8828423037e+01    0.2782365    0.1362639  58.42   0.00119079    1.476    0.322
       393 -10.2350    193.3622    216.2268   9.5792905129e+01   3.3041620570e+00    0.3292687    0.1568514  25.97  0.001532179    2.472    0.595
       394  -9.6980     37.9613    217.4932   1.2487610400e+02   2.5829225459e+01    0.1538837   0.08909866  42.73 0.0007535522    1.556    0.358
       395 -10.5564     24.6524    216.7634   1.2718918358e+02   2.7378762849e+01    0.2651958   0.07328763  44.82   0.00138615    2.503    0.600
