#   1 NUMBER                 Running object number                                     
#   2 MAG_AUTO               Kron-like elliptical aperture magnitude                    [mag]
#   3 X_IMAGE                Object position along x                                    [pixel]
#   4 Y_IMAGE                Object position along y                                    [pixel]
#   5 X_WORLD                Barycenter position along world x axis                     [deg]
#   6 Y_WORLD                Barycenter position along world y axis                     [deg]
#   7 A_WORLD                Profile RMS along major axis (world units)                 [deg]
#   8 B_WORLD                Profile RMS along minor axis (world units)                 [deg]
#   9 THETA_WORLD            Position angle (CCW/world-x)                               [deg]
#  10 FWHM_WORLD             FWHM assuming a gaussian core                              [deg]
#  11 ELONGATION             A_IMAGE/B_IMAGE                                           
#  12 ELLIPTICITY            1 - B_IMAGE/A_IMAGE                                       
         1 -10.5646    122.7025     18.2015   4.0933050534e+01   5.1301804608e+01    0.2505989    0.1668581  35.81  0.000691141    1.626    0.385
         2 -11.5355    215.0317    249.6758   7.6343921140e+01  -8.0472495471e+00    0.2165158    0.1911291  57.23   0.00139724    2.122    0.529
         3 -10.9048     33.6658    230.6611   1.1404652544e+02   2.0174935308e+01    0.1875197    0.1815539 -88.49 0.0004919112    1.237    0.192
         4 -13.1927    248.1884    222.4939   6.5654590520e+01  -7.8700329267e+00    0.9259005    0.2421843 -36.53  0.003689654    3.249    0.692
         5 -12.5842    243.4259    217.2270   6.5557501582e+01  -6.5140830580e+00    0.4272701     0.269244  14.36  0.002553605    1.590    0.371
         6 -10.9073    149.4884    223.4874   8.5971995292e+01   5.6039370602e+00    0.2336558    0.1411466 -63.11  0.001035315    2.376    0.579
         7 -10.9969     15.8373    221.5248   1.1731132626e+02   2.4039146512e+01    0.2449339    0.1497215  65.67  0.000670796    1.457    0.314
         8 -12.2537    239.6546    203.9267   6.3825417366e+01  -3.9366558008e+00    0.4933302     0.255511 -49.67   0.00235272    2.475    0.596
         9 -11.2576     19.5759    203.4548   1.1518511732e+02   2.7891912822e+01    0.3136983    0.1988482  73.69  0.001720423    1.483    0.326
        10 -10.6936      5.8121    201.0052   1.1822261877e+02   2.9687953522e+01    0.1913847    0.1608635  58.06            0    1.155    0.134
        11 -10.2847    140.2321    200.2852   8.4219907039e+01   1.1970718257e+01    0.2199172    0.1258603 -63.12 0.0008238473    2.351    0.575
        12 -11.2429    160.6886    194.3906   7.8207208047e+01   9.7892397464e+00    0.3052788    0.2676092  60.98 0.0008492445    1.436    0.303
        13 -10.2238    120.4931    188.0052   8.7017566872e+01   1.8127964842e+01    0.2084138    0.1382598 -86.30 0.0008098437    2.490    0.598
        14 -10.1140    215.2585    194.2515   6.6497527431e+01   1.0679586205e+00    0.2110289    0.1048268 -50.55 0.0008960068    2.449    0.592
        15 -10.4391     94.6673    186.9903   9.3738590149e+01   2.2599546331e+01    0.2426926    0.1270603 -85.79   0.00070503    4.332    0.769
        16 -10.0227    183.0000    183.9994   7.1104774647e+01   8.1557011996e+00    0.2398346   0.07867688 -45.01 0.0008000395    2.926    0.658
        17  -9.9306    174.3487    183.6713   7.2959515624e+01   9.7059528917e+00    0.1439167    0.1207621  80.18 0.0005817534    1.761    0.432
        18 -10.8621    147.3186    179.8351   7.8595917073e+01   1.5327802042e+01     0.308972    0.1427376 -56.57  0.001086367    2.636    0.621
        19 -10.8570    192.0308    177.5347   6.7863318779e+01   7.9277696949e+00    0.3537743    0.2305122 -49.93  0.001686043    1.631    0.387
        20 -10.4283    101.0012    175.9838   9.0102263302e+01   2.4339702281e+01    0.2117283     0.209908  19.90  0.001151307    1.004    0.004
        21 -10.2979    159.3585    175.6656   7.4815211483e+01   1.4087375927e+01    0.1535399    0.1235639  78.18 0.0007040884    1.804    0.446
        22 -11.5770    120.6529    171.9729   8.3944603791e+01   2.1969823673e+01    0.4939692    0.2896329 -39.37  0.001665633    1.836    0.455
        23 -10.1242    206.4898    170.9694   6.3590251819e+01   6.7906921377e+00    0.1916394     0.119692 -61.57 0.0008093271    2.471    0.595
        24 -10.5965    138.7693    164.4644   7.7598308639e+01   2.0460330918e+01    0.3728535    0.2284173 -69.71  0.001381487    2.524    0.604
        25 -10.5688     80.0085    164.4804   9.4053032921e+01   3.0598326234e+01     0.327048    0.1824587  75.80   0.00104247    3.599    0.722
        26 -10.7244     93.0235    160.5133   8.9490437736e+01   2.9592188781e+01    0.3243564    0.1913623  77.60  0.001042571    3.479    0.713
        27 -10.3084    177.6612    160.3379   6.7345274839e+01   1.4039633937e+01    0.1496616    0.1223543 -87.61 0.0007050916    1.759    0.431
        28 -11.4150    235.3490    155.6408   5.5292522415e+01   4.9909591681e+00    0.4463232     0.265047 -66.12  0.001793893    3.504    0.715
        29 -10.5474    196.8726    157.7580   6.2733753080e+01   1.1051855041e+01    0.2809712    0.1924194 -65.64  0.001255053    2.119    0.528
        30 -11.3701    119.0230    155.0228   8.0889838399e+01   2.6435268841e+01    0.3644743     0.232171 -78.77  0.001321823    2.619    0.618
        31 -10.3758    105.4780    157.9942   8.5363720207e+01   2.8131061732e+01    0.3304404    0.1826867  64.25  0.001034306    3.474    0.712
        32 -11.1037    234.3766    148.1521   5.3944996249e+01   6.4842013512e+00    0.2012251    0.1067779 -47.95 0.0009519855    1.765    0.433
        33 -11.9617    108.5133    146.4788   8.2025445772e+01   3.0494689368e+01    0.7000127    0.3356278  59.93  0.001805428    5.066    0.803
        34 -10.4152     39.0017    147.5078   1.0376972015e+02   4.0294384882e+01     0.209561   0.09828755  49.08 0.0008104405    2.552    0.608
        35 -11.0239    148.6798    145.0246   7.0740071719e+01   2.3064836417e+01    0.4414936    0.2948927 -83.33  0.001588236    2.889    0.654
        36 -10.8646     55.7020    145.7120   9.8198958630e+01   3.8884581293e+01    0.3071282    0.1793673  88.18  0.001177991    2.526    0.604
        37 -10.7371    125.2649    143.5349   7.6580661894e+01   2.8059983131e+01     0.376141    0.2460699  90.00  0.001277531    3.116    0.679
        38 -11.0353     87.8899    143.7740   8.7656997857e+01   3.4757585629e+01    0.3120626    0.2132705  88.74    0.0012482    2.186    0.542
        39 -11.1131     22.5822    138.7903   1.0771514704e+02   4.4086118579e+01    0.3655472    0.2028121  35.66  0.001746373    1.959    0.490
        40 -10.7732      1.4360    135.9680   1.1400059816e+02   4.6233919725e+01     0.205959    0.1094642 -74.57 0.0005687664    1.570    0.363
        41 -10.2829    179.4976    133.9886   6.1024758204e+01   1.9235942169e+01    0.2184548    0.1271722 -63.14 0.0008104603    2.554    0.609
        42 -11.6378     83.6823    132.6761   8.6570489560e+01   3.8296022053e+01    0.4923308    0.3156553 -89.67  0.001809765    2.717    0.632
        43 -11.0645    168.4925    129.5187   6.2364542563e+01   2.2428826690e+01    0.2890051    0.1390737 -53.41  0.001036239    2.391    0.582
        44 -11.3596    152.7200    127.0874   6.5449925232e+01   2.6261784960e+01    0.6264943    0.1964381 -49.00  0.001824836    3.409    0.707
        45 -11.7657     98.3502    126.3835   8.0431489849e+01   3.7355606088e+01    0.8424978    0.3536639 -62.20   0.00247197    3.617    0.724
        46 -10.7274    131.5070    131.0177   7.1878374209e+01   2.9790877698e+01    0.3927966    0.1508322 -57.89  0.001036789    4.242    0.764
        47 -10.7403    117.7056    125.5126   7.4380376254e+01   3.3872989720e+01    0.4178896    0.2558694  68.66  0.001413565    3.044    0.672
        48 -10.5912     59.4964    124.7392   9.2906416194e+01   4.3896281020e+01    0.4429395    0.2450963  68.99  0.001421413    3.923    0.745
        49 -11.7692     44.1879    123.4661   9.7968026987e+01   4.6061596419e+01     0.694292    0.4084808  75.83  0.002679238    2.878    0.652
        50 -11.0736     28.9422    123.4426   1.0328003111e+02   4.7553266018e+01    0.2932538    0.1506564  70.58  0.001038193    3.543    0.718
        51 -11.9232    158.1559    121.3903   6.2745052394e+01   2.6338526054e+01    0.3818774    0.2428648 -58.56  0.001589863    1.848    0.459
        52 -11.4348    141.1778    118.0015   6.6044996554e+01   3.0714661389e+01    0.5362619    0.2756129 -57.15  0.001898547    2.489    0.598
        53 -10.9057    130.4899    118.1863   6.8915090869e+01   3.2945226748e+01    0.4351467    0.2624525 -70.25  0.001496924    2.917    0.657
        54 -11.1742    108.7868    113.4930   7.3923218594e+01   3.8463232860e+01    0.7040104    0.3388932 -62.83  0.002135672    3.585    0.721
        55 -11.5097     92.4246    111.9637   7.8677395278e+01   4.1924396564e+01    0.6830558    0.3604462 -65.12  0.002344993    2.878    0.653
        56 -11.2633     78.7762    112.2990   8.3340303221e+01   4.4190208724e+01    0.5717956    0.3406892 -81.01  0.001883642    3.586    0.721
        57 -11.1053    121.9052    111.8633   6.9635509672e+01   3.6165502978e+01     0.444492    0.2150808 -51.20  0.001615193    2.208    0.547
        58 -11.5446     13.9128    109.8958   1.0639347866e+02   5.2134842417e+01      0.55056    0.2746788 -79.69  0.002411077    2.206    0.547
        59 -10.3844     71.3277    120.6510   8.7928308598e+01   4.3280005100e+01    0.1570985    0.1201879  73.00 0.0007049059    1.759    0.431
        60 -11.9844     45.3902    102.4206   9.3057456187e+01   5.1238725089e+01    0.6751725    0.3750986  72.86   0.00198996    5.481    0.818
        61 -11.7750    128.4662    101.9958   6.5132890535e+01   3.6913937051e+01    0.4302028    0.2609838 -59.59  0.001698282    2.119    0.528
        62 -10.7253      6.7033    102.7365   1.0790965755e+02   5.4334137572e+01    0.2699673    0.1473885  83.39   0.00119249    2.556    0.609
        63 -11.6708    109.6761     99.5133   6.9816917265e+01   4.1422021365e+01    0.7397389    0.4779524  74.02  0.002656587    2.988    0.665
        64 -12.6306     63.9411    100.1419   8.5487529684e+01   4.9394641704e+01    0.5280858    0.3527031 -54.23 0.0008453514    1.481    0.325
        65 -10.3805     81.8014    100.1908   7.9078833504e+01   4.6553010503e+01    0.2553927     0.173031  76.95 0.0009572243    2.888    0.654
        66 -11.1634     94.6617     96.2946   7.3626065307e+01   4.5097525134e+01    0.3873384    0.1950819 -58.36  0.001371647    2.708    0.631
        67 -10.8918    124.4024     91.2043   6.3196857891e+01   4.0021525567e+01    0.2219683    0.1438382 -52.98 0.0009418078    1.726    0.421
        68 -10.8893     22.9908    104.5607   1.0207927623e+02   5.2832980264e+01    0.2673085    0.1441972 -45.03  0.001270388    1.612    0.380
        69 -11.0391     86.1854     86.6925   7.3640617914e+01   4.8753437431e+01     0.413051    0.2780376 -75.67  0.001621436    2.766    0.638
        70 -11.0355     48.5466     85.0857   8.7380425888e+01   5.4948584821e+01    0.3801904    0.2352321  64.97  0.001446225    3.481    0.713
        71 -11.7192    104.4346     82.7838   6.6484921206e+01   4.5971634172e+01    0.4778366    0.3003718 -65.55  0.001864851    2.601    0.615
        72 -10.4773    119.4782     80.9700   6.1540903873e+01   4.3096973947e+01    0.2121574    0.1299603 -63.44 0.0008098847    2.525    0.604
        73 -11.0290    103.1819     76.0866   6.4789674363e+01   4.7523714484e+01    0.2750897    0.2188525 -63.53  0.001357026    1.593    0.372
        74 -11.0164     52.4921     75.9080   8.3084149590e+01   5.6448541392e+01    0.3206792    0.1911542  30.59  0.001247664    1.698    0.411
        75 -10.9696     62.6867     74.0237   7.8374665229e+01   5.5368096108e+01    0.3718274    0.1760871 -54.65  0.001458195    2.582    0.613
        76 -11.3753     82.2603     72.9150   7.0676703022e+01   5.2262558350e+01    0.4125834    0.2660925 -67.64  0.001647245    2.854    0.650
        77 -11.6468     43.3478     73.3034   8.6139406621e+01   5.8166330018e+01    0.3250498    0.2347162  79.44  0.001479461    2.738    0.635
        78 -10.6248     94.7869     70.8712   6.5766020545e+01   5.0219783214e+01    0.4404535    0.1904989 -53.34  0.001443302    3.647    0.726
        79  -9.9063    179.1732     70.1397   4.5495140714e+01   3.1268108398e+01    0.1878633    0.1498424 -86.00 0.0003540202    1.304    0.233
        80 -10.7766     50.8234     68.8112   8.1549971460e+01   5.8147706619e+01    0.3384533    0.1771821 -67.47  0.001095491    4.729    0.789
        81 -11.8479      7.3975     65.1971   1.0019349739e+02   6.3056019182e+01    0.4168587    0.2627087  26.01  0.001983359    1.835    0.455
        82 -10.5287    128.2439     75.9894   5.7720694940e+01   4.2047890267e+01    0.1954395    0.1268726 -39.00 0.0008843725    1.599    0.375
        83 -11.8185     25.4035     59.0663   8.9897817924e+01   6.3025238218e+01    0.3318587    0.2305739 -74.00  0.001721187    2.240    0.554
        84 -10.1301    105.5194     53.0272   5.6558660956e+01   5.0943081193e+01    0.1981621    0.1177258 -58.01 0.0008103144    2.633    0.620
        85 -10.8818     30.8651     51.7641   8.4857219556e+01   6.3914387263e+01    0.2183324    0.1800872 -84.15  0.001241684    2.097    0.523
        86 -10.3913     92.2446     50.5143   5.9651369450e+01   5.4163224875e+01    0.2880098   0.09654952 -46.37 0.0008981383    4.376    0.771
        87 -11.8613      9.7003     49.2674   9.4679221307e+01   6.6230593469e+01    0.2851076    0.1927516 -25.45 0.0005601672    1.217    0.178
        88 -11.6791    237.4285     46.3931   3.2873529517e+01   2.2437849304e+01    0.3559783    0.1718329 -47.78  0.001939626    1.710    0.415
        89 -11.2378    145.5703     46.5056   4.5144827383e+01   4.2621300068e+01     0.256488    0.2255912  66.61  0.001152432    1.036    0.035
        90 -10.6482     81.5167     46.0133   6.1536095097e+01   5.7012333793e+01    0.2014113    0.1336697 -33.15 0.0009808523    1.605    0.377
        91 -11.1540      4.9814     41.2731   9.4672577546e+01   6.8083520636e+01    0.3293916    0.1706245 -70.70  0.001499239    3.282    0.695
        92  -9.7736    108.5240     26.4830   4.6692230424e+01   5.3719898929e+01    0.1333163    0.1152665  50.75 0.0008099214    1.013    0.013
        93 -10.6692     37.3244     25.7631   7.1327141431e+01   6.7434893605e+01    0.2669337    0.1424479  30.34  0.001378863    1.682    0.406
        94 -11.5515     31.9651     20.4104   7.1565040796e+01   6.8907957966e+01    0.3464926    0.1976913  25.15  0.001268533    1.537    0.349
