#   1 NUMBER                 Running object number                                     
#   2 MAG_AUTO               Kron-like elliptical aperture magnitude                    [mag]
#   3 X_IMAGE                Object position along x                                    [pixel]
#   4 Y_IMAGE                Object position along y                                    [pixel]
#   5 X_WORLD                Barycenter position along world x axis                     [deg]
#   6 Y_WORLD                Barycenter position along world y axis                     [deg]
#   7 A_WORLD                Profile RMS along major axis (world units)                 [deg]
#   8 B_WORLD                Profile RMS along minor axis (world units)                 [deg]
#   9 THETA_WORLD            Position angle (CCW/world-x)                               [deg]
#  10 FWHM_WORLD             FWHM assuming a gaussian core                              [deg]
#  11 ELONGATION             A_IMAGE/B_IMAGE                                           
#  12 ELLIPTICITY            1 - B_IMAGE/A_IMAGE                                       
         1 -13.6301    169.7314     55.7198   6.2111913259e+01   3.5419367012e+01     2.273856     1.460787  19.83  0.006592143    2.261    0.558
         2 -13.3143    184.6939     39.9939   5.4605380689e+01   3.3835133701e+01    0.9965498    0.9088547 -44.69   0.00305873    1.098    0.090
         3 -12.8341    189.4077     34.2185   5.2149916495e+01   3.3373569492e+01    0.6753473    0.5675401 -40.04   0.00131944    1.191    0.160
         4 -13.9760    206.8369      9.7479   4.3019802339e+01   3.1742018753e+01     1.399632     1.132683  20.84   0.00592987    1.562    0.360
         5 -11.8907    190.9870     15.2376   4.6348472038e+01   3.5198592363e+01     0.666643    0.3483482  57.17  0.002546298    1.796    0.443
         6 -11.7609    239.4237      2.1865   3.8246074802e+01   2.4655610860e+01    0.7255636    0.2366703  73.89  0.002935011    2.927    0.658
         7 -10.6845     61.6939    219.3185   1.2117890762e+02   2.2034399489e+01    0.1907952    0.1359777  85.30  0.000551455    1.226    0.185
         8 -13.6305    246.6545    237.1420   8.9727282540e+01  -9.4905059268e+00     2.083904    0.6162682 -29.85  0.009252314    3.752    0.733
         9 -17.6552     42.7970    242.6984   1.2609429425e+02   2.0155514884e+01     6.573101     4.715032  35.64   0.04844079    1.789    0.441
        10 -11.5847    151.3479    196.0526   1.0061221445e+02   1.2329283310e+01    0.4281482    0.3572333  33.46   0.00253767    1.162    0.139
        11 -10.4327     15.7659    201.1960   1.2817093948e+02   3.0737513330e+01    0.1171668   0.09514727  60.30 0.0004061228    1.296    0.228
        12  -9.5187     81.5754    194.9930   1.1491948700e+02   2.4103700894e+01    0.2340042    0.2081991 -72.73    0.0015676    1.257    0.205
        13 -11.4786     65.8909    195.2697   1.1813778725e+02   2.6217648740e+01    0.3273359    0.2312727 -44.40  0.001463018    2.042    0.510
        14  -9.5888    156.3819    190.6212   9.8665940517e+01   1.2394198361e+01    0.2598536    0.1886832   5.52  0.000806423    1.993    0.498
        15 -11.0609    150.5779    188.1673   9.9454144735e+01   1.3924414738e+01    0.3799718    0.2010908 -53.86  0.001722386    2.174    0.540
        16 -10.2211    153.1488    184.4177   9.8263037586e+01   1.4150033488e+01     0.271111    0.1853648 -69.52   0.00131166    1.979    0.495
        17 -19.1960     26.0231    102.5134   1.1589030100e+02   5.1647461696e+01     17.27129     1.315241 -66.84   0.03353668   11.489    0.913
        18 -11.2277     54.5389    211.0054   1.2179802378e+02   2.4527137691e+01    0.2350816    0.1698151  32.18 0.0003512685    1.774    0.436
        19  -8.4143    164.6720    187.3194   9.6374090084e+01   1.1442944051e+01    0.1378433    0.1068812  74.79 0.0007047253    1.684    0.406
        20 -10.6898     74.0312    207.6051   1.1778521947e+02   2.2640551166e+01    0.3354902    0.2184607 -48.28  0.001938837    2.120    0.528
        21  -6.9675     15.5451    187.4045   1.2733710930e+02   3.3533156382e+01    0.1101045   0.08348963  83.41 0.0001603963    1.058    0.054
        22 -10.8644    238.1688    184.9071   8.1769134795e+01  -1.7263210126e+00    0.1908933    0.1772821 -11.23   0.00124073    1.266    0.210
        23  -9.1435     90.8471    183.7765   1.1157025380e+02   2.5060761818e+01    0.2544608    0.1530403  84.12   0.00122153    2.074    0.518
        24 -11.8500    145.4302    181.8067   9.9445275395e+01   1.6096456981e+01    0.4439825    0.3543937  69.51  0.001431293    1.386    0.278
        25  -9.9738    189.1154    178.4370   8.9717617184e+01   8.3255879435e+00    0.3980565    0.2740418  61.71  0.001273754    1.910    0.477
        26  -9.9143    187.8666    173.2397   8.8934304094e+01   9.4746354181e+00     0.406039    0.2524179 -56.94  0.001464612    2.230    0.552
        27 -11.9176    140.6112    173.3636   9.8988879321e+01   1.8675913656e+01    0.7204062    0.5368164  66.58  0.003568917    1.507    0.336
        28 -10.1019     91.2398    174.7840   1.1023965112e+02   2.6928417319e+01    0.3940491     0.200784 -84.61  0.001526872    3.148    0.682
        29 -12.6814     75.2545    249.0523   1.2120279048e+02   1.5028405712e+01    0.3091152    0.1563001 -61.68  0.001911391    2.325    0.570
        30  -9.5310    186.8900    165.7331   8.7593304498e+01   1.1008299473e+01    0.3109542    0.2000941 -44.42  0.001158331    1.662    0.398
        31 -11.3436     71.8392    244.7786   1.2144653402e+02   1.6187741154e+01    0.2191883    0.1547292 -78.62  0.000916431    1.485    0.327
        32  -9.7949      1.7881    162.8812   1.2838663601e+02   3.9857754940e+01    0.1563326    0.1179551 -79.62 0.0004851535    1.183    0.155
        33 -12.1447     59.0656    216.0045   1.2138113533e+02   2.2997101041e+01    0.2611504    0.1788185  74.49 0.0009023423    1.213    0.176
        34 -11.0726     94.1108    157.5582   1.0692001118e+02   3.0303726980e+01    0.2729991    0.2424057 -73.00 0.0003788027    1.087    0.080
        35 -12.0846     99.4795    150.9573   1.0448466909e+02   3.0928224280e+01    0.6211376    0.4615477 -34.87  0.003160417    1.705    0.413
        36  -9.9645    113.3800    151.5204   1.0121084587e+02   2.8394806068e+01    0.2845604      0.23353  82.55 0.0006003245    1.297    0.229
        37  -9.8830    174.4825    148.7959   8.6538738491e+01   1.6767683462e+01    0.2842987    0.2398214  79.93 0.0007341636    1.480    0.324
        38 -11.6005     69.7261    208.8969   1.1874159689e+02   2.2973693565e+01    0.2008327      0.14469  68.08  0.000339467    1.151    0.132
        39  -8.6998    119.5208    148.0581   9.9050012696e+01   2.8049447029e+01    0.2166985    0.1413222 -53.97 0.0004152127    1.526    0.345
        40 -10.9614    133.8896    145.7437   9.5113743379e+01   2.5804302245e+01     1.245409    0.3051513 -54.40  0.002945596    6.062    0.835
        41  -9.3027    115.4350    144.3966   9.9314568602e+01   2.9626826042e+01    0.2887635     0.198474  80.95 0.0006954827    1.986    0.497
        42 -11.2451    109.5716    137.7647   9.9425454414e+01   3.2203857890e+01    0.6166409    0.3343852 -38.22  0.002479385    2.315    0.568
        43  -9.2071    128.0840    139.3430   9.5143677602e+01   2.8359071410e+01    0.2169264    0.1877328  48.58  0.000975663    1.155    0.134
        44 -11.7902     98.3039    136.9320   1.0213305027e+02   3.4361025771e+01     0.287182    0.2790425 -36.79 0.0005057402    1.160    0.138
        45 -10.9372    105.8983    130.7743   9.8895706009e+01   3.4473624172e+01    0.4009872    0.3252234 -69.64  0.001127778    1.235    0.190
        46 -10.4404    135.7443    126.9329   9.0417375123e+01   2.9561444847e+01    0.7605963    0.1641051 -49.24  0.001866529    5.018    0.801
        47 -10.2546    116.2802    128.7138   9.5752777796e+01   3.3036500457e+01    0.3114105     0.257114 -22.38  0.000595225    1.466    0.318
        48  -9.8787    160.4472    127.6965   8.4707313339e+01   2.4077501084e+01     0.372752    0.2756813 -64.41  0.001678789    1.646    0.392
        49 -10.5711    104.1465    124.4509   9.7971192764e+01   3.6251460236e+01    0.3005312    0.2528011 -24.55 0.0006448862    1.410    0.291
        50  -9.7805    120.9230    122.8057   9.3182387345e+01   3.3482463196e+01    0.3137257    0.1855248 -27.00  0.001169182    2.605    0.616
        51  -8.9438    152.6901    119.6411   8.4497275110e+01   2.7484172161e+01    0.2352805    0.1839836   2.12 0.0005553034    1.667    0.400
        52  -9.3729    111.0481    118.0834   9.4652678153e+01   3.6456858867e+01    0.2163215    0.2101194 -62.84  0.000330268    1.027    0.026
        53  -9.8831    231.2478    113.6761   6.7093270970e+01   1.0789097566e+01    0.2617945    0.2342703  -0.85  0.000726988    1.116    0.104
        54  -9.8316    167.7248    112.7158   7.9223494736e+01   2.5489612267e+01    0.4015695    0.2874875 -79.13  0.001640205    2.133    0.531
        55 -10.6592    134.6683    107.5343   8.5758738434e+01   3.4031865949e+01     1.057993    0.1377962 -45.59  0.002037904    7.736    0.871
        56 -11.2485    119.0080    110.4939   9.0633667382e+01   3.6635868279e+01    0.5410714    0.3812339  74.84  0.002325727    2.021    0.505
        57  -9.9574    205.3176    110.1464   7.0802184568e+01   1.7199705931e+01     0.357126    0.2733586  27.00  0.001022869    1.464    0.317
        58 -10.0063     73.7094    103.3870   1.0174299862e+02   4.6104391265e+01    0.2563981    0.1603376 -65.51 0.0008447987    1.614    0.380
        59  -9.7927    128.1335     95.6509   8.4159356415e+01   3.7989238577e+01    0.3246419    0.1446687  53.32   0.00111285    2.662    0.624
        60  -9.9622    189.8388     89.5161   6.8221625992e+01   2.4612416990e+01    0.3696811    0.3108576 -89.85  0.001638741    1.411    0.291
        61  -9.0025    152.5073     81.5285   7.3859863266e+01   3.5251964021e+01    0.1564546    0.1533132 -15.35 6.090787e-05    1.002    0.002
        62  -8.7844     73.7654     73.5992   9.3796331390e+01   5.2803897905e+01    0.1709653    0.1340104  47.22 0.0003178653    1.504    0.335
        63 -13.0598     11.5015    206.5219   1.2922771158e+02   3.0107526732e+01    0.3175585    0.2230556  49.58  0.002213191    1.424    0.298
        64 -11.0330      6.5014    206.4818   1.3008595504e+02   3.0581681656e+01     0.153938    0.1204714  88.39 0.0005380324    1.230    0.187
        65 -10.7085     61.7593    205.4015   1.1994030946e+02   2.4712362101e+01    0.2618797    0.1742457 -54.09  0.001598686    1.889    0.471
        66  -9.6923     87.6131    203.0263   1.1462049658e+02   2.1607049156e+01    0.2423366    0.2052601 -71.19  0.001072851    1.279    0.218
        67 -10.7598    193.1159    195.1532   9.2094827771e+01   4.7997380380e+00    0.8943496    0.4611025 -61.16  0.002891828    5.515    0.819
