#   1 NUMBER                 Running object number                                     
#   2 MAG_AUTO               Kron-like elliptical aperture magnitude                    [mag]
#   3 X_IMAGE                Object position along x                                    [pixel]
#   4 Y_IMAGE                Object position along y                                    [pixel]
#   5 X_WORLD                Barycenter position along world x axis                     [deg]
#   6 Y_WORLD                Barycenter position along world y axis                     [deg]
#   7 A_WORLD                Profile RMS along major axis (world units)                 [deg]
#   8 B_WORLD                Profile RMS along minor axis (world units)                 [deg]
#   9 THETA_WORLD            Position angle (CCW/world-x)                               [deg]
#  10 FWHM_WORLD             FWHM assuming a gaussian core                              [deg]
#  11 ELONGATION             A_IMAGE/B_IMAGE                                           
#  12 ELLIPTICITY            1 - B_IMAGE/A_IMAGE                                       
         1 -13.4815    227.7095      6.7783   3.2893184212e+01   2.8516227929e+01     1.899678     1.003072  50.27  0.009627447    2.441    0.590
         2 -13.2258    195.8158     41.5949   4.4536264304e+01   3.1754530376e+01       1.0541    0.9524121 -60.93  0.003127064    1.064    0.060
         3 -13.4944    204.0939     33.1693   4.1331823300e+01   3.0872152307e+01     1.079396    0.8772695 -26.20  0.001338149    1.396    0.284
         4 -11.3182     59.7905      3.4925   6.0941225994e+01   6.6969988198e+01     0.409858    0.1807904  35.60  0.002018787    2.031    0.508
         5 -11.6890     48.0428      3.3271   6.5523855228e+01   6.8981976825e+01    0.4437606    0.1866807  32.86  0.002163261    2.229    0.551
         6 -10.3111    157.3408    220.1470   9.3699464438e+01   6.5441274524e+00    0.2559418    0.1730449 -82.70  0.001148932    2.915    0.657
         7  -8.9219    248.6584    250.3206   8.1035567133e+01  -1.1200874111e+01   0.09546187   0.08647477  25.37 0.0007050086    1.721    0.419
         8 -11.7629    139.2609    248.0158   1.0137177479e+02   4.5925870779e+00    0.6529604    0.5687605  17.32  0.004441434    1.189    0.159
         9 -18.3669     18.8720    205.0923   1.2198023992e+02   2.8962458860e+01     13.61233     4.873019 -80.64   0.06327787    2.567    0.610
        10 -11.2776    111.8037    204.8270   1.0143625839e+02   1.7016599619e+01     0.440093    0.2994566 -88.73   0.00113231    1.946    0.486
        11 -10.2473    155.2505    215.5559   9.3418085775e+01   7.7233042433e+00    0.2704456    0.1162552  41.33  0.001139812    2.106    0.525
        12 -10.0220     99.4568    181.0105   1.0078791589e+02   2.4269522912e+01    0.2624639    0.2263622  36.76  0.000599015    1.178    0.151
        13 -14.9574     69.9151    147.1411   1.0302795007e+02   3.6877861931e+01     4.384251     2.514681  77.07   0.01144377    2.745    0.636
        14  -9.8943    188.0398    176.2910   7.9159194406e+01   9.3434411428e+00    0.3589932     0.311432 -51.93  0.001859669    1.327    0.247
        15  -9.8581    147.2036    173.1232   8.7693425393e+01   1.7668944029e+01    0.5628421    0.3387733 -75.96  0.001978424    3.393    0.705
        16 -10.9668     48.7496    171.4960   1.1216853674e+02   3.3535485385e+01    0.5636979    0.3383072 -42.67  0.002482654    2.093    0.522
        17  -9.9815     45.4835    169.4959   1.1275225376e+02   3.4385375354e+01    0.3162822    0.2396989 -45.23  0.001201717    1.531    0.347
        18 -10.9419    164.4508    212.9734   9.1027821744e+01   6.6563815890e+00    0.2713878    0.2371348 -42.95   0.00163458    1.281    0.220
        19  -9.7797     89.8296    212.6448   1.0742136297e+02   1.8722863882e+01    0.2706339    0.1972821  80.30 0.0006468453    1.470    0.320
        20  -8.8221    194.0516    171.4754   7.6906670817e+01   9.1413870544e+00    0.2151835    0.1384721  39.31  0.001021125    1.560    0.359
        21  -9.1585    185.3980    169.2991   7.8270462359e+01   1.1184275406e+01    0.2479149    0.1804766 -48.94 0.0007938001    1.487    0.327
        22  -9.8175    240.1821    169.1903   6.7677849652e+01   1.4473090658e+00    0.1689167     0.152042 -39.15 0.0004332807    1.302    0.232
        23  -8.9898    137.4458    167.4820   8.8929854091e+01   2.0738983596e+01    0.3000229    0.1442533  40.07 0.0009020279    2.029    0.507
        24 -10.8831     50.5289    163.7383   1.1075932728e+02   3.5209865266e+01    0.4604078    0.2633931 -36.99  0.002080837    2.471    0.595
        25 -11.4486     91.7872    152.0069   9.7807710424e+01   3.2430341636e+01    0.7031043    0.5191364 -17.23   0.00328946    1.888    0.470
        26 -10.4944    134.3123    147.3268   8.5479532125e+01   2.5912313937e+01     0.965522    0.2744715 -53.58   0.00257918    4.318    0.768
        27 -10.1504    133.0000    141.0123   8.4394484807e+01   2.7622825220e+01    0.5276727    0.2000046 -51.19  0.001369187    2.728    0.633
        28  -8.9767    111.9916    150.2924   9.1980176906e+01   2.9417332818e+01    0.3144014    0.1661525  56.58  0.001148554    2.541    0.606
        29  -9.3775    174.7377    149.1497   7.6189788699e+01   1.7334712438e+01    0.2608658    0.2108233  55.23 0.0007182969    1.385    0.278
        30 -10.3034    104.5432    138.3060   9.1493053414e+01   3.3629866020e+01    0.5730461    0.3446426 -28.19  0.002217832    2.414    0.586
        31  -9.3665    173.3457    211.3091   8.8862264725e+01   5.4625868626e+00    0.1411458    0.0992671   3.35 0.0004719228    1.702    0.413
        32 -11.5948     92.1528    137.7961   9.4906088532e+01   3.5862784869e+01    0.2914482    0.2635166 -35.42 0.0004041188    1.154    0.134
        33 -11.9744    196.5846    204.9463   8.2936662822e+01   2.6865664927e+00    0.5703634    0.3186169  22.40  0.002644463    1.982    0.496
        34 -10.1826    105.9200    130.8329   8.9434882795e+01   3.5187603865e+01    0.3638472    0.3300223 -75.40  0.001269803    1.153    0.133
        35 -10.2546    135.7611    128.6906   8.0747219542e+01   2.9880495990e+01    0.5034381     0.172963 -46.97  0.001581911    2.872    0.652
        36 -10.1809    112.9504    129.1292   8.7045977477e+01   3.4297187276e+01    0.4753282    0.3296206  12.25  0.001845775    2.017    0.504
        37 -11.2443    119.5575    123.1218   8.3738939029e+01   3.4434893463e+01    0.6917531    0.4863281 -22.45  0.002979264    1.816    0.449
        38  -9.0858    160.8787    127.7596   7.4277512704e+01   2.4751034137e+01     0.313796    0.2110081 -68.92  0.001251257    2.179    0.541
        39 -10.3113    100.2673    125.1202   8.9745125924e+01   3.7572153346e+01    0.3020743    0.2383293 -30.30 0.0007514306    1.382    0.276
        40 -11.4979    107.6742    203.9661   1.0225882943e+02   1.7855170826e+01    0.3851392    0.3038246  75.93 0.0005399748    1.379    0.275
        41 -10.2324    135.0802    120.0664   7.8757427675e+01   3.1964466465e+01    0.6520622     0.140363 -44.24    0.0016107    4.615    0.783
        42  -9.2482    108.8670    118.3689   8.5592485206e+01   3.7607848044e+01    0.2343743    0.2043782 -58.09 0.0003440303    1.156    0.135
        43  -9.9362    231.3736    113.8394   5.7081549624e+01   1.2443139003e+01    0.2744878    0.2340136 -32.27 0.0007292142    1.062    0.058
        44  -8.7045    168.0108    113.0016   6.8873390187e+01   2.6247015254e+01    0.2601138    0.1964134 -79.40  0.001137241    1.843    0.457
        45 -11.5601    117.8579    109.0296   8.0570642421e+01   3.8001417459e+01     0.724596    0.6342089 -62.37  0.003674302    1.220    0.180
        46  -9.4016    205.3771    110.3288   6.0642027112e+01   1.8455550390e+01     0.283883    0.2295677  47.05 0.0009539559    1.324    0.244
        47  -9.4786    134.8855    104.3975   7.4624482793e+01   3.5437892241e+01    0.5242493    0.1998542 -35.62   0.00159532    3.201    0.688
        48  -8.9138     93.3656    205.7665   1.0577153035e+02   1.9667694873e+01    0.2249152    0.1860113  43.59   0.00103053    1.142    0.124
        49 -12.4913    112.4465    196.6060   1.0007352212e+02   1.8672548261e+01    0.9395146    0.6245954   5.76  0.004125995    2.498    0.600
        50  -8.4984    130.6870     98.3706   7.4048900387e+01   3.7631037781e+01    0.1618628    0.1254666 -80.93 0.0001025249    1.777    0.437
        51  -9.7309     59.3886     97.2175   9.6100061744e+01   5.0550381779e+01     0.286896    0.2085825  30.27  0.001350159    1.508    0.337
        52 -10.9891    192.8185    194.7995   8.1812884705e+01   5.0824036491e+00     1.053308    0.5890994 -64.63  0.003421002    5.109    0.804
        53 -10.1892    149.4857    187.7043   8.9931761149e+01   1.4168712824e+01     0.345795    0.2470707  79.38  0.001545945    2.237    0.553
        54  -9.2796     81.9879    195.2450   1.0704696616e+02   2.3654672364e+01    0.2718581     0.233997 -15.63  0.001578056    1.557    0.358
        55  -8.8201    157.4662     82.5098   6.2844764551e+01   3.4622021755e+01    0.1507785    0.1491444  -0.23 8.674693e-05    1.022    0.021
        56  -8.5217    184.5090     76.9988   5.5830934817e+01   2.9133730361e+01    0.2018495    0.1334939  -5.51 0.0008090032    2.427    0.588
        57  -9.4958     61.2122     68.5859   8.7365641808e+01   5.6679725165e+01    0.2354219    0.2171188  81.67 0.0008352937    1.450    0.311
        58  -9.9582    120.1997    194.7218   9.7961637888e+01   1.7798985495e+01    0.2320029    0.1905742 -82.54  0.000769396    1.380    0.275
        59 -12.9657    184.0085     51.0647   4.8805812876e+01   3.3302372160e+01     0.919472    0.9064365 -17.64 0.0008272403    1.127    0.112
        60  -9.2209    157.9955    235.7007   9.5908667756e+01   3.7495332471e+00     0.185581    0.1483097  32.10 0.0005473466    1.062    0.059
        61  -8.1657    168.7464    233.9923   9.3465034268e+01   2.3447450047e+00    0.1412651     0.110177 -38.57 0.0004112483    1.456    0.313
        62  -9.5231     91.8924    183.2576   1.0300077536e+02   2.4930529705e+01    0.3531087    0.2587471 -20.56  0.001588999    2.021    0.505
        63 -10.2212    107.6846    250.0803   1.0790539540e+02   8.9115081470e+00    0.3325078    0.1440946  40.38  0.001653079    1.856    0.461
        64  -9.3132    189.5140     15.0017   3.8361157386e+01   3.6406034571e+01    0.2045906    0.1606401  80.37 0.0006253119    1.140    0.123
        65 -10.4931    160.7557    224.4329   9.3648939392e+01   5.2295371068e+00    0.2710811    0.1113247  40.67  0.001155327    2.162    0.537
