#   1 NUMBER                 Running object number                                     
#   2 MAG_AUTO               Kron-like elliptical aperture magnitude                    [mag]
#   3 X_IMAGE                Object position along x                                    [pixel]
#   4 Y_IMAGE                Object position along y                                    [pixel]
#   5 X_WORLD                Barycenter position along world x axis                     [deg]
#   6 Y_WORLD                Barycenter position along world y axis                     [deg]
#   7 A_WORLD                Profile RMS along major axis (world units)                 [deg]
#   8 B_WORLD                Profile RMS along minor axis (world units)                 [deg]
#   9 THETA_WORLD            Position angle (CCW/world-x)                               [deg]
#  10 FWHM_WORLD             FWHM assuming a gaussian core                              [deg]
#  11 ELONGATION             A_IMAGE/B_IMAGE                                           
#  12 ELLIPTICITY            1 - B_IMAGE/A_IMAGE                                       
         1 -14.3132     68.8936    146.5555   8.3407558707e+01   3.7034510007e+01     2.293392     1.417059  86.73  0.002976117    1.861    0.463
         2 -13.2492    209.7022     41.7097   2.3278712862e+01   2.7456118881e+01    0.9675428    0.7656345  48.19  0.001431813    1.351    0.260
         3 -12.9651    235.5187     17.4940   1.4036257598e+01   2.4083835200e+01     0.930854    0.8351653 -67.98  0.004204752    1.068    0.064
         4  -9.4200    158.1643      8.8107   2.1168214002e+01   4.4857501988e+01    0.1976584    0.1515744  41.45 0.0005993833    1.293    0.227
         5 -10.6837    119.2982    241.3351   8.4642492881e+01   1.0110256643e+01     0.242269      0.17947 -29.66   0.00102953    2.363    0.577
         6  -9.5678    150.7293    250.0468   7.9927062332e+01   3.7198936461e+00    0.1673827     0.134406  46.81  0.001165524    1.055    0.052
         7 -10.9748    140.2463    249.8465   8.1787084008e+01   5.4442758184e+00    0.3643393    0.1637398  50.26  0.001894779    1.828    0.453
         8 -10.4696     75.3827    246.9898   9.2914046337e+01   1.5660004176e+01     0.426601    0.1593636 -60.09  0.002231303    3.150    0.683
         9 -13.5475     15.3795    185.0748   9.9281968325e+01   3.4480609066e+01    0.9907451    0.3901866  55.61 0.0006189154    2.220    0.550
        10 -17.9669      8.9925    235.7711   1.0306560009e+02   2.5432601908e+01     7.505953     3.894542 -80.62   0.02080367    1.692    0.409
        11 -10.6801    111.5387    237.9292   8.5701790358e+01   1.1889072059e+01    0.2190443    0.1545512  48.60 0.0003069917    1.151    0.131
        12  -8.7537     90.4745    237.4592   8.9477816063e+01   1.5152074948e+01    0.1190629   0.08915253  61.51  1.63089e-05    1.010    0.010
        13 -11.6709     47.9279    231.8964   9.6511598785e+01   2.1847863458e+01    0.2687453    0.1434993 -79.49 0.0009044693    1.774    0.436
        14 -11.2000    154.8613    228.9281   7.6485665588e+01   6.2102754678e+00    0.3475848    0.2492921 -58.74  0.001587509    1.758    0.431
        15  -8.8072     84.8614    227.8663   8.9615096876e+01   1.7664611267e+01     0.157157    0.1083589  71.15 0.0003820881    1.256    0.204
        16  -9.8106     71.3811    226.2942   9.1944936461e+01   1.9846031306e+01    0.2515179    0.1707056  54.36  0.001253992    1.192    0.161
        17  -9.6935    167.0676    224.4532   7.3516155597e+01   4.7879678154e+00    0.1764893    0.1694539  43.67 0.0005656319    1.179    0.152
        18  -9.9095    142.2885    216.5644   7.7237668361e+01   1.0442477116e+01    0.2139142    0.2045575  88.29 0.0007509835    1.200    0.167
        19  -8.8665    167.8970    205.0837   7.0374387720e+01   7.7892550419e+00    0.1905395    0.1648778  62.11 0.0003582939    1.227    0.185
        20  -9.4396     69.3334    195.8222   8.9479418919e+01   2.6078807402e+01    0.3504214    0.1675165 -56.29  0.001753387    2.334    0.572
        21 -10.3117     71.6382    201.1263   8.9557013127e+01   2.4677324992e+01    0.2950913    0.1728812  70.86  0.001629937    1.655    0.396
        22  -9.0553     75.3048    200.2957   8.8733806568e+01   2.4334112937e+01    0.1806802    0.1587511  64.24 0.0004220159    1.188    0.159
        23  -9.1450     67.2889    202.1280   9.0523380693e+01   2.5068172861e+01     0.168456    0.1279142  77.90  0.000452543    1.090    0.082
        24 -10.6029    192.3231    193.5261   6.3465355364e+01   5.1172540577e+00    0.7953309    0.4287646 -64.97  0.002492525    5.677    0.824
        25 -11.1873    163.7035    193.6815   6.9333597392e+01   1.0574528939e+01      0.55739    0.2840278 -56.87  0.001744953    2.604    0.616
        26 -15.8665      9.0522    208.0659   1.0176432188e+02   3.0502279824e+01     1.006748    0.8760023 -72.47  0.006182113    1.570    0.363
        27 -10.5520     53.5939    189.5318   9.2066339964e+01   2.9436566430e+01    0.3097441    0.1878388 -84.80 0.0006122749    1.491    0.330
        28  -9.2332    202.4936    188.5094   6.0514785148e+01   3.9922654411e+00     0.138186    0.1225805  28.19 4.853014e-05    1.039    0.037
        29  -9.3605     72.7298    186.9950   8.7816723549e+01   2.7459019540e+01     0.170515    0.1363472  82.26 0.0001750396    1.067    0.063
        30 -10.2248     76.0257    182.3537   8.6567696015e+01   2.7987257641e+01    0.5174016     0.250207  73.61  0.002104888    3.014    0.668
        31 -11.2477     99.0733    181.0087   8.1326023319e+01   2.4765288278e+01    0.3132606    0.2788265  77.64 0.0007145221    1.050    0.048
        32 -10.9449    180.5546    177.5379   6.2860974860e+01   1.0191218977e+01    0.4966762    0.2846215 -56.31  0.002133532    2.342    0.573
        33  -9.6930    199.8849    173.9633   5.8181851012e+01   6.9315686427e+00    0.2691372    0.2078278 -47.30 0.0009006694    1.485    0.327
        34 -11.7071    115.4894    172.5589   7.6335097507e+01   2.3793269004e+01    0.7328676    0.2878289  42.84  0.002874175    2.361    0.576
        35 -10.6193    110.6992    167.4813   7.6608580683e+01   2.5739696482e+01    0.3737495    0.2516764 -78.73 0.0006544134    1.702    0.412
        36 -11.2731     71.2404    174.8458   8.6707467076e+01   3.0292828054e+01     0.442508    0.2450958  49.98  0.001167177    1.680    0.405
        37 -11.9989     63.6138    117.6454   7.9961756957e+01   4.4524643900e+01     0.845143    0.4261494  68.15  0.003020361    3.866    0.741
        38 -12.6775     53.8619    109.6039   8.1278506578e+01   4.7591251624e+01     1.588588    0.5223451 -69.39   0.00350355    3.901    0.744
        39 -13.7853     87.8859    156.3223   8.0233801499e+01   3.2019548319e+01     3.055419     1.460203  78.55  0.003388937    7.631    0.869
        40 -11.8306     88.0963    148.3403   7.8876270224e+01   3.3824706639e+01    0.6806937    0.5001426   1.94  0.002202312    2.315    0.568
        41 -10.9479     81.6681    153.6235   8.1326940427e+01   3.3584091184e+01    0.3091733    0.2309951 -55.33 0.0003882245    1.375    0.273
        42 -11.3192     77.1655    168.9638   8.4613270723e+01   3.0761379011e+01    0.5767245    0.3367805  61.29  0.002902357    1.747    0.428
        43 -11.0216    102.4285    242.3680   8.7793825378e+01   1.2546000749e+01    0.5080418    0.2343273 -52.02  0.002670372    2.931    0.659
        44  -9.7294     37.7092    162.0289   9.2755574213e+01   3.7224118541e+01    0.5165945    0.2561624  19.80  0.002401148    3.440    0.709
        45  -9.5594     54.0423    162.0877   8.9059418450e+01   3.5367032956e+01    0.3124803    0.1810529  36.65  0.001692228    1.872    0.466
        46 -10.7245    133.7543    145.7528   6.7020463688e+01   2.6208014159e+01     1.130211    0.2737214 -54.67  0.002718899    5.834    0.829
        47 -10.0088     47.7692    145.3354   8.8484941056e+01   3.9921019808e+01    0.2382745    0.2243205 -68.47  0.001160128    1.244    0.196
        48 -10.2727     26.2117    137.7431   9.2868890175e+01   4.3814041747e+01    0.3073191    0.1726678  42.79 0.0009202486    1.897    0.473
        49 -10.9576    104.0294    133.0413   7.1912238376e+01   3.4735699555e+01    0.8133228    0.4303608 -34.62  0.002719045    2.947    0.661
        50 -11.5669     68.9468    165.3159   8.6024074939e+01   3.2727909966e+01    0.3854851    0.3282305 -15.68  0.001749528    1.790    0.441
        51 -11.5054     89.9108    134.3186   7.5894159845e+01   3.6810196237e+01    0.2638109    0.2430891 -58.42 0.0003512697    1.122    0.109
        52  -9.7487     38.1490    133.5183   8.9367554965e+01   4.3668790402e+01    0.3007731     0.161269 -80.91  0.001538684    1.754    0.430
        53  -8.5523    142.0094    133.9852   6.2419916116e+01   2.7090550568e+01    0.1807769    0.1752952 -70.91            0    1.041    0.039
        54  -9.7827     44.6741    133.6730   8.7708182882e+01   4.2962833028e+01    0.2495724    0.1670197 -55.19  0.001433607    1.441    0.306
        55 -10.4492     48.5197    129.1874   8.6053817276e+01   4.3594690991e+01     0.233534    0.1944959  83.65 0.0002677974    1.137    0.121
        56 -10.9891     44.4690    129.4886   8.7171240295e+01   4.3959958521e+01    0.2825064    0.1986256 -59.46 0.0009129226    1.291    0.225
        57  -9.9933    136.0029    129.5724   6.2892892182e+01   2.9330011970e+01    0.5547916    0.1318975 -46.83  0.001484897    4.243    0.764
        58  -9.7390    111.6156    127.3844   6.8701489759e+01   3.4668925296e+01    0.2804295    0.2292934  14.40 0.0009564027    1.556    0.357
        59 -11.4410     73.0146    161.0499   8.4501350768e+01   3.3132549800e+01     0.320328    0.2703888 -51.68  0.001947792    1.379    0.275
        60  -9.9012     92.9823    172.9618   8.1549193506e+01   2.7485593739e+01    0.1987115    0.1755791  78.97 0.0003213202    1.028    0.027
        61 -10.7100     47.5237    124.5747   8.5620810584e+01   4.4783530352e+01    0.2624673    0.2356192  66.01  0.001725561    1.189    0.159
        62 -10.5686     73.9277    120.8256   7.7654198773e+01   4.2392634486e+01    0.3554194    0.2525778 -74.03  0.001040896    1.395    0.283
        63 -10.9831    120.7398    121.0068   6.4820669822e+01   3.4372024730e+01    0.5622731    0.3827103  35.83  0.001316177    1.582    0.368
        64  -9.7449    162.3936    119.6360   5.4038107110e+01   2.5629612515e+01     0.264013    0.2560633 -54.11 0.0002422132    1.049    0.047
        65  -9.2119    135.0000    119.9288   6.0840290544e+01   3.1677955788e+01    0.2572689   0.08798392 -46.79 0.0008007104    2.930    0.659
        66 -10.6308     32.5191    118.1985   8.8772352784e+01   4.7749927161e+01     0.293223    0.1839066 -61.15 0.0006424339    1.335    0.251
        67  -9.0884    107.7711    116.9970   6.7377556710e+01   3.7775516324e+01    0.1978288    0.1845875 -62.97 0.0002283104    1.030    0.029
        68  -8.5532    183.5034    116.4650   4.8481279028e+01   2.1309094720e+01    0.1581511    0.1507164  14.96 0.0008087059    1.068    0.064
        69 -11.6914     56.9758    135.3005   8.4748136204e+01   4.1188298928e+01    0.5231249    0.3391327 -67.09 0.0005152253    1.346    0.257
        70  -9.4929    158.1425    113.9782   5.3592415834e+01   2.7792738501e+01    0.3265001    0.2167735 -64.09  0.001128222    1.966    0.491
        71  -8.6819     80.4535    115.2121   7.4665369123e+01   4.2767184501e+01     0.190554    0.1282145 -71.72 0.0004317188    1.563    0.360
        72 -10.2515     98.6711    122.7968   7.1187101997e+01   3.8055421293e+01    0.2789902    0.2378947  10.22 0.0009432728    1.468    0.319
        73 -10.2311    238.2110    172.5947   5.0595728301e+01  -2.6187660215e-01    0.1960353    0.1152323  31.99 0.0009537557    1.671    0.401
        74  -9.8842    205.4207    110.2523   4.2416204594e+01   1.7269727550e+01     0.308446    0.2632886  42.63 0.0007983904    1.185    0.156
        75 -10.4495    114.9212    108.6528   6.3366628537e+01   3.8314684714e+01    0.2717974    0.2086976 -38.25 0.0009833778    1.348    0.258
        76 -10.1193    133.1460    105.9409   5.7739022313e+01   3.5144959956e+01    0.4557556    0.3451912 -12.84  0.002030389    1.763    0.433
        77 -10.7628     85.0542    169.4057   8.2860106091e+01   2.9499168457e+01      0.40077    0.2507035  21.39  0.001543961    2.509    0.601
        78 -10.1252     32.8506     99.8773   8.5811777278e+01   5.1951235908e+01    0.2527191    0.2071458 -84.90 0.0007785438    1.189    0.159
        79 -11.0628     15.9080     89.7007   8.9343676281e+01   5.5532284314e+01    0.4039086    0.1857843  40.91  0.002116703    2.640    0.621
        80  -8.6398    118.4800     87.4463   5.6575398377e+01   4.2228390042e+01    0.1505682    0.1468435 -68.90 0.0001458685    1.068    0.064
        81 -10.5049    229.5063    165.9840   5.0803543065e+01   2.3982174581e+00    0.2088677    0.1316554 -32.87  0.001029949    1.582    0.368
        82 -11.2273    246.3603    163.6898   4.7298103765e+01  -4.2296645173e-01    0.4563465    0.2086691 -40.05  0.001988278    2.267    0.559
        83  -9.5379     59.5138    162.9570   8.7904212034e+01   3.4495270461e+01    0.2299379    0.1489953  61.99 0.0009036297    1.487    0.327
        84  -8.8424    184.6155     77.1917   3.7554363979e+01   2.8396347881e+01    0.2154086    0.1517743 -21.48 0.0004394927    1.632    0.387
        85 -10.1255     85.3850     72.5869   6.2193187801e+01   5.1548887571e+01    0.3582639    0.2691219  66.95  0.001209494    1.886    0.470
        86  -9.4644     80.7629     69.2116   6.2680621855e+01   5.2996615695e+01     0.324397    0.2297497  -3.32  0.001235849    1.843    0.457
        87  -9.5851    110.4749    244.5060   8.6561997028e+01   1.0970399304e+01    0.1183516    0.0916684  54.66 6.469485e-05    1.052    0.049
        88 -10.4123     32.9876     68.6325   7.9399930377e+01   5.8925374290e+01    0.2430111    0.1733348 -44.99 0.0008692534    1.173    0.148
        89  -9.9271    146.7573     67.1783   4.2835976773e+01   3.9735785501e+01    0.3033678    0.2423644 -71.29  0.001042392    1.551    0.355
        90 -12.6413    188.2389     58.2102   3.1369221619e+01   3.0611017547e+01     1.728438    0.9445298  33.03  0.005513605    2.665    0.625
        91 -12.9395    202.6443     47.7509   2.5982182537e+01   2.8427950491e+01     1.014262    0.8776322 -38.75  0.003685192    1.174    0.148
        92 -11.4425    125.2482    246.9032   8.4158105328e+01   8.2850467969e+00    0.4777082    0.2644228 -68.12  0.002604899    2.393    0.582
        93  -9.5632     71.8831    241.4175   9.3083507651e+01   1.7083410883e+01    0.2073558    0.1236586  78.85 0.0008994124    1.585    0.369
        94  -8.8293    132.5223     58.4545   4.3553787396e+01   4.4681423638e+01    0.1485046    0.1470341  50.03 0.0004522483    1.068    0.064
        95  -9.6158     75.1347     57.9932   6.0981712935e+01   5.6119769677e+01    0.2046635    0.1851234 -22.92 0.0006436897    1.031    0.030
        96 -12.0492     47.8615    239.2654   9.7004276193e+01   2.0544541337e+01    0.2325842    0.1878151  61.70 0.0008278697    1.266    0.210
        97  -9.3548     80.5745     44.8122   5.4378575109e+01   5.7659924696e+01    0.1925053    0.1584781 -30.80 0.0002790737    1.147    0.128
        98  -9.6600     77.1949     43.1513   5.4944305806e+01   5.8510976073e+01    0.2660845    0.2190337  59.93 0.0007051221    1.678    0.404
        99 -11.0201     11.8024     41.9966   8.0874865131e+01   6.5921201664e+01    0.1876343     0.153972 -17.64 0.0009854677    1.273    0.214
       100 -10.5443     20.9881     40.9066   7.6637241340e+01   6.5543836063e+01    0.2041758    0.1585295  16.37  0.000833124    1.512    0.339
       101  -9.5540     38.7933     36.8062   6.7633949538e+01   6.4772948130e+01    0.1472559    0.1407971 -44.12 0.0004670728    1.350    0.259
       102 -10.2605    120.5265    244.4882   8.4753143268e+01   9.4101183549e+00    0.2016626    0.1170155 -62.63 0.0007830473    2.117    0.528
       103  -9.9175     60.4025     21.0603   5.2214212188e+01   6.4648969603e+01    0.2094527    0.1708969  26.21 0.0004025857    1.271    0.214
       104  -9.4087    189.3451     15.0296   1.8561693115e+01   3.6061906374e+01    0.1949808    0.1795414 -58.25  0.000544236    1.124    0.111
