#   1 NUMBER                 Running object number                                     
#   2 MAG_AUTO               Kron-like elliptical aperture magnitude                    [mag]
#   3 X_IMAGE                Object position along x                                    [pixel]
#   4 Y_IMAGE                Object position along y                                    [pixel]
#   5 X_WORLD                Barycenter position along world x axis                     [deg]
#   6 Y_WORLD                Barycenter position along world y axis                     [deg]
#   7 A_WORLD                Profile RMS along major axis (world units)                 [deg]
#   8 B_WORLD                Profile RMS along minor axis (world units)                 [deg]
#   9 THETA_WORLD            Position angle (CCW/world-x)                               [deg]
#  10 FWHM_WORLD             FWHM assuming a gaussian core                              [deg]
#  11 ELONGATION             A_IMAGE/B_IMAGE                                           
#  12 ELLIPTICITY            1 - B_IMAGE/A_IMAGE                                       
         1 -13.3246    175.4085     61.5715   4.2861838589e+01   3.3400635564e+01     1.923664     1.102496  34.75  0.005959198    2.456    0.593
         2 -13.9819    217.1134     19.2837   2.7287061471e+01   2.9362017326e+01    0.9957537    0.8282024 -28.49  0.004294002    1.354    0.261
         3 -10.7359     41.2165      9.9932   6.0172729363e+01   7.0299676198e+01    0.1963297     0.116728  23.31  0.001047166    1.626    0.385
         4 -11.2447     51.8970    245.4625   1.0816247788e+02   1.6975566774e+01    0.1655773    0.1542741 -63.33 0.0004878577    1.337    0.252
         5 -10.3158    166.0728    248.9114   8.4638455713e+01   1.8329708545e+00    0.3026221    0.2013661  47.01  0.001778069    1.911    0.477
         6 -19.7374     22.9972    156.7682   1.0793162889e+02   3.9530416204e+01     19.15345      5.42471 -77.27   0.06510148    3.614    0.723
         7 -10.2808     66.0593    246.9136   1.0532132836e+02   1.5093012996e+01    0.1282277    0.1179689 -71.14 0.0003616044    1.303    0.233
         8 -11.1300     72.6394    226.7550   1.0213556361e+02   1.8150681749e+01    0.2651365    0.1872249  48.99 0.0001754027    1.251    0.200
         9  -8.6692     76.4870    226.4926   1.0124046451e+02   1.7722447277e+01    0.1286041    0.1055614  48.93 0.0008094787    1.072    0.067
        10 -10.4974     89.4948    226.6880   9.8312168538e+01   1.6007865007e+01    0.4348921    0.2261177  45.52  0.001069287    1.748    0.428
        11 -10.6502     76.2980    244.7064   1.0297799085e+02   1.4273657101e+01    0.2211217    0.1536964 -62.23 0.0008678169    1.691    0.408
        12 -10.9404    159.5913    224.9971   8.2528857822e+01   6.4557704632e+00    0.2813067    0.2491188 -89.52  0.001755668    1.759    0.432
        13 -10.8698     73.1035    204.3969   9.9704265154e+01   2.2755394621e+01    0.2568974    0.2054059  89.11 0.0008157135    1.342    0.255
        14 -10.5219     54.3418    242.3200   1.0742965279e+02   1.7291154017e+01    0.1837861     0.114368 -57.38   0.00110594    1.916    0.478
        15 -10.6029    191.9164    193.0391   7.0409055464e+01   7.0178428928e+00    0.7556736    0.4195854 -62.58  0.002306605    6.602    0.849
        16 -10.9823     82.9730    195.1421   9.6126906157e+01   2.3484025329e+01    0.4103223    0.3143284  33.18  0.001518228    1.222    0.182
        17 -10.2358     59.0744    196.6678   1.0233530537e+02   2.6217941358e+01    0.1857204    0.1691863  68.74 0.0004578415    1.036    0.035
        18  -9.1482    168.3228    195.6774   7.5810226497e+01   1.0237154650e+01    0.1272933    0.1098251  66.06 0.0003863274    1.679    0.405
        19 -10.0580     49.5027    194.4733   1.0451187315e+02   2.7829652531e+01    0.2076252     0.158543  22.00 0.0005342063    1.418    0.295
        20  -9.9917    233.8282    245.1545   7.1451003457e+01  -5.9299882330e+00    0.1602552   0.09961722  -1.91 0.0005455147    1.319    0.242
        21  -9.1799     89.3199    192.5133   9.4164211216e+01   2.3183380303e+01    0.2296035    0.1606305  82.86 0.0009572995    1.849    0.459
        22 -12.7322     57.8817    186.5020   1.0152996518e+02   2.8698686933e+01    0.4748087    0.3738975 -70.16  0.001054306    1.280    0.219
        23  -9.8766      2.4836    187.6531   1.1553643376e+02   3.3771906567e+01    0.1780165    0.1348303   4.20 0.0008684989    1.731    0.422
        24  -9.1861     91.4729    184.9661   9.2534053362e+01   2.4572303124e+01    0.1996551    0.1387453 -60.00 0.0003465655    1.517    0.341
        25 -11.3869    147.8218    182.0388   7.7946311129e+01   1.6187530149e+01    0.3209119     0.214447 -35.87  0.001090982    1.551    0.355
        26 -11.7276    180.7491    176.6726   6.9577776303e+01   1.1666981703e+01    0.6277915    0.3702338 -49.06  0.001601006    1.958    0.489
        27  -8.8192     60.6085    245.1668   1.0632699504e+02   1.6046978978e+01    0.1296215    0.1055292 -52.54 0.0008801321    1.533    0.348
        28 -10.6031    127.0218    177.9790   8.2248591515e+01   2.0526875387e+01    0.2333974    0.1798305  68.81  0.001141575    1.743    0.426
        29  -9.4865     88.0172    178.0106   9.2407230863e+01   2.6677921586e+01    0.2121248    0.2007643  44.14 0.0003925695    1.008    0.008
        30 -10.8419     91.0678    175.8043   9.1247676235e+01   2.6742355709e+01    0.3998809      0.25424  49.38  0.001860866    1.629    0.386
        31 -11.1405     83.7018    177.1902   9.3443550968e+01   2.7493170669e+01    0.2595674    0.2330489 -85.29 0.0004203867    1.163    0.140
        32 -10.1564    156.1326    174.4555   7.4566044117e+01   1.6284013589e+01    0.2927839    0.1968015 -62.25  0.001334073    2.094    0.522
        33  -9.4257    199.8696    173.6167   6.5111318808e+01   9.0642563203e+00    0.2473201    0.1681109 -51.42 0.0007738292    1.877    0.467
        34 -11.8053    230.1496    171.2719   5.9171151040e+01   4.7756509314e+00    0.3231969    0.2016611 -22.33  0.001792037    1.445    0.308
        35  -9.8058    187.8266    169.9390   6.6767358158e+01   1.1697559678e+01    0.3084197     0.177536 -44.79  0.001307987    1.812    0.448
        36 -10.2776    144.2507    168.5861   7.6217460380e+01   1.9556899361e+01    0.2038852    0.1354074  24.76 0.0006855724    1.558    0.358
        37  -9.0017    121.6673    167.3322   8.1643883055e+01   2.3764472266e+01    0.1511918    0.1161797  69.74 0.0007052196    1.727    0.421
        38 -11.7317    246.7224    163.8262   5.5059514544e+01   3.5234133291e+00    0.4239196     0.172876 -38.94  0.002006671    2.141    0.533
        39 -11.6902    133.8836    146.1247   7.4108200537e+01   2.6285020351e+01     1.285279    0.3442774 -54.09  0.002991477    6.131    0.837
        40 -10.8457    111.5015    149.8012   8.0907551496e+01   2.9537431832e+01    0.5946131     0.370505  74.71  0.002089921    3.256    0.693
        41 -11.1785     89.9910    152.3773   8.7543121044e+01   3.2506061668e+01    0.2939936    0.2626338  14.17 0.0003433789    1.171    0.146
        42 -12.2889     95.6727    146.7325   8.4798959841e+01   3.2964173653e+01    0.7258757    0.5248084 -37.40  0.002430112    1.482    0.325
        43  -9.1275    128.2902    141.6359   7.4572045707e+01   2.8341422483e+01    0.1535378    0.1239097  87.01 0.0007026066    1.701    0.412
        44 -11.2551    118.0350    135.6383   7.5999727378e+01   3.1641705424e+01     0.535426    0.3764027 -86.64  0.001679241    2.354    0.575
        45 -10.8494    114.6282    126.8372   7.4891859305e+01   3.4315992026e+01    0.3640713    0.2798505   3.19 0.0008320471    1.599    0.375
        46 -10.4697    109.6728    126.4642   7.6236809894e+01   3.5340029568e+01    0.3310514    0.2983862  82.80 0.0008307205    1.293    0.227
        47 -12.1787    107.2691    134.5905   7.8829210690e+01   3.3872398068e+01    0.6431444    0.4575196 -45.91  0.002435193    1.398    0.285
        48 -11.4872    105.5940    130.7721   7.8448597715e+01   3.5079402577e+01    0.4244429    0.3735051 -68.48  0.001455201    1.244    0.196
        49  -9.2247    144.1322    137.1930   6.9475284700e+01   2.6246641602e+01    0.2007661    0.1834474 -83.29 0.0003746688    1.318    0.241
        50 -11.6951     95.6466    133.3693   8.2010754997e+01   3.6210793097e+01    0.3066789     0.275927 -22.36 0.0002307749    1.153    0.133
        51 -10.6110     91.0795    133.8113   8.3500196109e+01   3.6872766685e+01    0.3197649    0.2485184  61.26 0.0005352809    1.505    0.335
        52 -10.1290    131.6428    132.2946   7.1519598497e+01   2.9775127467e+01    0.2419526    0.2270111 -89.54 0.0004902391    1.227    0.185
        53 -11.0739    136.0051    128.6325   6.9496372496e+01   2.9710520315e+01    0.5048552    0.2194073 -48.16  0.001810095    2.357    0.576
        54  -8.9715     87.3277    130.2920   8.3901656303e+01   3.8354703981e+01    0.1552633    0.1171029 -16.85 0.0005934938    1.622    0.384
        55  -9.4496    154.9717    243.5212   8.6155151206e+01   4.1195987941e+00    0.1716807      0.14928  -0.51 0.0003328563    1.153    0.133
        56 -10.3480    102.4397    122.0407   7.7324920325e+01   3.7720907163e+01    0.2869044    0.2526269  -2.54 0.0006796017    1.216    0.178
        57 -10.4288    120.3741    121.9067   7.2050278363e+01   3.4322937032e+01    0.3364851    0.2433472  -1.44  0.001440916    1.887    0.470
        58  -8.8465     96.6663    120.3250   7.8684269990e+01   3.9174287643e+01    0.1578765    0.1228827  75.38 0.0007051104    1.712    0.416
        59  -9.4157    110.1151    116.7922   7.3713507297e+01   3.7495356856e+01    0.2178888    0.2106632  76.51 0.0004228075    1.129    0.115
        60  -8.9028    183.5202    116.4540   5.5698112262e+01   2.2363124718e+01    0.1457126    0.1345354 -17.20  0.000231681    1.040    0.039
        61 -11.4078     75.4012    249.7452   1.0359932779e+02   1.3471675325e+01    0.2264537    0.1541637 -67.19  0.001342157    1.738    0.425
        62 -10.8644    134.8122    109.0766   6.4803991219e+01   3.4143533691e+01    0.9031175    0.1758587 -45.46  0.002137644    5.317    0.812
        63 -12.2329    117.3960    108.0702   6.9292637132e+01   3.8005763661e+01    0.7074045    0.5242436 -67.42  0.003171129    1.723    0.420
        64  -9.9591    205.4234    110.3367   5.0281050709e+01   1.9037667330e+01    0.2531918    0.2133571  43.76 0.0007902864    1.304    0.233
        65 -11.0552    120.4835    103.4966   6.7159331218e+01   3.8359826161e+01    0.2870207    0.2739415 -10.81  0.000949014    1.030    0.029
        66 -10.2527    249.5185    241.4973   6.8263688474e+01  -7.1849271307e+00    0.1122891   0.07765969  -2.61 0.0001820798    1.012    0.012
        67 -10.9394    150.6247    239.7839   8.6546822168e+01   5.2986379905e+00    0.1950589    0.1684309 -52.44  0.001298854    1.520    0.342
        68 -10.2987     79.1291    239.4862   1.0190009378e+02   1.4889902819e+01    0.1499407    0.1371883  58.91  0.001050317    1.127    0.113
        69 -10.3892     93.7244    236.1362   9.8379972052e+01   1.3655079805e+01    0.2267974    0.2155655 -57.77 0.0007712322    1.243    0.196
        70 -11.1757    242.0096    248.2807   7.0551680205e+01  -7.1806614981e+00    0.2164201    0.1397676  -5.35 0.0007640733    1.177    0.151
        71 -13.3640    191.3527     48.7080   3.7093145741e+01   3.1524249287e+01    0.8757802    0.7560018  76.78   0.00308416    1.156    0.135
        72 -12.6179    196.9688     42.5525   3.4823192693e+01   3.1051709264e+01    0.5556667    0.4388763  54.19  0.001717224    1.386    0.278
        73 -10.4430     63.0753     62.8100   7.3910186953e+01   5.7947542696e+01    0.4824159    0.2043331  46.39   0.00176721    2.954    0.661
        74  -9.3717     82.3092     61.4163   6.5970299240e+01   5.4756186895e+01    0.1985824    0.1374702  50.52 0.0009381416    1.588    0.370
        75 -10.8500     60.7090     53.4512   7.1446339113e+01   6.0178599729e+01    0.4425548    0.2292361  44.22  0.001924558    2.128    0.530
        76  -9.5286     63.2813     45.0665   6.7018499685e+01   6.1264145059e+01    0.1895308    0.1696404  -8.58 0.0004523679    1.057    0.054
        77  -9.1701     90.1435    233.6305   9.8907670851e+01   1.4590564300e+01    0.2932608    0.1381232  26.34  0.001380693    2.062    0.515
        78 -11.3229     68.5236    242.8593   1.0447341531e+02   1.5549853638e+01    0.2137927     0.201171   8.10  0.001555145    1.276    0.216
        79 -10.1404    189.6926     14.9805   2.8601602414e+01   3.5832617481e+01    0.1763811    0.1503163 -57.84 0.0006333223    1.100    0.091
        80  -9.8199     60.5117     21.0115   5.7285328561e+01   6.5430116615e+01     0.197943    0.1595988  29.88 0.0003742129    1.096    0.087
