#   1 NUMBER                 Running object number                                     
#   2 MAG_AUTO               Kron-like elliptical aperture magnitude                    [mag]
#   3 X_IMAGE                Object position along x                                    [pixel]
#   4 Y_IMAGE                Object position along y                                    [pixel]
#   5 X_WORLD                Barycenter position along world x axis                     [deg]
#   6 Y_WORLD                Barycenter position along world y axis                     [deg]
#   7 A_WORLD                Profile RMS along major axis (world units)                 [deg]
#   8 B_WORLD                Profile RMS along minor axis (world units)                 [deg]
#   9 THETA_WORLD            Position angle (CCW/world-x)                               [deg]
#  10 FWHM_WORLD             FWHM assuming a gaussian core                              [deg]
#  11 ELONGATION             A_IMAGE/B_IMAGE                                           
#  12 ELLIPTICITY            1 - B_IMAGE/A_IMAGE                                       
         1 -11.3683      4.6036     37.6811   1.0663244754e+02   6.7784692792e+01    0.5423929    0.3708614  80.29  0.003127999    2.628    0.619
         2 -10.5446    203.3909     23.5284   4.3298455519e+01   3.1515212732e+01    0.3759762    0.1745753 -63.77  0.001289087    2.792    0.642
         3 -10.6565    132.7533     23.2449   5.4231696373e+01   4.9301150719e+01    0.6325923    0.2528569 -37.88  0.002496787    2.647    0.622
         4  -9.7828      5.1274      8.3839   9.5614124422e+01   7.3012135694e+01    0.2325988    0.1532201  23.00  0.001618573    1.758    0.431
         5 -12.0915      5.2256     15.7186   9.8717015672e+01   7.1792341811e+01    0.5435966    0.4124211 -71.03  0.002098594    2.069    0.517
         6 -10.6161     26.6679     21.7384   8.9976168621e+01   6.9020520617e+01    0.3762053    0.1826459 -25.24   0.00192025    2.117    0.528
         7 -11.6010    166.4271     18.0658   4.6596954385e+01   4.1428592875e+01    0.3984134    0.3269648 -77.00 0.0003802406    1.246    0.198
         8 -10.8285     16.2149     17.5598   9.3531478288e+01   7.0670378524e+01    0.4331776    0.2441028 -22.56  0.002605144    1.609    0.379
         9 -10.5998     67.9657     15.3166   6.8999974692e+01   6.4153498152e+01    0.3933503    0.2192097  29.76 0.0006477993    1.762    0.432
        10  -9.9025     45.8808     15.8880   7.8201463249e+01   6.7591973391e+01     0.333552    0.2008542  -6.60  0.001818005    1.811    0.448
        11 -10.7112    115.6879     14.6484   5.4783059020e+01   5.4310773276e+01    0.4935345    0.2831844  42.72  0.001892761    1.603    0.376
        12 -10.5803    179.9316     13.3654   4.3366395744e+01   3.8508147291e+01    0.3074948    0.1955173 -67.72  0.001071646    1.722    0.419
        13 -10.7920    175.1407     10.9354   4.3279189971e+01   3.9966596212e+01    0.3964069    0.2498798  60.13  0.001412267    1.443    0.307
        14 -10.4662    148.4186     12.3123   4.7588651437e+01   4.6576195266e+01     0.374431    0.1787264  48.43  0.001642977    1.971    0.493
        15 -10.9396    133.0623     12.7410   5.0452352590e+01   5.0343482578e+01    0.2158634    0.1994718 -20.14 0.0003119707    1.192    0.161
        16 -10.0012     32.2672     12.1968   8.2789429729e+01   6.9874460434e+01    0.1896466    0.1647028 -15.25 0.0006029361    1.276    0.217
        17 -10.0438     17.7641      1.6476   8.5014473059e+01   7.2940665092e+01    0.1958361     0.138888  16.62  0.001100674    1.375    0.273
        18 -10.6770     24.8879      6.7517   8.3819939328e+01   7.1485590562e+01    0.2325208    0.1522865 -37.97 0.0007969289    1.550    0.355
        19 -11.2743     14.6019     10.1642   9.1064357107e+01   7.1991819769e+01    0.3808241    0.2135526 -21.92  0.001212065    1.572    0.364
        20 -11.5869     20.4180      6.4739   8.6064796466e+01   7.1996169396e+01    0.4299319    0.1931719 -34.02  0.002391297    1.870    0.465
        21 -10.9709    109.2857      7.2017   5.3338678693e+01   5.6510185468e+01    0.5310239    0.3140791  65.74  0.001908455    1.715    0.417
        22 -10.1911    103.7787      6.9336   5.4526703612e+01   5.7781692279e+01    0.4896184    0.3003103 -32.99  0.002581456    1.811    0.448
        23 -11.2852    204.1953      7.8546   3.9181494441e+01   3.3064227482e+01    0.2968582    0.2709825  50.09  0.001160903    1.291    0.226
        24 -11.8896    193.5103      6.1625   3.9826752575e+01   3.5853323442e+01    0.6854068    0.3758755  52.40  0.003366508    1.893    0.472
        25 -10.5744    120.8915      8.0302   5.1142056250e+01   5.3726732406e+01    0.3431194    0.2594751  48.07  0.001356129    1.160    0.138
        26  -9.3977    128.1772      8.1620   4.9747054935e+01   5.1967189130e+01    0.1709287    0.1499625 -87.22 0.0002600766    1.262    0.208
        27  -8.9428     74.2704      8.3274   6.3542862832e+01   6.3786681258e+01    0.1306481   0.08354406  17.00 0.0004232878    1.579    0.367
        28  -9.7809     47.0175      8.3792   7.4007513138e+01   6.8411059555e+01    0.2272598   0.09564608  33.27  0.001090627    2.331    0.571
        29  -9.5006    138.9194      6.9490   4.7380056643e+01   4.9448268058e+01    0.2037907    0.1352911  33.46            0    1.621    0.383
        30 -10.0762    170.5036      6.4818   4.2573568770e+01   4.1572005552e+01    0.2592166   0.09182781  58.18 0.0009555922    2.376    0.579
        31 -10.3332     87.1625      6.1927   5.8586570685e+01   6.1436816252e+01    0.2611587    0.1610436  57.00 0.0008283396    1.621    0.383
        32  -9.6463     61.6340      4.9884   6.6386387704e+01   6.6438252462e+01    0.2984631    0.1055884 -27.93  0.001314488    2.770    0.639
        33  -9.5509    247.5478      4.9840   3.4937104280e+01   2.3400534415e+01     0.171315    0.1082934 -36.80 0.0003773218    1.532    0.347
        34  -9.5452    236.1905      3.8041   3.5495560835e+01   2.6018080815e+01    0.1581733    0.1424646  59.96  0.001069625    1.375    0.272
        35  -9.5333    208.8555      3.8085   3.7732365166e+01   3.2354266575e+01    0.1893794    0.1292691 -70.66  0.001062242    1.360    0.265
        36 -10.9403    160.1397      2.9899   4.2880752275e+01   4.4500197543e+01    0.3541486     0.264447  55.11  0.001027608    1.244    0.196
        37 -10.8310     38.1293      2.4807   7.4963326175e+01   7.0396613185e+01    0.2479652    0.2084996 -21.52 0.0005209001    1.370    0.270
        38 -10.2384     30.9401      3.4030   7.8953527181e+01   7.1225438323e+01    0.1916396    0.1418382 -34.50 0.0005557978    1.537    0.349
        39 -10.7951    147.9580      3.3625   4.4731948580e+01   4.7519360040e+01    0.4105941    0.3301516 -72.96  0.002392011    1.347    0.257
        40 -11.8658    216.7919      2.0374   3.6615160989e+01   3.0649631558e+01    0.3022602    0.1921436  83.40  0.000780914    1.415    0.293
        41 -10.7394     49.3575      2.2196   6.9832074021e+01   6.8768533893e+01    0.2787168    0.1512424  34.22  0.000498639    1.667    0.400
        42  -9.4622     13.3198      3.3030   8.8402911662e+01   7.3132404039e+01    0.1167056   0.06623395 -14.78 0.0002901366    1.628    0.386
        43 -10.0222    165.0261      8.0135   4.3749837633e+01   4.2807749417e+01    0.2725976     0.186746 -41.29  0.001344302    1.545    0.353
        44 -10.6698    180.5226      1.9033   4.0073217804e+01   3.9486541002e+01    0.2826974    0.1797745  72.19  0.001067277    1.380    0.275
        45  -9.8796    123.8443      2.0352   4.8332795395e+01   5.3541636146e+01    0.3188164    0.1805138  78.81  0.001495439    2.035    0.509
        46 -10.6074    115.6901      2.0554   4.9938577181e+01   5.5471665252e+01    0.2306794    0.1667234  55.35  0.000370045    1.198    0.166
        47  -9.5556     88.5092      1.7428   5.6235717103e+01   6.1558430091e+01    0.3660385    0.1228033  46.73  0.001538855    2.409    0.585
        48  -9.8357     81.8609      2.0252   5.8244916292e+01   6.2905342788e+01    0.2207493    0.1613344  44.05  0.001084706    1.209    0.173
        49 -11.0219     74.9653      1.7735   6.0231272682e+01   6.4296009141e+01    0.4795551    0.1547904  52.69  0.001954932    2.774    0.639
        50  -8.8509    229.7100      1.6929   3.5510105178e+01   2.7699164557e+01    0.1130404   0.09255075  46.62 0.0002539197    1.576    0.365
        51 -12.1494     28.4720    131.9812   1.1621281028e+02   4.4864123062e+01    0.2836448    0.2545985  21.36   0.00189471    1.401    0.286
        52 -11.1913    115.8873    248.7491   1.1017753696e+02   8.1458613503e+00    0.2374497    0.1966852  61.91  0.001316631    1.125    0.111
        53 -12.5935    235.1437    129.8442   6.5126895787e+01   7.6371041145e+00    0.6146585    0.4198212 -50.19  0.002845482    1.579    0.367
        54 -11.4459    233.5170    121.5378   6.3491408479e+01   9.3817661695e+00    0.5296261    0.3136805 -67.22  0.001976613    3.332    0.700
        55 -10.9749    247.5222    123.0190   6.1599441945e+01   6.3838330961e+00     0.263335     0.210634 -60.17  0.001108062    1.473    0.321
        56 -11.3760    243.9745    124.5013   6.2484968164e+01   6.8184061209e+00    0.3087592    0.2383836  65.50  0.000972178    1.651    0.394
        57 -12.4908    239.0208    121.8260   6.2663851483e+01   8.2328426521e+00     0.539681    0.3754295 -35.45  0.002805189    1.285    0.222
        58  -9.3092    218.1151    131.8032   6.8547093183e+01   1.0728833738e+01    0.1994466    0.1637222  -5.15 0.0003605395    1.315    0.240
        59  -9.3593     61.5729    131.4401   1.0685947712e+02   4.1394381852e+01    0.1386357    0.1223824 -74.24 8.251626e-05    1.004    0.004
        60  -9.1318     20.3338    131.2935   1.1834117321e+02   4.5722259061e+01    0.1245959   0.08181166 -46.72 0.0005787956    1.639    0.390
        61 -10.5773     42.8816    131.4016   1.1213710280e+02   4.3596227729e+01    0.3684225    0.1652855 -52.80   0.00165548    2.055    0.513
        62 -10.3392     34.0312    129.0280   1.1427544276e+02   4.5063455178e+01    0.2019897    0.1660472 -68.07 0.0005862541    1.073    0.068
        63  -9.4562     30.2586    125.3573   1.1482608569e+02   4.6301040216e+01    0.1328762   0.08092321 -49.37 0.0002307459    1.619    0.382
        64 -11.0156    229.1894    122.9633   6.4544156898e+01   1.0014829148e+01     0.419917    0.2916144 -73.52  0.001875288    2.305    0.566
        65 -11.3015    223.4971    117.8142   6.4303031161e+01   1.2098274836e+01    0.6284161    0.2701395 -38.73  0.001511119    2.126    0.530
        66 -11.4463      7.0406    123.1772   1.2103685476e+02   4.8611565257e+01    0.3218947    0.1593576  62.63  0.001618616    2.367    0.578
        67 -10.8468      2.4953    122.9758   1.2225066601e+02   4.8942523758e+01    0.2001945    0.1670037 -65.42 -0.0001858845    1.175    0.149
        68  -9.1997    193.8900    121.7871   7.0780525116e+01   1.7823104261e+01     0.195344    0.1751725 -76.52 0.0002753268    1.274    0.215
        69  -9.1185    123.5147    121.0119   8.7162670500e+01   3.3532631727e+01    0.1967508    0.1363263 -78.65 6.278418e-05    2.058    0.514
        70 -11.9478     21.5922    119.4368   1.1649514344e+02   4.8457386351e+01    0.4251253    0.2957482  80.35  0.002503467    1.471    0.320
        71 -10.0224    206.0322    119.0439   6.7742238510e+01   1.5645544218e+01    0.2449093    0.1829127 -68.59  0.001130016    1.743    0.426
        72 -10.8328     54.7315    118.0508   1.0644878840e+02   4.5522326773e+01    0.2141453    0.1997579  45.57 0.0002392925    1.202    0.168
        73 -11.1036      9.9000    117.8238   1.1963710812e+02   4.9685928881e+01    0.2100542    0.1983524 -80.70 0.0009561845    1.210    0.173
        74 -10.7453    232.7785    117.0659   6.2573204549e+01   1.0298986035e+01      0.30685    0.2165189  51.68 0.0009098002    1.570    0.363
        75 -10.9059      2.8044    116.0244   1.2143600119e+02   5.0547632967e+01    0.2789954    0.1822607  19.79  0.001134705    1.974    0.494
        76 -10.2312    249.9067    115.0189   5.9440482843e+01   7.2372986619e+00    0.2232773    0.2040032  50.38  0.001019336    1.258    0.205
        77  -9.6922     61.7823    114.8424   1.0368411760e+02   4.5426639217e+01    0.1920325    0.1566745  84.95 0.0004523315    1.335    0.251
        78 -11.9524    243.6849    110.0506   5.9237967107e+01   9.2739962591e+00    0.5424315    0.3097117 -21.54 0.0008810443    2.088    0.521
        79 -10.1550     33.6511    114.2355   1.1216100514e+02   4.8679303172e+01    0.1777542    0.1663578 -87.59 0.0004196113    1.136    0.120
        80 -10.5533     31.2941    111.0070   1.1235658340e+02   4.9670101838e+01      0.28294     0.190705  48.47  0.001152535    1.700    0.412
        81 -11.2651     13.8854    113.6228   1.1796769449e+02   5.0411273389e+01    0.3152975    0.1472309  24.35  0.001523865    2.583    0.613
        82 -10.4068      4.0319    111.5506   1.2058279849e+02   5.1522021495e+01    0.1981514    0.1272579 -73.17 0.0005289293    1.204    0.169
        83 -10.8046    232.9793    111.0008   6.1119115944e+01   1.1295711755e+01    0.2487073    0.2179952 -87.73 0.0007913281    1.360    0.264
        84 -10.3692    229.3541    107.7182   6.0923827735e+01   1.2618316191e+01    0.2596697    0.2059542 -65.46   0.00135256    1.458    0.314
        85  -9.2095     62.9869    110.9692   1.0251385640e+02   4.6209296909e+01     0.172006    0.1428684 -60.19 0.0009602204    1.075    0.070
        86 -10.9160     19.9944    109.3749   1.1555789165e+02   5.0982391299e+01    0.2624059    0.1739371 -43.64  0.001530652    1.537    0.349
        87 -10.4096    250.0856    107.6981   5.7759436901e+01   8.3938042123e+00    0.2534876    0.1820576 -28.36 0.0005914187    1.299    0.230
        88 -10.2030     37.1366    107.3550   1.0991734599e+02   5.0010050230e+01    0.2523904     0.147533 -55.47  0.001312356    1.441    0.306
        89  -9.9156     48.0333    103.5811   1.0572060048e+02   4.9795097044e+01    0.2116637    0.1547675 -60.19 0.0002852815    1.179    0.152
        90 -10.5664    174.9347    102.9433   6.9874419036e+01   2.5883704847e+01    0.2241348    0.2198073 -33.70  0.001185674    1.013    0.013
        91 -10.8826    102.2343    101.6021   8.8188478018e+01   4.2166913659e+01    0.4475615    0.3052477  -4.70 0.0005811833    2.410    0.585
        92 -10.5962    235.3434     92.5760   5.6387431218e+01   1.3893698213e+01    0.9521561    0.4009337  71.84  0.002676256    5.856    0.829
        93 -11.7782    243.0047     98.2623   5.6611880632e+01   1.1352620821e+01     0.431342    0.2841076 -41.67  0.001548572    1.344    0.256
        94 -11.9924    246.5192     97.4892   5.5932642399e+01   1.0760507184e+01    0.6696556     0.265863 -42.55  0.002629353    2.220    0.550
        95 -10.5453    225.7433     99.8936   5.9621734193e+01   1.4737839809e+01     0.430904    0.2802651 -69.57  0.001870974    2.209    0.547
        96  -9.0022     80.5636    101.5756   9.4829154157e+01   4.5917470412e+01    0.1440037    0.1343325 -61.63 3.270799e-05    1.054    0.051
        97  -9.5252    162.1835     99.7935   7.1843377766e+01   2.9531873388e+01    0.2044538    0.1823931   7.82 0.0002870387    1.257    0.204
        98 -10.1951     57.0808     99.7351   1.0195326990e+02   4.9655736602e+01    0.2379968     0.174632 -57.45 0.0004344237    1.202    0.168
        99 -10.0558    110.2029     99.2362   8.5201279383e+01   4.1165544629e+01    0.2221611    0.2058528  -9.46 0.0005728936    1.142    0.124
       100 -10.2225     50.7432     98.9758   1.0386929073e+02   5.0589766567e+01    0.1966163    0.1544844 -57.17   0.00041922    1.104    0.094
       101  -9.7862     42.2492     98.9715   1.0667123093e+02   5.1509944548e+01    0.1870315    0.1528869 -59.73 0.0003434224    1.043    0.041
       102 -10.1375      8.9369     98.9791   1.1748297885e+02   5.4173087861e+01    0.2088256    0.1696079  47.62 0.0005246489    1.473    0.321
       103 -10.4287      3.9671     98.0385   1.1891576672e+02   5.4672430254e+01    0.2093275    0.1773067  20.05  0.001482058    1.508    0.337
       104 -10.5047    106.5721     97.6236   8.5817924211e+01   4.2238418976e+01    0.2910564     0.141984 -43.44 0.0008209933    2.002    0.501
       105  -9.0438     23.4844     95.5112   1.1222438028e+02   5.4000950863e+01    0.1283477    0.1045597 -62.84 2.496094e-05    1.005    0.005
       106 -10.4036     51.8556     93.9007   1.0236524205e+02   5.1660009216e+01    0.1755043    0.1513789 -83.72            0    1.264    0.209
       107 -10.2178     46.6641     93.9919   1.0414044787e+02   5.2222407320e+01    0.2096125    0.1939324  12.75 0.0005072144    1.240    0.194
       108 -10.1395     21.1821     87.7807   1.1160066060e+02   5.5975481328e+01    0.1721917    0.1639846  77.99 0.0003942926    1.232    0.188
       109 -10.9026     28.6842     92.3616   1.0990214270e+02   5.4325484014e+01    0.3892874    0.2063363  46.90  0.001581048    2.390    0.582
       110 -11.1581     29.8535     84.9806   1.0801122568e+02   5.5942815422e+01    0.6115488    0.2890551 -27.07  0.001752576    3.121    0.680
       111  -9.9990    232.0106    101.9272   5.9121907886e+01   1.3042102211e+01    0.2712417    0.2144066  65.97 0.0004427996    1.449    0.310
       112 -10.1971    104.3145     90.9982   8.4615118246e+01   4.4143014058e+01     0.257733    0.2144145  51.24 0.0001352893    1.292    0.226
       113  -9.5209    250.5204     89.9890   5.3663311901e+01   1.1149578291e+01    0.2137924    0.1189041 -37.46 0.0005699205    1.556    0.358
       114  -9.5661    157.7157     90.0678   7.0139392066e+01   3.2525756397e+01     0.216452    0.1963173 -33.12 0.0003481728    1.110    0.099
       115 -10.1522      7.0616     89.1962   1.1664047247e+02   5.6546364765e+01    0.2008711       0.1607 -85.47 0.0004231951    1.230    0.187
       116 -10.3663    222.8902     87.3545   5.6995424773e+01   1.7496857893e+01    0.2515667    0.1956066 -35.39 0.0003745831    1.213    0.175
       117 -10.0132    123.7807     87.5518   7.7983266344e+01   4.0861847314e+01    0.3822227    0.2403255 -75.20  0.001319472    3.142    0.682
       118  -9.8758     67.0021     87.8871   9.5736344273e+01   5.1110100722e+01    0.2606317    0.1856347 -54.00  0.000845218    1.290    0.225
       119 -10.0337     43.5333     88.0566   1.0387961415e+02   5.3941575561e+01    0.2316939    0.1787877  51.42 0.0007416496    1.570    0.363
       120  -9.9770    177.4156     86.5078   6.4860949529e+01   2.8423185186e+01    0.3324183    0.2121904 -55.92  0.001390699    1.791    0.442
       121  -9.1393     94.1462     86.8347   8.6532793654e+01   4.6964511133e+01    0.1945062    0.1662004  -7.68            0    1.288    0.223
       122  -9.1392     54.3088     86.3270   9.9703484588e+01   5.3126865163e+01    0.1432868   0.09414262 -30.95  0.000413774    1.657    0.396
       123  -9.7646     17.1855     85.1149   1.1249328382e+02   5.6869148993e+01    0.2274357    0.1426746 -69.65 0.0008641019    1.369    0.270
       124 -10.1881     87.5251     87.5151   8.8836116422e+01   4.7985387752e+01    0.4813376    0.1382826 -49.46  0.001498071    3.295    0.697
       125 -10.0922    155.0460     85.0227   6.9297572027e+01   3.4145423954e+01    0.2322421    0.2240078  30.94  0.000334857    1.058    0.055
       126  -9.3068    129.6856     85.6884   7.5821666695e+01   3.9939241108e+01    0.1580705    0.1233912   4.97  0.000353503    1.635    0.388
       127 -11.0714     50.1453     83.2325   1.0038993173e+02   5.4325268542e+01    0.5594917    0.3131786  -7.81  0.002011247    3.199    0.687
       128 -10.2881    193.9296     84.1056   6.1020835256e+01   2.4839227377e+01    0.2236275    0.2108856 -63.91 0.0003493676    1.040    0.038
       129 -10.5211    148.0774     82.8229   7.0293328629e+01   3.6240089261e+01    0.2630675    0.2226934 -28.10 0.0002339297    1.223    0.183
       130 -10.5902     73.3911     81.0271   9.1657434294e+01   5.1711942302e+01    0.5155914    0.2166419 -41.30  0.001986169    2.360    0.576
       131  -9.3889      1.8328     92.8740   1.1889119589e+02   5.5974679505e+01    0.1542811    0.1218873  88.02 0.0007533546    1.269    0.212
       132  -9.7394    239.3333     80.8540   5.3037915918e+01   1.4934795551e+01    0.3021511   0.09939162 -41.64  0.001095615    2.612    0.617
       133 -10.5349    249.2808     79.2136   5.1353547062e+01   1.3091132098e+01    0.2600794    0.2110387  87.62 0.0007282477    1.386    0.279
       134  -9.5498      2.0684     80.0755   1.1690729612e+02   5.8878763604e+01    0.1815189    0.1270641  70.43  0.001128177    1.747    0.428
       135 -10.6642    176.8607     75.3944   6.1839021958e+01   3.0557901222e+01     0.468554    0.2314245  60.86  0.001774357    2.180    0.541
       136 -10.2189    170.9302     73.2140   6.2394340955e+01   3.2412533566e+01    0.3741268    0.2214317  69.49  0.001492394    2.056    0.514
       137  -9.5269     82.2267     75.7294   8.7073067457e+01   5.1438442048e+01     0.316727    0.1989142 -10.89   0.00128325    2.549    0.608
       138 -10.4473     63.4445     75.6198   9.3566860166e+01   5.4340456984e+01    0.3723056    0.2524678  40.47  0.001530718    1.667    0.400
       139 -10.2771     52.9745     70.1524   9.5803113457e+01   5.6888747646e+01    0.2599883    0.1731246 -56.06 0.0006007398    1.443    0.307
       140 -10.1635    216.8151     73.9435   5.4557566264e+01   2.1101791667e+01    0.3390268    0.1972629 -37.00  0.001012139    1.610    0.379
       141 -11.1346     16.9443     73.9622   1.1039145725e+02   5.9416025151e+01    0.2331096    0.1852876 -47.97 0.0003834896    1.071    0.066
       142 -10.1024     93.8750     72.3302   8.2165266650e+01   5.0072559400e+01    0.4978328    0.2271759 -29.73  0.001689305    3.125    0.680
       143 -10.1716     89.2823     72.3925   8.3676638296e+01   5.0902968588e+01    0.3171925    0.1976079 -49.30  0.001069645    1.617    0.382
       144  -9.4680     68.9622     73.6658   9.1021913578e+01   5.3972932253e+01    0.1869357    0.1704061 -22.82 0.0006877813    1.043    0.041
       145  -9.4496     45.0030     73.2461   9.9659799164e+01   5.7137307841e+01    0.1777983     0.151232 -42.95 0.0005501726    1.006    0.005
       146 -11.7769    222.6257     71.0748   5.2983052925e+01   2.0212274159e+01    0.3560728    0.2757903 -64.80 0.0005177919    1.319    0.242
       147 -11.9505    199.7972     71.5802   5.6631731172e+01   2.5551602892e+01    0.2777525    0.2559969  75.29 0.0002468655    1.096    0.087
       148  -9.2212    137.8109     71.8799   6.9463184861e+01   4.0744999469e+01    0.2058402     0.181436 -78.88  0.000432929    1.304    0.233
       149 -10.3768    230.6667     70.7257   5.1779694080e+01   1.8436307589e+01    0.2651221    0.2520661 -24.34 0.0009400126    1.164    0.141
       150 -11.5349     79.7342     69.8567   8.6068884623e+01   5.3077688832e+01    0.2397476    0.2211283 -15.12 0.0002820462    1.031    0.030
       151 -11.9040    245.4848     64.9334   4.8523559697e+01   1.6063747988e+01    0.4771018     0.246717 -40.35  0.001218364    1.668    0.401
       152 -11.7546     52.9797     75.1336   9.7220441485e+01   5.5804318083e+01    0.2425285    0.2198711 -17.50            0    1.117    0.105
       153 -10.5601     45.4244     68.7504   9.8256017450e+01   5.8071169962e+01    0.2911388    0.1635305 -32.32 0.0003634469    1.867    0.464
       154  -9.2146     10.5521     69.2271   1.1182529006e+02   6.0861723003e+01    0.1755331   0.08205141 -53.55 0.0004493576    1.593    0.372
       155 -11.5949      6.2894     59.2673   1.1138116949e+02   6.3258555607e+01    0.4189152    0.2921453  50.92 0.0009195165    1.986    0.497
       156 -11.5143      1.2854     65.6474   1.1467158925e+02   6.2117808733e+01    0.5281822    0.1729936 -72.85  0.002194771    3.049    0.672
       157 -10.9450      1.7962     61.9283   1.1374463178e+02   6.2902344344e+01    0.2708773    0.1840689 -47.49 0.0006992288    1.175    0.149
       158 -10.2468    235.4912     66.5385   5.0133749525e+01   1.8003413290e+01      0.23249    0.2129186 -71.86 9.069567e-06    1.070    0.065
       159  -9.8873    143.7283     66.2610   6.6248158246e+01   4.0338956646e+01    0.2673827    0.1843681 -39.11 0.0009211523    1.462    0.316
       160  -9.8208    105.5014     66.6572   7.6670186837e+01   4.8903862917e+01    0.2997538    0.1749462  39.60  0.001305642    1.753    0.430
       161  -9.8700     75.1731     66.1226   8.6444080983e+01   5.4584376913e+01    0.2074938    0.1732262 -18.60  0.000271957    1.164    0.141
       162  -9.4455    187.0142     65.5370   5.7158347565e+01   2.9693684460e+01     0.229291     0.146886  62.70  0.001024616    1.585    0.369
       163 -11.4452     32.1265     64.6731   1.0230552726e+02   6.0282224130e+01    0.2924725    0.2284041   3.95  0.001149378    1.431    0.301
       164 -10.7138     31.4510     58.5319   1.0086469946e+02   6.1646545950e+01    0.2655499    0.1942791 -62.02 0.0002734959    1.397    0.284
       165  -9.9187     14.4730     64.6963   1.0931951710e+02   6.1620298569e+01    0.1961019     0.179826 -30.25 0.0008581741    1.192    0.161
       166 -10.4259    133.9068     63.5950   6.7790185472e+01   4.3156241367e+01    0.4375444    0.2731207  71.58 0.0009471499    2.255    0.557
       167 -10.1384     22.7499     63.3522   1.0569927032e+02   6.1340904004e+01    0.4364236    0.1759499 -29.28  0.001753208    3.405    0.706
       168 -10.7338     22.2823     57.1212   1.0425957576e+02   6.2703383699e+01    0.3359476    0.2279963 -72.29  0.001561882    1.700    0.412
       169  -9.2468    203.0105     62.9813   5.3814383845e+01   2.6150847519e+01    0.1764381    0.1590209  77.36 0.0003607319    1.108    0.098
       170 -10.7911    193.3896     62.3020   5.5172105720e+01   2.8626344849e+01    0.3383223     0.270229 -20.24 0.0009340506    1.417    0.294
       171  -9.0759     82.6420     62.2638   8.2552323920e+01   5.4096709981e+01    0.1333522     0.114075  78.75 0.0002877422    1.630    0.387
       172  -9.9003    214.9987     61.0397   5.1528487466e+01   2.3561628577e+01    0.2841131    0.1866788  64.52 0.0008082818    1.564    0.361
       173  -9.9536    150.2118     59.8108   6.2720232799e+01   3.9848455049e+01    0.2621981    0.2071028  73.69 0.0007533822    1.393    0.282
       174 -10.4724     70.7301     60.1115   8.6026303658e+01   5.6485294041e+01    0.2974864    0.1972022  45.71  0.001161695    1.768    0.434
       175  -9.4003     53.4990     60.5514   9.2660243443e+01   5.8836527380e+01    0.1345764     0.114788 -28.63 3.605538e-05    1.020    0.020
       176  -9.6684     16.3715     60.0201   1.0744779390e+02   6.2507056820e+01     0.172594    0.1248246 -56.33 0.0004523249    1.150    0.131
       177  -8.9722    250.3548     59.2964   4.6671016194e+01   1.5855064598e+01    0.1253174    0.1032739  21.97 0.0007033914    1.694    0.410
       178  -9.8766    200.0343     58.1712   5.2984709752e+01   2.7625879725e+01    0.2188183    0.1965591  23.89 0.0007626942    1.320    0.242
       179  -9.6271    187.1302     57.8519   5.4976750882e+01   3.0885102957e+01    0.2283157    0.1902367 -75.05 0.0005078054    1.250    0.200
       180  -9.5641    105.0534     57.6707   7.3729416187e+01   5.0646635435e+01    0.2212191    0.1916715 -30.58 0.0003458468    1.139    0.122
       181  -9.2769    106.4234     53.7412   7.1932335432e+01   5.1041727436e+01     0.208318    0.1362707 -22.39 0.0009508407    1.691    0.409
       182  -8.9967     60.6780     58.3228   8.9164222535e+01   5.8326733436e+01    0.1260357    0.1087948  89.60 0.0007046263    1.678    0.404
       183  -9.7843    219.0843     56.6950   4.9860540515e+01   2.3248800486e+01    0.2589059    0.1686563  61.54 0.0003707039    1.574    0.365
       184 -11.4439    223.9048     54.1623   4.8596880015e+01   2.2491546103e+01    0.5667342    0.3492255 -84.79  0.002601675    2.026    0.506
       185 -10.7965    168.4266     57.2195   5.8159064949e+01   3.5701895255e+01    0.3697982    0.2163495  72.68  0.001505597    2.042    0.510
       186 -10.1082    118.6900     54.9838   6.8880722135e+01   4.8148484766e+01    0.3156182    0.2013945 -28.24  0.000702346    1.650    0.394
       187 -10.1380    122.2562     52.3907   6.7024222722e+01   4.7765223307e+01    0.3230939    0.1586385  41.38  0.001023125    2.100    0.524
       188  -9.6444     44.8195     55.4367   9.4449926966e+01   6.0918256590e+01    0.2559521    0.1400227 -24.29 0.0009903838    2.196    0.545
       189  -9.5656    244.1125     55.1318   4.6412743647e+01   1.7794938664e+01    0.1848907    0.1745171 -21.59 0.0004517838    1.252    0.201
       190  -9.3183    175.2991     55.3134   5.6311451368e+01   3.4260668546e+01    0.1493669     0.115451  24.76 0.0005014575    1.607    0.378
       191 -10.4274    145.3512     53.4644   6.1768688218e+01   4.2073330845e+01    0.4745159    0.2393319 -21.17  0.001736832    2.682    0.627
       192  -9.9299     93.3079     54.3521   7.6212923681e+01   5.3599045627e+01    0.2567164    0.1610329 -27.09 0.0006789505    1.672    0.402
       193  -9.7060    191.8277     53.6663   5.3036070202e+01   3.0346168607e+01    0.2658801    0.1981056   4.84  0.001245758    1.900    0.474
       194  -9.1994    136.5443     56.4822   6.4804440186e+01   4.3733731132e+01    0.1494735    0.1433133  27.21 0.0001313015    1.026    0.026
       195  -9.2670     52.6133     53.7969   9.0768528274e+01   6.0299877906e+01    0.1768111    0.1166997 -53.50 0.0004727844    1.584    0.369
       196 -10.4644     30.3037     52.8843   9.9667697150e+01   6.2916521261e+01    0.3457243    0.1992227  -9.71  0.001771916    2.200    0.545
       197 -10.7810     42.0179     51.7413   9.4384405019e+01   6.1970359329e+01    0.3362168    0.1647894 -42.74 0.0007800171    1.729    0.422
       198  -9.3095    199.6294     51.8338   5.1334786651e+01   2.8677155171e+01    0.2019134    0.1236317 -44.69 0.0003632781    1.572    0.364
       199  -8.9963     83.5436     52.4752   7.8783196024e+01   5.5760916621e+01    0.1412802    0.1260814  -7.29 7.664818e-05    1.026    0.026
       200  -9.4467     60.8124     51.8557   8.6867825833e+01   5.9560271237e+01    0.1622459    0.1601971 -52.46 0.0004897594    1.285    0.222
       201  -9.5211    235.2997     51.5545   4.6578336263e+01   2.0257161618e+01    0.1721227    0.1252618  56.92 0.0009315099    1.511    0.338
       202 -11.7264      6.7198     50.1469   1.0904929690e+02   6.5157984535e+01    0.4353992     0.302996  14.47  0.002901702    1.712    0.416
       203  -9.9658     10.4036     31.6195   1.0191616510e+02   6.8610899167e+01    0.2752318    0.1432605  22.27  0.001615644    2.184    0.542
       204  -9.4703    201.5167    249.5198   9.4218771639e+01  -5.1950888219e+00    0.1198338   0.09336641  24.21 0.0001200277    1.011    0.011
       205 -10.0335      5.0744     31.7867   1.0460407210e+02   6.8898317166e+01    0.2790214    0.1245223 -33.02  0.001376009    1.955    0.489
       206 -11.5606     12.3543     44.0470   1.0489734124e+02   6.6075391678e+01    0.3904918    0.1500482 -47.04 0.0007041328    1.904    0.475
       207 -11.8681     14.4617     39.8273   1.0265137310e+02   6.6771615887e+01    0.5045117     0.262578 -58.72  0.001691719    1.780    0.438
       208  -9.4476    174.7552     50.3983   5.4959782375e+01   3.5142456215e+01    0.2087703    0.1316884  52.45 0.0009421808    1.554    0.357
       209 -10.6906     94.9840     49.3649   7.3855772563e+01   5.4131698191e+01    0.4498056    0.2238152  36.56  0.001463214    2.125    0.529
       210 -10.2348     65.5754     49.4773   8.4177428269e+01   5.9298168370e+01    0.3090416    0.1827116 -29.85 0.0007071668    1.672    0.402
       211 -10.4017     67.6845     44.3488   8.1448533144e+01   5.9885617153e+01    0.2365652    0.1989995 -10.15 0.0004943108    1.068    0.064
       212  -9.2920    181.2117     49.4068   5.3560339586e+01   3.3651454306e+01    0.2049838    0.1382041  77.24 0.0006947865    1.604    0.376
       213  -9.1052    244.4789     48.4962   4.4843019363e+01   1.8654250260e+01    0.1340093    0.1145564 -59.27 0.0001865812    1.002    0.002
       214 -10.4659    238.1379     40.6407   4.3695312382e+01   2.1132798741e+01    0.4458577    0.1857535 -35.09  0.001939184    2.182    0.542
       215 -10.2915    241.0017     46.7177   4.4804768277e+01   1.9665129405e+01    0.2611484    0.2229087 -53.18 0.0004657186    1.054    0.051
       216 -10.4775    242.1565     43.6156   4.3965056883e+01   1.9836712932e+01    0.3730389    0.1860147  84.47  0.001621031    2.555    0.609
       217  -9.6534    203.1968     47.1424   4.9560604753e+01   2.8475597136e+01    0.4340836     0.183343  36.27  0.001114433    6.498    0.846
       218  -9.4089    152.9489     48.4987   5.8536743564e+01   4.0944212617e+01    0.2311375     0.141837  58.19  0.001024945    1.566    0.361
       219 -10.1284    130.8584     46.5267   6.2818125483e+01   4.6667225594e+01    0.3140148    0.2179666   1.70  0.001414494    1.917    0.478
       220 -11.0952    124.3234     45.6312   6.4125292591e+01   4.8347502652e+01    0.4123688    0.3634063  14.24  0.002262503    1.161    0.138
       221  -9.6567     31.7817     47.7730   9.7417945269e+01   6.3805145586e+01    0.1440165     0.140227 -37.10 0.0006406592    1.291    0.225
       222  -9.9125    114.7590     46.4967   6.6955339747e+01   5.0405544722e+01    0.2416721    0.1930447 -23.50 0.0007019844    1.277    0.217
       223  -9.1885     46.5338     47.4802   9.1040207259e+01   6.2274837602e+01    0.1319101    0.1072117 -24.05 -2.473559e-05    1.050    0.048
       224  -9.5011     17.0219     47.2727   1.0374622577e+02   6.5116545467e+01    0.1614953    0.1353917 -31.84 0.0006246184    1.097    0.089
       225  -9.7094    236.0347     45.9192   4.5159572644e+01   2.0883999388e+01    0.1968513    0.1770733 -61.02 0.0004164579    1.058    0.055
       226 -12.1994     61.8654     44.2017   8.3629229686e+01   6.0808002741e+01    0.3245827    0.2277783 -38.62 0.0004513668    1.335    0.251
       227  -9.6282     42.3874     44.5671   9.1745043901e+01   6.3313740672e+01    0.1610345    0.1520187 -83.27  0.001063535    1.492    0.330
       228  -9.7865    102.6579     44.1728   6.9559106100e+01   5.3403033815e+01    0.2981752    0.1722743  25.54  0.001250249    2.214    0.548
       229  -9.4532     26.8495     44.1908   9.8409573164e+01   6.4957068312e+01    0.1714526    0.1129957 -33.41 0.0003451489    1.277    0.217
       230  -8.9068    149.2804     43.3581   5.7634445467e+01   4.2614509963e+01    0.1511531    0.1112005  21.60 0.0007014127    1.665    0.399
       231  -9.5930    142.9254     43.1951   5.8923372672e+01   4.4219919942e+01    0.3065656    0.1990107  74.39 0.0009822479    1.841    0.457
       232  -9.6547     53.0727     42.7934   8.6612916208e+01   6.2307277199e+01    0.1765126    0.1604932 -23.98 0.0003621969    1.165    0.141
       233  -9.3340     82.3010     42.2174   7.5339709219e+01   5.7738761766e+01    0.1851451    0.1171216 -40.25 0.0005481852    1.611    0.379
       234  -9.0469     32.6644     42.7294   9.5324962705e+01   6.4698310153e+01    0.1273029   0.07980531 -21.52 0.0006986177    1.596    0.374
       235  -9.8738     91.0439     41.0395   7.1967070909e+01   5.6262893313e+01    0.2076359    0.1881413  -5.64 0.0004177361    1.045    0.043
       236 -11.4658     41.0346     37.8175   8.9821493391e+01   6.4709792112e+01    0.5074143    0.2868211 -19.69  0.001289687    2.011    0.503
       237 -10.4960    228.0895     38.5268   4.4272212865e+01   2.3704487854e+01    0.3470374    0.2644787 -43.44 0.0008875489    1.225    0.184
       238 -10.2518    158.3113     38.6578   5.4354462155e+01   4.0990319016e+01    0.3713324    0.2420703 -58.34  0.001693005    1.824    0.452
       239 -10.2296    135.8458     36.1074   5.8066534513e+01   4.6945928015e+01    0.2987508    0.2269901  42.93 0.0004372881    1.266    0.210
       240 -11.1902    127.2538     39.5949   6.1268434229e+01   4.8539625193e+01    0.3020115    0.2486582  65.51 0.0007885534    1.275    0.215
       241  -9.9078    130.4798     36.1744   5.9299793061e+01   4.8239749538e+01    0.3082905    0.2027503  60.83  0.001474002    1.509    0.337
       242 -10.0322    250.5258     38.9615   4.2078748027e+01   1.8643987483e+01    0.2003415    0.1105811 -38.85  0.001027203    1.591    0.371
       243  -9.4641    165.8264     39.7798   5.3339917320e+01   3.8927498101e+01     0.198539    0.1612898 -62.80 0.0005085188    1.310    0.237
       244  -9.7445    223.0996     39.2099   4.4999202449e+01   2.4776673379e+01    0.1977274    0.1816725  61.58 0.0007303329    1.225    0.184
       245 -11.7138    103.6610     38.7470   6.7215279853e+01   5.4013273725e+01     0.244461    0.2219753  21.36 0.0003069132    1.017    0.017
       246  -9.6111    193.8292     38.4528   4.8526230822e+01   3.2004439503e+01    0.2564499    0.1363728  72.67 0.0009948703    1.944    0.486
       247 -10.0244    186.0490     36.4518   4.9089428121e+01   3.4229094718e+01    0.3286225    0.2426748  -7.88  0.001221985    1.759    0.432
       248  -9.9169    186.7489     31.0048   4.7450258087e+01   3.4753132941e+01    0.3266553    0.1999028 -39.35  0.001576437    1.625    0.385
       249 -10.7672    191.5872     28.3393   4.6048737962e+01   3.3866201738e+01    0.4642431    0.1975515  63.75  0.001049714    2.151    0.535
       250 -10.7499    176.0481     35.4443   5.0325116753e+01   3.6900546329e+01    0.4994678    0.3093548 -51.04   0.00233014    1.712    0.416
       251  -9.4405     86.0995     36.8534   7.1938633311e+01   5.7868112119e+01    0.1835685    0.1443084   7.17  0.001014927    1.272    0.214
       252 -10.7200    201.8667     33.6901   4.6159055930e+01   3.0630182588e+01    0.3527122    0.3005311  -1.70   0.00119828    1.492    0.330
       253  -9.6061    166.2148     35.0944   5.1835081818e+01   3.9452686375e+01    0.2320988    0.1812993  38.59 0.0007584172    1.387    0.279
       254  -9.5893    114.8578     35.2892   6.2818679554e+01   5.2026948510e+01    0.2218102    0.1813507  75.33   0.00117813    1.473    0.321
       255  -9.5286     58.1404     34.8811   8.1417539440e+01   6.2951074795e+01    0.1937772    0.1621803  -6.11 0.0002472699    1.033    0.032
       256  -9.7175     54.8219     33.1378   8.2052902946e+01   6.3720380543e+01    0.1801264    0.1593928 -10.99 0.0004087622    1.117    0.105
       257  -9.3415    147.2304     34.4730   5.5131629927e+01   4.4341112318e+01    0.2031677    0.1363782  77.34 0.0009377379    1.691    0.409
       258  -9.4965     83.4725     33.8823   7.1619270218e+01   5.8813165630e+01    0.1887244    0.1266932 -28.19 3.210843e-05    1.458    0.314
       259 -10.4342    153.2645     32.1440   5.3211079634e+01   4.3121283165e+01     0.302766    0.2688221  79.06  0.001278765    1.117    0.105
       260 -12.2912    107.7931     28.9331   6.2279188628e+01   5.4463034245e+01    0.4257079    0.3318056 -35.42  0.002347619    1.383    0.277
       261 -10.9970     74.6035     29.8829   7.3041082610e+01   6.1029952926e+01    0.4355996    0.4040813  -1.08  0.001444858    1.153    0.133
       262  -9.4499    118.2810     32.4474   6.0885897662e+01   5.1622516559e+01    0.2962274    0.1160223  49.29  0.001138165    2.300    0.565
       263  -9.8253    159.1705     30.0723   5.1487056241e+01   4.1883306465e+01    0.2602448    0.1796504 -50.48 0.0003799373    1.570    0.363
       264  -9.5769     32.1595     26.1907   8.9206493069e+01   6.7713500673e+01    0.4915361    0.1873257 -42.61  0.001523173    2.243    0.554
       265 -10.7788     24.1003     30.9155   9.4969914002e+01   6.7687270284e+01    0.5228271    0.2210883  20.93  0.002601166    2.653    0.623
       266 -10.7773     19.1427     29.0705   9.6685142097e+01   6.8442140635e+01    0.2523481    0.1835701  -6.89 0.0004227456    1.315    0.240
       267 -11.1075    221.2495     29.5664   4.2837389648e+01   2.6467402966e+01    0.2959619    0.2163316 -51.33 0.0004170495    1.250    0.200
       268 -11.1800    145.4271     28.8833   5.3626173226e+01   4.5498390230e+01    0.4044898    0.3471708  73.86  0.002259941    1.158    0.137
       269 -10.6597     48.2934     26.1674   8.1844629673e+01   6.5745724203e+01    0.2972587    0.2489587  62.16  0.001388365    2.016    0.504
       270 -10.3546    128.5869    247.5884   1.0764844696e+02   6.3937896112e+00    0.2368573    0.1393231  64.83  0.001170082    2.122    0.529
       271 -10.5154    207.8030     27.0591   4.3703219120e+01   3.0007958584e+01    0.3387874    0.2001015  78.98 0.0008412157    1.687    0.407
       272 -10.1903    181.8523     27.0057   4.7003944458e+01   3.6484932496e+01    0.2996763    0.2026358 -28.23 0.0009619273    1.602    0.376
       273  -8.9658     55.6936     28.6826   7.9808278148e+01   6.4301414878e+01    0.1323075   0.08755648  -3.75 0.0007029016    1.630    0.387
       274 -10.4699     20.6188    244.4868   1.2692704702e+02   2.1355824055e+01    0.1781123     0.126872  84.11 0.0002784322    1.201    0.167
       275  -9.5767     99.8905     26.8419   6.3649117725e+01   5.6457100990e+01    0.2051693    0.1665073  23.70 0.0002701584    1.159    0.137
       276  -9.2898    177.4153     26.0743   4.7369700906e+01   3.7722916866e+01    0.2066742    0.1383284 -27.77  0.001026844    1.624    0.384
       277 -10.2410    165.5995     26.0077   4.9149318553e+01   4.0738994274e+01    0.3264056    0.1961365  87.02   0.00144069    1.995    0.499
       278 -11.3372    153.6641     23.0668   5.0206405035e+01   4.4111590203e+01    0.3110563    0.2644595 -24.85 0.0003092001    1.287    0.223
       279  -9.7995    152.5179     18.5346   4.8936704240e+01   4.4903083893e+01     0.249389    0.1773385 -43.46  0.001290583    1.512    0.339
       280 -10.8489    142.7426     22.8726   5.2118591334e+01   4.6877447311e+01    0.2291248    0.2233101  66.66 0.0002607653    1.063    0.059
       281  -9.4693    139.4084     19.7272   5.1679364489e+01   4.8056036115e+01    0.1981306    0.1395514 -25.86   0.00102428    1.542    0.352
       282  -9.7228    202.3914    243.4106   9.3150231986e+01  -4.5331261657e+00     0.219224   0.09839633 -24.43 0.0009541541    3.467    0.712
       283  -9.0127      1.3043    243.7028   1.3002964480e+02   2.3438227275e+01    0.1091164   0.05001875  64.08 0.0002094912    1.584    0.369
       284 -10.8344      1.6761     22.2904   1.0314678433e+02   7.0845361573e+01    0.2212626    0.1386435 -56.44 0.0004693182    1.507    0.336
       285  -9.7373    247.7979     25.2101   3.9283230626e+01   2.0993754136e+01    0.2377695   0.09611081 -61.28 0.0009604185    2.854    0.650
       286 -10.9956     18.4699     23.2719   9.4750950242e+01   6.9517969765e+01    0.3459049    0.1615238 -46.38  0.001463238    1.794    0.442
       287 -10.1736    232.0634     23.5682   4.0320810662e+01   2.4697682347e+01    0.2997914    0.1769586 -71.11  0.001199367    1.727    0.421
       288  -9.6379    211.9542     23.3408   4.2292243958e+01   2.9452167926e+01    0.2015492    0.1873437 -25.60 0.0006185816    1.270    0.212
       289  -9.9202    212.2983     19.1092   4.1194455553e+01   2.9867725803e+01    0.2582223     0.193448 -56.58 0.0005651586    1.235    0.190
       290  -9.7649    158.9647     24.4927   4.9761638854e+01   4.2604271464e+01    0.2076536    0.1303299  65.70 0.0003367423    1.476    0.322
       291  -9.8484     61.3809     23.7802   7.5361381286e+01   6.4150142042e+01    0.2625256    0.1706101 -13.15  0.001439722    1.554    0.356
       292 -11.2892    194.9248     22.6829   4.4081725760e+01   3.3710674666e+01    0.2858696     0.211924  77.16 0.0003474031    1.254    0.203
       293 -10.5055    174.2257     21.2786   4.6423784404e+01   3.9091025068e+01    0.3402377     0.260084 -14.49  0.001487771    1.561    0.359
       294  -9.9110    123.6822     22.6070   5.5962792297e+01   5.1562995541e+01    0.3162034    0.2011582 -68.08  0.001378554    2.502    0.600
       295 -12.4196    116.9140     22.3286   5.7426789926e+01   5.3189259365e+01    0.2603337    0.2357362  -0.30 0.0005094016    1.135    0.119
       296 -10.9446    102.0005    240.4745   1.1195123013e+02   1.1641399303e+01    0.2225465    0.1536707  82.31 0.0007955323    1.619    0.382
       297  -9.3039     44.1339    240.7708   1.2268544946e+02   1.9388078986e+01    0.1324863    0.1143623  84.05 0.0005441587    1.298    0.229
       298 -10.7222    105.0741     20.9045   5.9846907947e+01   5.6047395998e+01    0.2067523    0.2035849  -2.99 0.0003053974    1.162    0.139
       299  -9.4661     41.0291     21.5136   8.3010526179e+01   6.7421286087e+01    0.1662169    0.1112558  27.70 0.0003950067    1.518    0.341
       300  -9.7994     36.1501     20.9654   8.5033311473e+01   6.8105419040e+01    0.1682369    0.1452177 -23.22 0.0004419565    1.241    0.194
       301 -10.5830     93.7334     19.9707   6.2618091326e+01   5.8604669568e+01    0.2138479    0.1760662  48.62 0.0002762684    1.218    0.179
       302 -10.4081     33.9722    239.1408   1.2436758664e+02   2.0869524104e+01    0.1745038    0.1259953  80.02 0.0003584118    1.141    0.124
       303 -10.3069    182.3222     18.6944   4.4571879896e+01   3.7329768727e+01    0.2389608    0.2169154  45.46 0.0006297472    1.217    0.178
       304 -10.2005    211.9486     28.0476   4.3482029194e+01   2.8879550187e+01    0.1996073    0.1772013 -74.09 0.0003527682    1.014    0.014
       305  -9.6978    188.7960     17.0270   4.3290228692e+01   3.5886068351e+01    0.1997932    0.1723418  47.53  0.001173761    1.281    0.219
       306  -9.2164     73.3823     16.8882   6.7784865086e+01   6.2984858861e+01    0.1758431     0.114888 -26.74 0.0007543194    1.519    0.342
       307  -9.7902    246.6609    239.3069   8.4636809945e+01  -1.0392988547e+01   0.09807615   0.08841534  36.86 0.0007042157    1.681    0.405
       308 -10.1870     64.3188     15.7143   7.0540864794e+01   6.4739039606e+01    0.3594919    0.2005841  27.31  0.001851737    1.808    0.447
       309  -9.9128     88.9302    221.0687   1.1249266991e+02   1.7185948903e+01    0.1738032    0.1562214 -10.75   0.00096127    1.647    0.393
       310  -9.1351    243.5278     15.5569   3.7515453159e+01   2.3082825128e+01    0.1249626    0.1049799 -69.93 4.160195e-05    1.039    0.038
       311  -9.3462    128.1562     14.8291   5.2164275134e+01   5.1328670373e+01    0.1824575     0.142788  34.02 0.0002453371    1.258    0.205
       312 -10.4304     90.0106    215.0298   1.1161031689e+02   1.8220732738e+01    0.2018083    0.1682736 -87.43 0.0004578429    1.195    0.163
       313  -9.0054    230.6693    209.6508   8.2344000403e+01  -4.2854797859e+00       0.1353   0.08518503   4.07 0.0007048553    1.768    0.434
       314  -9.5177      8.1576    209.4574   1.2731475635e+02   2.9308383511e+01    0.1437548   0.09657763  43.36  0.001003252    1.521    0.343
       315  -9.7429    139.2884     14.0146   4.9738664570e+01   4.8683624628e+01    0.1846521    0.1726203  50.22 0.0008269345    1.047    0.045
       316  -8.7680    155.2884     13.6683   4.6925089773e+01   4.4711751017e+01    0.1399846   0.09865932 -65.13 0.0007016405    1.623    0.384
       317  -9.2446     67.0312    207.2232   1.1555673217e+02   2.3088445328e+01     0.158527   0.09281017  40.57 0.0003877431    1.614    0.380
       318  -9.5173    241.3616    205.3143   7.9647830373e+01  -5.3288011614e+00    0.1341484   0.08318457   5.80 0.0007041813    1.757    0.431
       319  -9.7981     88.9822     13.4095   6.1221894675e+01   6.0331074273e+01    0.1790998    0.1431243  39.12  0.001071661    1.128    0.114
       320  -8.8662     57.3308    205.3251   1.1738616277e+02   2.4760093559e+01    0.1117416   0.09526209 -39.54 0.0007050642    1.705    0.413
       321  -9.1734     23.3500     12.2459   8.7347324840e+01   7.0849853085e+01    0.1168437    0.0716708  -8.52 0.0006934026    1.582    0.368
       322 -10.6247     33.6654    199.5375   1.2174258304e+02   2.8794850412e+01    0.2549314    0.1727615  78.48  0.001011296    1.216    0.178
       323  -9.1877    120.9373    199.2456   1.0293104210e+02   1.6479513249e+01    0.1815588    0.1053505  42.55 0.0008701164    1.551    0.355
       324  -9.0439     62.4920    198.4874   1.1562955728e+02   2.5550878308e+01    0.1273447    0.1057077  74.55 -0.0001231663    1.015    0.015
       325  -9.6443    238.3256    191.3187   7.7545332778e+01  -2.8558162179e+00    0.1358201    0.0887616   3.19 0.0007045752    1.677    0.404
       326  -9.2642     91.9846    188.5187   1.0790145720e+02   2.3500915182e+01    0.1974036    0.1234626  42.76 0.0004667606    1.501    0.334
       327 -10.4362    239.8402    185.1188   7.6070183688e+01  -2.1789975641e+00    0.1874035     0.136713   1.99 0.0006824724    1.336    0.252
       328  -9.4500     55.4801    181.4922   1.1537114311e+02   3.0220898845e+01    0.1299621    0.1085133  81.26 0.0001482442    1.004    0.004
       329  -9.6514    222.9422    178.0111   7.7712232808e+01   1.8066366907e+00     0.164609     0.144342   1.22  0.000414518    1.006    0.006
       330  -9.9888    243.0083    170.4785   7.2577981919e+01  -4.6836308268e-01    0.1782538    0.1032963  16.55  0.000365089    2.262    0.558
       331  -9.9396      5.0114    168.7131   1.2547185196e+02   3.8263131592e+01    0.1539676    0.1243519  79.12 0.0003234822    1.105    0.095
       332 -10.2100     24.7001    162.8253   1.2056268280e+02   3.7902167303e+01    0.1718555    0.1586171 -87.53 0.0003495766    1.226    0.184
       333 -10.5669    248.6633    161.2499   6.9711406136e+01   1.1164760184e-02    0.2156182    0.1676149  54.67  0.000737494    1.697    0.411
       334 -11.3694     37.7518    159.5450   1.1711344050e+02   3.7367619680e+01    0.5434269    0.2522835  54.96  0.002329873    2.267    0.559
       335 -11.7703     30.6838    154.5801   1.1829932374e+02   3.9257727213e+01    0.4698968    0.2560596  54.63  0.002112411    1.864    0.464
       336 -10.2736      1.7030    158.7894   1.2550037518e+02   4.0741327928e+01     0.208089    0.1144465 -77.53 0.0007420413    1.420    0.296
       337  -9.4664    219.6667    158.0206   7.4145601718e+01   5.7741469608e+00    0.1955354    0.1688245 -22.04 0.0004121613    1.080    0.074
       338  -9.7298     45.9460    151.3477   1.1408469482e+02   3.8426968240e+01    0.1968247    0.1514279 -76.53 0.0004153206    1.120    0.107
       339 -10.6991      2.8412    152.8954   1.2480271691e+02   4.1996258543e+01    0.1958875     0.161597  24.59  0.001011404    1.605    0.377
       340 -11.5749    248.9259    150.6073   6.7422626785e+01   1.6448230045e+00    0.2980719    0.2138908 -39.30  0.001130135    1.343    0.255
       341 -11.5472      5.0792    147.1923   1.2381814570e+02   4.3143850181e+01    0.3345698    0.1844327  76.33  0.001889396    1.705    0.414
       342  -9.8742      4.6872    142.6791   1.2352947332e+02   4.4214206880e+01    0.1721219    0.1365025 -51.20 0.0007569644    1.440    0.306
       343 -10.6827    231.7936    135.3040   6.6932031088e+01   7.3597262834e+00    0.2857586    0.1973193 -26.61  0.001117726    1.388    0.280
       344 -12.9148    240.4330    143.8583   6.7369844075e+01   4.2710764423e+00    0.5066414    0.4377584 -45.51  0.002827975    1.259    0.206
       345 -12.3441    236.3482    138.0481   6.6772681292e+01   6.0111467564e+00    0.5231878    0.2853256 -37.82  0.001311735    1.667    0.400
       346  -9.6001    225.4669    144.9676   7.0215194850e+01   6.9248506844e+00    0.1853294    0.1172804 -57.45 0.0003782519    2.217    0.549
       347 -11.4032     13.5270    143.7368   1.2144071815e+02   4.3316653989e+01    0.2894812    0.2646418 -57.62  0.002084747    1.305    0.233
       348  -8.8157     54.2893    146.2774   1.1121848311e+02   3.8678166863e+01    0.1268105    0.0978607 -41.83 0.0001874242    1.519    0.342
       349 -10.9008     20.2187    141.2108   1.1948926175e+02   4.3372100142e+01     0.309828    0.1534638  49.21  0.001597359    2.126    0.530
       350 -12.0440    247.2909    137.4427   6.4837733492e+01   4.0624999870e+00    0.4900597    0.2567886 -33.20  0.001191803    1.708    0.415
       351 -11.7128    248.0461    129.9830   6.3071864166e+01   5.1423361539e+00    0.7918879    0.2982234  46.44  0.003150905    2.935    0.659
       352  -9.9538     49.7428    137.4069   1.1113446146e+02   4.1373929843e+01    0.3485882    0.1126508 -70.75  0.001042307    3.286    0.696
       353 -10.2130     34.2204    136.6525   1.1525720966e+02   4.3200898385e+01    0.2665266    0.1367301  43.33  0.001332346    2.066    0.516
       354 -11.3975      7.8141    133.3698   1.2188116768e+02   4.6166963918e+01    0.2276578     0.147514 -47.99 0.0007642633    1.672    0.402
       355 -11.1515      2.0266     25.5262   1.0408568078e+02   7.0235368805e+01    0.1765543    0.1234553 -39.95 0.0003418874    1.056    0.053
