#   1 NUMBER                 Running object number                                     
#   2 MAG_AUTO               Kron-like elliptical aperture magnitude                    [mag]
#   3 X_IMAGE                Object position along x                                    [pixel]
#   4 Y_IMAGE                Object position along y                                    [pixel]
#   5 X_WORLD                Barycenter position along world x axis                     [deg]
#   6 Y_WORLD                Barycenter position along world y axis                     [deg]
#   7 A_WORLD                Profile RMS along major axis (world units)                 [deg]
#   8 B_WORLD                Profile RMS along minor axis (world units)                 [deg]
#   9 THETA_WORLD            Position angle (CCW/world-x)                               [deg]
#  10 FWHM_WORLD             FWHM assuming a gaussian core                              [deg]
#  11 ELONGATION             A_IMAGE/B_IMAGE                                           
#  12 ELLIPTICITY            1 - B_IMAGE/A_IMAGE                                       
         1 -12.0762    107.5790     28.8555   6.6199655868e+01   5.4648225745e+01    0.5054562    0.2959189 -23.75 0.0003215753    1.755    0.430
         2 -11.1994     14.9506     18.4703   9.7589523058e+01   7.0590902293e+01    0.7242305    0.2875364 -23.81  0.003044193    3.670    0.727
         3 -11.8529     18.2329     23.6999   9.8115502808e+01   6.9421158881e+01    0.3010862    0.2758281 -26.98  0.001169086    1.302    0.232
         4 -12.1473      2.0564     25.0516   1.0663015929e+02   7.0279191377e+01    0.3469101    0.1471888 -57.26   0.00190695    1.935    0.483
         5 -11.7480      5.7705     17.2888   1.0185099987e+02   7.1457471328e+01     0.420877    0.2717269 -50.18  0.002861283    1.365    0.267
         6 -11.3887    182.1015     18.9857   4.8245664954e+01   3.7193665519e+01    0.3213522     0.278279   7.54 0.0007289733    1.368    0.269
         7 -11.1307    169.2954     14.1277   4.8520168883e+01   4.1055962539e+01    0.3014359    0.2276645  44.83 0.0002657004    1.353    0.261
         8 -11.5165    173.3960     13.7994   4.7845497299e+01   4.0020878872e+01    0.3281488    0.2195148 -25.79  0.001649296    1.613    0.380
         9 -11.3520    175.9892     10.9905   4.6635887444e+01   3.9631646513e+01    0.2946308    0.1986008  79.01 0.0008926357    1.422    0.297
        10 -11.3373    116.5848     15.0918   5.8425704716e+01   5.4214082894e+01    0.3199216    0.2268124  36.63  0.001117956    1.331    0.249
        11 -10.8262     66.0620     14.0624   7.2737831651e+01   6.4739819168e+01    0.4365466    0.2779052   6.57   0.00235677    1.698    0.411
        12 -11.1488    132.9773     12.9308   5.4139270782e+01   5.0472624761e+01    0.3016132    0.2370825 -25.02  0.000345562    1.359    0.264
        13 -11.0668    128.0355      8.9296   5.3596972625e+01   5.2074947118e+01    0.4114844    0.1665941 -20.61  0.001557156    2.686    0.628
        14 -11.2248    209.9263     12.5382   4.3173881838e+01   3.0753937715e+01     0.389533    0.2857952  -0.59  0.002046758    1.848    0.459
        15 -11.0246    200.9362     13.0478   4.4257100341e+01   3.2974161140e+01    0.4227709    0.2046852  36.24  0.001273445    3.279    0.695
        16 -11.0511     75.3220     12.7498   6.8874948597e+01   6.3235518834e+01     0.270045    0.2579249  76.78  0.001512989    1.460    0.315
        17 -10.0718     74.4681      8.4379   6.7103836435e+01   6.3877705359e+01    0.4102699    0.1669523  40.15  0.001836141    2.296    0.564
        18 -10.6934    150.6998     12.0139   5.0659978643e+01   4.6086183583e+01    0.3058372    0.1782313  44.82 0.0006396126    1.682    0.405
        19 -10.4560    218.5981     11.9774   4.2178948107e+01   2.8658338580e+01    0.2626102    0.1865423  77.70 0.0005691017    1.321    0.243
        20  -9.8073     97.8071     12.1394   6.1851749852e+01   5.8762048612e+01     0.187747    0.1761842 -15.04 0.0005129498    1.182    0.154
        21 -11.3011     14.0654     10.8857   9.4662652923e+01   7.1912976942e+01    0.3051036    0.2054113 -13.07  0.001235212    1.321    0.243
        22 -10.6098      6.3188     10.1475   9.8519137621e+01   7.2630052434e+01    0.3318301     0.191772  34.46  0.002098406    2.392    0.582
        23  -9.5032    229.3631     11.1568   4.0998997494e+01   2.6132832454e+01    0.1822345    0.1038393 -43.52 0.0001091613    1.585    0.369
        24  -9.4342     55.5819     11.2607   7.5365213450e+01   6.6816444435e+01    0.1714315    0.1028484 -16.97 0.0009441617    1.574    0.365
        25 -10.7539    164.7421      8.5497   4.7390403071e+01   4.2794359241e+01    0.3435816     0.206767 -57.45  0.001374546    1.920    0.479
        26 -10.9451    166.0234      3.4134   4.5585190856e+01   4.2935995500e+01    0.3358574    0.2287012  17.63  0.001503212    1.864    0.464
        27 -11.7408    160.8236      3.0425   4.6160008765e+01   4.4311681741e+01    0.5509984    0.3373519  63.31    0.0020156    1.436    0.304
        28 -11.8162    193.6788      8.2874   4.3727582912e+01   3.5325917542e+01    0.4790206    0.2434205  88.83  0.002042424    2.185    0.542
        29 -12.2012    195.3748      3.5640   4.2229728546e+01   3.5356847755e+01    0.6435517    0.2517209  65.80  0.002679047    2.217    0.549
        30 -10.7946    185.2761      8.9239   4.4866677137e+01   3.7427699250e+01    0.2451109    0.1815529  67.17 0.0002452211    1.239    0.193
        31 -11.1449    145.9788      8.6556   5.0274667997e+01   4.7614501967e+01    0.2612004    0.1801976  28.73  0.001322798    1.602    0.376
        32  -9.8342     46.8944      8.8009   7.7706831736e+01   6.8441123214e+01    0.2085384    0.1399114  19.48 0.0005354001    1.411    0.291
        33 -10.2623     51.2846      6.8629   7.4864739719e+01   6.8026021926e+01    0.3205127    0.1764261   9.23  0.001596041    2.263    0.558
        34 -10.7418    115.7376      2.0027   5.3353003332e+01   5.5639571267e+01    0.2308572    0.1679056  51.48 0.0003854835    1.207    0.172
        35 -10.6096    106.9925      3.9888   5.6074664437e+01   5.7499944681e+01    0.2921707    0.1923128   4.08  0.001128283    1.653    0.395
        36 -11.2383    107.9588      7.8260   5.7460255334e+01   5.6932405096e+01    0.5557305    0.2127023  56.19  0.001781505    2.276    0.561
        37 -10.4250    111.9994      4.9885   5.5365059766e+01   5.6260076073e+01    0.1877515     0.182343 -50.06 0.0003906869    1.211    0.174
        38 -11.5264    208.9596      4.7049   4.1205202101e+01   3.1813228938e+01    0.3608125    0.2801084 -62.38 0.0004452528    1.197    0.165
        39 -10.9104     87.2984      5.9907   6.2007783804e+01   6.1598200940e+01    0.2460717    0.2139324 -23.51 0.0004880041    1.275    0.215
        40 -10.2995     90.3358      1.4885   5.9099460334e+01   6.1377996232e+01    0.3690387    0.1078322  50.66  0.001044354    2.720    0.632
        41 -11.0742     61.7141      6.3800   7.0546955525e+01   6.6390189479e+01    0.2364725    0.2268686 -20.82 0.0006967289    1.410    0.291
        42 -10.5082     39.6791      5.3173   7.9065074878e+01   6.9895399993e+01    0.2516658    0.2192007 -12.48  0.001337032    1.284    0.221
        43 -10.0431     38.1324      2.1823   7.8077395991e+01   7.0494528796e+01    0.1702041    0.1366079  -4.63 0.0002360657    1.086    0.079
        44 -10.1756     24.7236      6.8807   8.7110590707e+01   7.1500704427e+01    0.2144204    0.1588268 -41.61  0.001302544    1.568    0.362
        45 -10.9277     20.5931      6.7284   8.9166340780e+01   7.1950095560e+01    0.2471038    0.1623771 -23.32 0.0006314477    1.193    0.161
        46 -10.8081    170.9865      6.4642   4.5893945150e+01   4.1371322599e+01    0.2140947    0.1250051  70.07 0.0004203819    1.549    0.355
        47 -11.1279    134.0460      5.7097   5.1267563157e+01   5.0884281575e+01    0.3515561    0.2079366  49.73  0.001732634    1.504    0.335
        48 -10.5633     31.1394      4.0963   8.2433808730e+01   7.1150445974e+01    0.2902065    0.1726635 -45.50  0.001099759    2.235    0.553
        49 -10.5663     48.8620      2.9636   7.3810098742e+01   6.8854452049e+01    0.3572193    0.1818335  23.46  0.001387195    2.136    0.532
        50  -9.7075     13.6020      3.8256   9.1429552068e+01   7.3038062585e+01     0.149948   0.09038353 -45.71 0.0009446724    1.741    0.426
        51 -10.0864    248.8985      2.9415   3.7565486938e+01   2.2488502442e+01    0.1875533    0.1564839 -65.24  0.000338222    1.035    0.034
        52 -10.5117    217.9118      2.4075   3.9815856241e+01   2.9829164934e+01    0.2588342    0.1928327 -50.05 0.0005559886    1.255    0.203
        53 -10.3029    142.0276      3.1959   4.9001293525e+01   4.9102021117e+01    0.2481268    0.1218727  42.83 0.0008846977    2.014    0.504
        54 -10.9777     74.1514      2.0706   6.4102650121e+01   6.4583975677e+01    0.2548665    0.1855493  33.10 0.0006578846    1.201    0.168
        55 -10.4834    130.0709      2.1132   5.0641357693e+01   5.2173746093e+01    0.2538981    0.1745849  69.88  0.001341315    1.405    0.288
        56  -9.7335    148.4854      1.3292   4.7348435985e+01   4.7621419212e+01    0.2433059    0.1154406  68.22  0.001060048    1.892    0.471
        57  -9.0701     81.3519      1.6804   6.1708010544e+01   6.3210753084e+01    0.1186654   0.09947428 -61.55 0.0007047565    1.745    0.427
        58 -11.4431    180.1677      2.0669   4.3447172847e+01   3.9400414844e+01    0.3685083    0.1753433  68.83 0.0009664022    1.848    0.459
        59  -9.8128     43.5040      1.2849   7.5180814048e+01   6.9846068728e+01    0.1724789   0.09589832  38.37 0.0005174174    1.808    0.447
        60  -9.7545    234.4010    226.1826   8.9318076222e+01  -6.6171098352e+00    0.1477672    0.1082655 -36.94 0.0009470138    1.717    0.417
        61  -8.8499    233.6999    250.7333   9.3338109565e+01  -9.2556724308e+00    0.1121825   0.06748931  16.93 0.0001854627    1.521    0.342
        62  -9.7564    187.0020    250.5668   1.0131378194e+02  -2.1731305282e+00    0.1714296   0.09059974  40.05 5.403559e-06    1.469    0.319
        63 -11.1781    161.1510    248.6275   1.0563450468e+02   2.1945068156e+00    0.3037793    0.2541212  10.87  0.001702826    1.422    0.297
        64 -11.4674    127.3980    248.1542   1.1160281090e+02   7.6146505279e+00    0.2970633    0.2573653  87.58  0.002085163    1.309    0.236
        65 -11.1831    115.8621    249.5616   1.1379271846e+02   9.1725220220e+00    0.3463973    0.2070985  50.98  0.002171296    1.295    0.228
        66  -9.8103    112.1117    246.7809   1.1417631949e+02   1.0179378175e+01    0.1698639    0.1578776 -89.26 0.0007182933    1.316    0.240
        67  -9.4587    105.8450    250.1491   1.1560647498e+02   1.0584738163e+01    0.1446687    0.1188074  42.26 0.0002831693    1.302    0.232
        68 -11.7201     38.8173    249.1554   1.2678388043e+02   1.9697041304e+01    0.2549699    0.2139604  60.65  0.001266618    1.386    0.279
        69 -10.3730     30.9575    250.6080   1.2810219552e+02   2.0352604231e+01    0.1887503   0.08433997  50.32  0.001224957    1.639    0.390
        70 -11.6831     10.2097    249.1248   1.3121384853e+02   2.2822125420e+01    0.4233146    0.1979575  55.58  0.002666716    1.497    0.332
        71 -12.4420      5.1895    244.2133   1.3177473896e+02   2.4156603938e+01    0.6137273     0.377794 -74.78  0.004648897    1.722    0.419
        72 -11.4656     31.8658    244.7364   1.2765129514e+02   2.1249816091e+01    0.2994947    0.1747391  35.94  0.001393134    2.034    0.508
        73 -12.9315     12.4842    234.9730   1.3025456924e+02   2.5037822754e+01     1.186324    0.2975824  54.93  0.006069659    2.786    0.641
        74 -11.7497      3.4221    231.3350   1.3152926279e+02   2.6579163867e+01    0.4289975    0.1842378 -82.64  0.002337036    1.944    0.486
        75 -11.8522      2.1766    224.7424   1.3145051825e+02   2.7888192797e+01    0.2948619    0.1650812  88.29 0.0004387559    1.375    0.273
        76 -10.5540     15.4635    228.5460   1.2946892646e+02   2.5890132003e+01    0.2655183   0.09858669  58.15 0.0007175268    2.041    0.510
        77 -11.2925      9.6921    225.8210   1.3028096492e+02   2.6967533076e+01    0.4037975    0.1397633  65.63  0.002175536    2.436    0.589
        78 -11.9029     24.6852    249.1505   1.2900585688e+02   2.1293524623e+01    0.5153301    0.3260862  70.04  0.003420432    1.096    0.088
        79 -12.0442     16.6293    245.1084   1.3006444880e+02   2.2842569957e+01    0.4886261    0.3296336  59.72  0.003271853    1.175    0.149
        80  -9.5660    149.5116    225.8259   1.0479917858e+02   7.5275310244e+00    0.1572918    0.1266454 -52.88  0.001001337    1.498    0.333
        81  -9.6472     19.5358    225.9591   1.2866374319e+02   2.5942939386e+01    0.1561972   0.08326048 -82.36  0.001036398    1.619    0.382
        82  -9.5079    164.5131    225.5425   1.0191042706e+02   5.0156949328e+00    0.1272102    0.1046989  42.16 7.889295e-05    1.020    0.020
        83  -9.7347    112.5209    223.9674   1.1164193668e+02   1.3952058565e+01    0.1658725    0.1415813  67.52  0.000428163    1.083    0.077
        84  -9.7987    110.1420    220.8122   1.1173210410e+02   1.4894978142e+01    0.1811233    0.1538343  57.84 0.0003287267    1.073    0.068
        85  -9.5136     78.4965    222.6665   1.1795212772e+02   1.9313997065e+01    0.1580379    0.0984932  87.46   0.00093425    1.635    0.388
        86 -10.0016     36.3929    223.5351   1.2564532936e+02   2.4546392770e+01    0.3023388   0.08238333  47.54  0.001464096    2.670    0.625
        87 -11.9245     84.0640    220.7519   1.1671950685e+02   1.8874616056e+01    0.2046537    0.1640641  75.76 0.0003530243    1.089    0.082
        88  -9.5196    144.2205    222.1551   1.0531238946e+02   9.0278966488e+00    0.1692869    0.1322232  65.94 0.0005278827    1.333    0.250
        89 -10.6217    228.7315    220.1298   8.9276895650e+01  -4.9916404031e+00    0.2021306    0.1648733  31.50 0.0003244196    1.208    0.172
        90 -10.7680    135.9708    218.9657   1.0648034554e+02   1.0970713576e+01     0.330493    0.2669917 -83.38  0.002039653    1.442    0.306
        91  -9.7028     63.9091    220.6346   1.2048229991e+02   2.1693511530e+01    0.2543424     0.114922  76.59  0.001170546    2.844    0.648
        92  -9.6064     54.4766    221.0452   1.2224532327e+02   2.2836309061e+01    0.1591569   0.09789802 -80.17 0.0005151785    1.529    0.346
        93 -11.2530     89.6574    216.9882   1.1526446474e+02   1.8760272352e+01    0.4494862    0.1341423  48.26  0.001851016    2.795    0.642
        94  -9.7254     46.9704    218.1963   1.2339137365e+02   2.4309447257e+01    0.1516716    0.1333925   8.61  0.001071029    1.983    0.496
        95 -10.0781     39.4612    217.7332   1.2471309141e+02   2.5291296319e+01    0.1935433    0.1634553 -81.53  0.001473195    1.378    0.274
        96 -10.1833     24.1053    217.1005   1.2738834407e+02   2.7122333157e+01    0.2829948    0.1169573 -78.88 0.0009297868    2.126    0.530
        97  -9.5729    175.7785    217.3885   9.8542370113e+01   4.3256504319e+00    0.1843049    0.1047731  34.16 0.0004098119    1.614    0.380
        98 -10.6681     74.4249    211.3070   1.1763364641e+02   2.2057522500e+01    0.2155349    0.1838787  72.65 0.0002324805    1.125    0.111
        99 -10.8989     72.8802    216.2647   1.1840848781e+02   2.1311530745e+01    0.2839505    0.1926802 -79.07 0.0003175216    1.443    0.307
       100 -10.9101     68.3343    215.1765   1.1917115757e+02   2.2144779356e+01    0.2001057    0.1590884  67.31 0.0003108708    1.052    0.049
       101  -9.4358     18.1013    217.1901   1.2843281670e+02   2.7732008760e+01    0.1472015    0.1197213  87.82 0.0006724707    1.291    0.226
       102  -9.4663     58.7496    215.8452   1.2103512693e+02   2.3285597177e+01    0.1601724    0.1029903  68.24 0.0003528479    1.284    0.221
       103 -10.4830     31.7906    216.0264   1.2596835705e+02   2.6492216908e+01    0.3196402    0.1905276 -55.56   0.00198371    2.302    0.566
       104 -10.7695     28.7752    213.4064   1.2633653713e+02   2.7329915815e+01    0.2462973    0.1884191  31.10  0.001759107    1.825    0.452
       105 -11.7043     24.1491    208.6182   1.2686196359e+02   2.8759419144e+01    0.4841225    0.2253901  47.90  0.001238725    1.808    0.447
       106 -11.6059     17.7383    207.7563   1.2795869804e+02   2.9588657306e+01     0.208444    0.1416278  78.98 0.0003319384    1.077    0.072
       107 -11.4624    128.9762    207.7423   1.0633101910e+02   1.4169645072e+01    0.4596814    0.3070551  19.94  0.001258868    2.253    0.556
       108 -10.4202    111.5252    213.8139   1.1062244701e+02   1.5955922566e+01    0.2190303    0.2052305  70.70 0.0008107875    1.183    0.154
       109 -11.0066     13.8942    212.4273   1.2889865881e+02   2.9066065968e+01    0.2024149     0.163565 -77.82 0.0004079984    1.443    0.307
       110  -9.7773      1.4390    204.5252   1.3065407897e+02   3.1769282192e+01    0.1672273   0.09757476  80.32 7.967271e-05    1.253    0.202
       111 -11.8380      8.5019    210.7004   1.2974022729e+02   2.9922038128e+01    0.3835002    0.1847841 -79.64  0.002071114    1.729    0.422
       112 -10.9754      4.9720    206.3385   1.3012986909e+02   3.1096058957e+01    0.2987374    0.1436365 -85.23  0.001891511    1.658    0.397
       113  -9.0794     52.7237    212.9729   1.2192330806e+02   2.4611123689e+01     0.134813   0.08826808 -81.19 0.0004859949    1.403    0.287
       114  -8.8706    164.6587    213.3228   1.0005664358e+02   6.9316082275e+00    0.1309617   0.09584545  68.27 0.0007050678    1.725    0.420
       115 -10.0814    117.9689    211.9827   1.0911147448e+02   1.5241616179e+01    0.1962209    0.1636006  56.81 0.0004507264    1.017    0.017
       116  -9.7545     39.3132    210.3367   1.2421205209e+02   2.6745428444e+01    0.1871461    0.1170406 -69.54 0.0006918067    1.611    0.379
       117 -10.8080    155.0347    209.7256   1.0139659189e+02   9.2438843373e+00    0.2048814     0.194349 -62.40  0.000228252    1.220    0.181
       118 -10.8160    144.6321    208.5744   1.0329819130e+02   1.1289686255e+01    0.3518409    0.1946747 -62.29  0.001361692    2.373    0.579
       119  -9.6694    104.5016    209.5030   1.1149252921e+02   1.7897171818e+01    0.1276212    0.1075321  62.20 0.0008104932    1.031    0.030
       120  -9.6759     97.3346    208.9032   1.1285519648e+02   1.9140087066e+01    0.1652216    0.1463398  77.65 0.0005650186    1.120    0.108
       121 -10.2387     79.6088    209.2238   1.1640919495e+02   2.1730227612e+01    0.1933053    0.1386835  54.39  0.001208807    1.189    0.159
       122  -9.6741    196.7775    207.2664   9.2878020636e+01   2.1663518569e+00    0.1874568     0.100638 -26.83  0.000577552    2.376    0.579
       123 -11.0278     67.1848    207.0417   1.1862895936e+02   2.3898825121e+01    0.2967079    0.1752051 -72.56  0.001305172    1.651    0.394
       124 -11.4046     34.8425    204.8132   1.2463954044e+02   2.8352072042e+01    0.2783122    0.1963532 -81.32 0.0009996239    1.285    0.222
       125  -9.4763     39.8960    205.0836   1.2371001200e+02   2.7721766207e+01    0.1434645    0.1213768 -84.68 0.0005821211    1.294    0.227
       126  -9.6100    142.0863    203.6453   1.0307351547e+02   1.2626299764e+01    0.1848365    0.1542744  44.11 0.0005024867    1.078    0.073
       127  -8.7208    165.6655    202.3233   9.8100014538e+01   8.5912687561e+00    0.1343464    0.1009524  71.15 0.0007050683    1.709    0.415
       128 -10.4654    121.3167    200.0533   1.0681683288e+02   1.6937950035e+01    0.3051709    0.1989508 -87.45  0.001289243    2.036    0.509
       129 -11.2522     98.0767    200.5079   1.1168889074e+02   2.0677627302e+01      0.41313    0.2259534  35.68    0.0014813    1.958    0.489
       130 -11.1740      5.5416    200.1394   1.2970866029e+02   3.2259940252e+01      0.17844    0.1294625  74.15 0.0002666044    1.068    0.064
       131 -10.6370    125.5162    212.4317   1.0766595974e+02   1.3898533818e+01    0.2753214    0.2245824 -33.55 5.333194e-05    1.667    0.400
       132 -11.0052     59.2726    207.7153   1.2022882140e+02   2.4814182028e+01    0.3738421    0.2141454  67.94   0.00107932    1.576    0.366
       133 -10.2119     31.9674    199.0020   1.2475646474e+02   2.9844499484e+01    0.1848496    0.1361241  81.68  0.001297371    1.047    0.045
       134 -11.3056    108.6245    194.1828   1.0865298985e+02   2.0243340032e+01    0.6299164    0.2243017 -63.77  0.002342874    3.503    0.715
       135  -8.7902     62.6424    198.6779   1.1871531632e+02   2.6203710492e+01    0.1095708   0.09555942 -36.21 0.0007044864    1.767    0.434
       136  -9.8741     13.3084    197.3262   1.2814098550e+02   3.2096696173e+01    0.1825894    0.1569969  69.37 0.0009203063    1.313    0.238
       137 -10.3472    128.2916    197.0810   1.0493210949e+02   1.6302188849e+01    0.2738029    0.1703986  53.55 -0.000275831    1.491    0.329
       138 -10.1828     82.4979    195.5446   1.1431521363e+02   2.4069413734e+01    0.2143565    0.1798767  87.57 0.0005598022    1.102    0.092
       139 -10.6595     37.7650    195.0491   1.2333122050e+02   3.0011312430e+01    0.2967722    0.1667085 -64.18  0.001455817    1.798    0.444
       140 -10.3696     95.4392    194.8542   1.1152404745e+02   2.2238475950e+01    0.2181945    0.1692233  45.85 0.0004793872    1.254    0.203
       141  -9.3228     44.4998    194.4779   1.2195437802e+02   2.9350273047e+01     0.120478    0.0932354  77.83 0.0001149863    1.007    0.007
       142  -9.3687      6.8198    194.7048   1.2918007794e+02   3.3229468539e+01       0.1411   0.07589696  49.40 0.0004766331    1.650    0.394
       143 -10.2956     52.7310    192.9778   1.2016588128e+02   2.8663743815e+01    0.2962771     0.152007 -62.46 0.0005025277    1.945    0.486
       144  -8.9658     49.5601    192.5115   1.2076429520e+02   2.9152901066e+01    0.1848467    0.1048565  43.67  9.51015e-05    1.680    0.405
       145  -9.3184    100.3637    192.4940   1.1017459553e+02   2.1939663323e+01     0.128514    0.1131193  76.33 0.0001073745    1.052    0.049
       146  -9.8057     58.7591    191.0444   1.1874431292e+02   2.8304920049e+01    0.2320912    0.1266678 -70.58   0.00108018    1.710    0.415
       147  -9.5326    188.5603    191.2554   9.1608255906e+01   6.2017458171e+00    0.1771233    0.1283153 -22.52 0.0009346007    1.585    0.369
       148 -11.3983     91.6503    189.0718   1.1158273491e+02   2.4031368936e+01    0.2776181    0.2146725 -80.71 0.0004150489    1.254    0.203
       149  -9.4979    120.4908    189.9272   1.0550913062e+02   1.9081310498e+01     0.199215    0.1326824 -60.53  0.001039205    1.612    0.380
       150  -9.6813    165.5659    188.1975   9.5694065281e+01   1.1100993318e+01    0.2619103    0.1951053 -79.62  0.001280874    1.944    0.485
       151  -8.9885    127.4556    189.4654   1.0394621069e+02   1.7944309737e+01     0.136254    0.1220738  58.71 0.0001649548    1.020    0.020
       152  -9.1544    148.9917    186.9813   9.8947760723e+01   1.4473242992e+01    0.1583443    0.1459201  51.70 0.0009357919    1.020    0.019
       153 -10.6250    105.2032    185.9368   1.0822364514e+02   2.2508634797e+01    0.2666196    0.2097546 -72.84 0.0007644943    1.286    0.223
       154 -10.2891     85.2293    187.0659   1.1270458205e+02   2.5439345148e+01    0.2838557    0.1866869  27.67  0.001183082    2.015    0.504
       155  -9.7595     74.7635    186.0739   1.1483133741e+02   2.7187378928e+01    0.2816724    0.1034785 -73.11  0.001069089    3.317    0.699
       156  -9.1824     49.4330    187.5269   1.2032237322e+02   3.0222673416e+01    0.1210691   0.09817716  83.16 0.0002772301    1.059    0.055
       157 -10.0689    130.2877    184.9899   1.0262265153e+02   1.8330351885e+01    0.2795421    0.1952395  80.70  0.001368383    1.829    0.453
       158 -10.1660     43.7438    185.0558   1.2126462584e+02   3.1428970156e+01    0.3511568    0.1298158 -66.04  0.001664319    2.396    0.583
       159  -9.4645     36.4606    184.4769   1.2270943819e+02   3.2381144362e+01    0.1725651    0.1343075 -78.04  0.001176211    1.232    0.188
       160 -10.2880     33.4759    184.5076   1.2332025524e+02   3.2701502676e+01    0.3427914    0.1723941  29.20  0.001817553    2.587    0.613
       161 -10.0745    177.8517    184.1551   9.2433338684e+01   9.4636537714e+00    0.1976397    0.1827712  58.61 0.0004175235    1.166    0.142
       162 -11.0048     15.7268    183.1273   1.2676497534e+02   3.4789808208e+01    0.2311885    0.1772084  85.43 0.0006328774    1.076    0.070
       163  -9.4625      2.6884    183.8526   1.2933108173e+02   3.5805509405e+01    0.1528457    0.1013057  87.51 0.0006795935    1.112    0.101
       164  -9.2635     88.0000    182.9471   1.1156802334e+02   2.5897731237e+01    0.2081883   0.07122636 -62.16 0.0008010225    2.933    0.659
       165 -10.4442     56.1184    181.0596   1.1826311258e+02   3.0785532475e+01    0.2208053    0.1915017  50.40  0.000936744    1.301    0.231
       166  -9.1605    182.4105    179.8358   9.0683740760e+01   9.3411932009e+00    0.1755301    0.1335845 -25.63 0.0003450994    1.464    0.317
       167 -12.7003     32.1300    176.5360   1.2291396993e+02   3.4561455240e+01    0.2833326    0.2209885 -65.12 0.0007006635    1.405    0.288
       168  -9.6607      4.0281    178.9868   1.2878403925e+02   3.6702846286e+01    0.1652629    0.1190671  82.40 0.0003492736    1.007    0.007
       169 -10.3185     92.0276    177.5636   1.0993616513e+02   2.6435432904e+01    0.2367441    0.1774645 -60.50 0.0006507346    1.378    0.274
       170  -9.8237    108.7691    176.5954   1.0603219765e+02   2.3887307831e+01    0.2403943    0.1539577  51.75 0.0009823443    1.462    0.316
       171 -11.9801     78.6951    173.9798   1.1244028782e+02   2.9256815047e+01     0.416114    0.2512109  80.46 0.0002860921    1.908    0.476
       172  -9.9279     46.4614    177.1808   1.1993167550e+02   3.2816439777e+01    0.2071542    0.1502238  51.28 0.0006367731    1.340    0.254
       173  -9.6901     23.9271    176.8806   1.2464853100e+02   3.5327096637e+01    0.1991474    0.1049457  71.17  0.001119287    1.734    0.423
       174  -9.2234      8.6581    177.3263   1.2776875974e+02   3.6654325344e+01    0.1231652   0.06171173  68.13 0.0007051183    1.736    0.424
       175  -9.6627    136.5101    175.9970   9.9735566878e+01   1.9002778313e+01    0.2059928    0.1401464 -51.04 0.0008119468    1.570    0.363
       176  -9.3090     17.5116    174.9718   1.2581770298e+02   3.6355835135e+01    0.1488937   0.07331821 -56.83 0.0007485194    2.257    0.557
       177  -9.1336    156.9916    173.7587   9.4844949519e+01   1.5488330027e+01    0.1946687    0.1143468  43.60 0.0008773866    1.587    0.370
       178  -9.5867     87.4621    172.2830   1.1021469982e+02   2.8310844449e+01    0.2488518    0.1201018 -57.91  0.001043408    2.040    0.510
       179 -10.0233     63.2070    171.0110   1.1555588931e+02   3.2085705145e+01    0.2069438    0.1652492  60.23  0.000393901    1.176    0.150
       180  -9.7591     42.7828    170.7233   1.2007315720e+02   3.4669653298e+01     0.278314    0.1969611  -3.01  0.001474826    2.862    0.651
       181  -9.1803    121.4849    169.5943   1.0199060208e+02   2.3140153861e+01    0.1413987     0.128796  64.48 7.253352e-05    1.020    0.020
       182  -9.8351     53.8255    167.4009   1.1724529297e+02   3.4101092085e+01    0.2284125    0.1853755 -40.00  0.001399061    1.702    0.412
       183 -10.1900      2.8490    166.5770   1.2822664156e+02   3.9430065690e+01     0.346999    0.0880178 -67.17  0.001560628    2.969    0.663
       184 -10.4816     46.4574    166.2217   1.1877657161e+02   3.5253142951e+01    0.2797164    0.1630018  50.16 0.0005384476    1.647    0.393
       185  -9.3286     61.2702    166.1808   1.1539893267e+02   3.3429301955e+01    0.1731965    0.1264965  71.30 0.0009539244    1.261    0.207
       186 -11.1609     24.4149    163.2188   1.2338302456e+02   3.8271845036e+01    0.2214956    0.1785237  77.66  0.000371773    1.101    0.092
       187 -10.5907     75.6148    161.8914   1.1147342851e+02   3.2430942904e+01     0.273877    0.2123108 -67.29 0.0006584189    1.227    0.185
       188 -10.5205    140.4645    160.9796   9.6047763877e+01   2.1361745059e+01    0.2701084    0.2047484  46.72   0.00048633    1.260    0.206
       189  -9.2904    126.3651    161.5088   9.9404381327e+01   2.3979207020e+01    0.1430884    0.1318939  85.70 0.0007942794    1.055    0.052
       190 -10.9177     37.6477    159.5600   1.2005381142e+02   3.7747819457e+01    0.5997164    0.1857179  48.97  0.002478398    3.201    0.688
       191 -10.7615     30.3035    154.5680   1.2121819191e+02   3.9642299638e+01    0.3915097    0.1920654  55.50  0.002040333    2.051    0.512
       192  -9.1934      4.4769    159.5040   1.2739481013e+02   4.0831708344e+01    0.1170007   0.08413927  84.92 0.0007966448    1.050    0.048
       193  -9.4872     65.9412    158.4552   1.1328776385e+02   3.4574517844e+01    0.1901136    0.1235349  43.13 0.0007594424    1.575    0.365
       194  -8.9692     68.7765    155.9934   1.1225927407e+02   3.4756211876e+01     0.164613   0.09933382 -67.44 0.0008319967    1.513    0.339
       195 -10.5156    112.8771    153.8151   1.0116473576e+02   2.8186350581e+01    0.2374231    0.2190659  76.84 0.0006703493    1.014    0.014
       196  -9.3507    207.2054    151.8083   7.9881732567e+01   9.2903132786e+00    0.1942452    0.1599309   8.34  0.000303026    1.276    0.216
       197  -9.3787     45.7794    151.7566   1.1724392565e+02   3.8637763701e+01    0.1689028    0.1214416  80.72  0.000303592    1.274    0.215
       198  -9.5851      1.4422    152.5522   1.2754130843e+02   4.2584955596e+01    0.1150015   0.08451129 -89.31  4.90171e-05    1.012    0.012
       199  -9.5945     72.5141    150.9984   1.1060075148e+02   3.5395122567e+01    0.2007042    0.1224361 -68.63 0.0005078042    1.518    0.341
       200  -9.3701     20.3217    150.3058   1.2310213346e+02   4.1551398256e+01    0.1146807   0.07970829 -52.49 0.0003521923    1.639    0.390
       201  -9.1873     39.2737    148.6482   1.1843484357e+02   4.0076581130e+01    0.1320064   0.08102719  77.32 0.0005295319    1.637    0.389
       202 -10.0742      5.6003    147.9657   1.2626202938e+02   4.3288666477e+01    0.2334502    0.1212494  54.47  0.001371923    1.893    0.472
       203 -10.8092     13.4592    143.2475   1.2403293792e+02   4.3734507217e+01    0.2904941    0.2002204  83.34  0.001855382    1.220    0.180
       204  -9.6778      4.8633    143.0807   1.2602568619e+02   4.4434163044e+01    0.1726195     0.117604  86.95 0.0004093593    1.162    0.139
       205  -8.8958     75.5599    142.5185   1.0846567200e+02   3.6949808111e+01    0.1379948    0.1222452 -79.19 0.0002010124    1.034    0.033
       206  -8.9542     21.3064    142.3046   1.2206613207e+02   4.3288225084e+01    0.1166358   0.07952728 -52.39 0.0006770923    1.603    0.376
       207 -11.6548     35.4496    139.3784   1.1824274232e+02   4.2631549711e+01    0.2736442    0.2047222  86.41  0.001701943    1.182    0.154
       208  -9.0380     82.2966    139.2915   1.0616215911e+02   3.6704752177e+01    0.1326935    0.1080301 -32.02 0.0002456205    1.558    0.358
       209 -10.6494    236.1514    137.7905   7.1445844179e+01   5.7481954371e+00    0.2072072    0.1929342 -47.32 0.0007033149    1.222    0.182
       210 -10.0335     49.7048    136.3165   1.1417632427e+02   4.1805190717e+01    0.2581392    0.1639847 -39.49   0.00131855    2.051    0.512
       211 -10.5487      8.9574    132.3821   1.2407186393e+02   4.6551446864e+01    0.3715657    0.1593683 -53.21  0.001596231    2.313    0.568
       212  -9.5448    249.2930    133.3623   6.8281195532e+01   3.8748362086e+00    0.1439289    0.1004175   0.76 0.0007029301    1.704    0.413
       213  -9.3150    105.0380    132.7729   9.8942256257e+01   3.4441127999e+01    0.2023862    0.1674172  75.25   0.00104644    1.282    0.220
       214  -9.3820    101.5405    131.5921   9.9609700100e+01   3.5341019855e+01     0.196971    0.1910513  85.60 0.0006297992    1.071    0.066
       215 -10.9262     40.3960    131.8096   1.1596322886e+02   4.3900152782e+01    0.3071491    0.2663025   5.19 0.0008487328    1.582    0.368
       216 -12.0145     28.0602    131.8753   1.1918800578e+02   4.5097277653e+01    0.3317716    0.2355039  65.32  0.002046862    1.429    0.300
       217  -9.3092     57.0557    131.9869   1.1156843583e+02   4.1950567919e+01    0.1601374    0.1362975 -78.66            0    1.004    0.004
       218  -9.9934     17.8533    131.1109   1.2171073056e+02   4.6156807439e+01    0.1796275    0.1324993  86.75 0.0002751103    1.169    0.145
       219 -10.9689     20.6281    126.5962   1.2047193553e+02   4.6975223806e+01    0.2593935    0.2086735 -43.38  0.001730525    1.481    0.325
       220 -10.7366     77.9895    129.3017   1.0544985668e+02   3.9729092345e+01    0.3579518    0.2187378  49.32  0.001446323    1.737    0.424
       221 -10.1485     91.8762    126.4268   1.0110425060e+02   3.8216110995e+01    0.2516433    0.1924315 -59.30 0.0002257513    1.222    0.182
       222  -9.5729     30.1738    125.7922   1.1784428487e+02   4.6327343825e+01    0.1649359     0.124157 -56.52 0.0004146046    1.293    0.227
       223 -11.3144      4.4929    124.1252   1.2437062869e+02   4.8743301849e+01    0.3387309     0.235679 -42.43  0.001077983    1.733    0.423
       224 -10.5438     22.1316    120.8566   1.1935400308e+02   4.8187389648e+01    0.5074635    0.2297521 -58.12  0.002197371    1.835    0.455
       225 -11.9828     19.0611    111.1269   1.1890146109e+02   5.0699403765e+01     1.034176    0.3344046 -56.43  0.003899522    2.408    0.585
       226 -10.2590     13.1301    109.7892   1.2040203528e+02   5.1445465511e+01    0.1863786    0.1303219 -82.60 0.0003146123    1.200    0.167
       227 -11.6031      9.2417    118.2427   1.2250139146e+02   4.9767914249e+01    0.3864935    0.1892413 -50.66 0.0006332736    2.012    0.503
       228 -10.4024      5.8777    114.9248   1.2302851498e+02   5.0752563523e+01    0.2385602    0.1496631 -62.43  0.001502505    1.319    0.242
       229 -11.6529      1.3780    115.8416   1.2433133856e+02   5.0824648547e+01    0.2533511     0.101839 -75.00            0    1.881    0.468
       230 -11.4408      5.2212    110.2813   1.2267480677e+02   5.1855939381e+01     0.352715    0.1990777 -52.48  0.001440767    1.648    0.393
       231 -11.2610     69.2596    123.1850   1.0667967797e+02   4.2447602958e+01    0.2321883    0.2109068 -78.08 0.0002631523    1.037    0.036
       232  -9.3548     15.7350    123.9245   1.2143731559e+02   4.7985085769e+01    0.1593442   0.08324709 -71.12 0.0008711494    1.485    0.326
       233 -10.7552    237.7122    121.3751   6.7368574811e+01   8.1101254645e+00    0.2529865    0.1839613  36.72  0.001293891    1.486    0.327
       234 -10.3324     92.2260    119.0894   9.9417222012e+01   3.9888104451e+01    0.3465449     0.268968 -88.19  0.001124029    1.469    0.319
       235  -9.4208     97.7898    118.9874   9.7853484430e+01   3.8954296641e+01    0.1984011    0.1786598 -62.16 0.0002905494    1.042    0.040
       236 -10.9347     55.2594    118.0555   1.0967118115e+02   4.5493915284e+01    0.2260759    0.1919108  42.18 0.0004061542    1.335    0.251
       237  -9.4240    123.2782    121.0287   9.1506292471e+01   3.3643742878e+01    0.2075594    0.1854455 -62.53 0.0002787641    1.102    0.092
       238  -9.8085     49.2346    117.1252   1.1122495770e+02   4.6422572814e+01    0.2267367    0.1372864  87.19  0.001078009    2.037    0.509
       239  -9.6295     30.1920    117.5620   1.1668262153e+02   4.8260806272e+01    0.1407572    0.1234011 -13.57 0.0003385576    1.509    0.337
       240  -9.4727    108.5003    115.0077   9.3971726689e+01   3.7922436629e+01    0.2221589     0.143509 -51.97 0.0003696375    1.483    0.326
       241  -9.6285     34.4677    115.2254   1.1512343228e+02   4.8413752420e+01    0.2168829     0.135769  60.22  0.001171738    1.843    0.458
       242  -9.7722     60.6309    114.2237   1.0740096240e+02   4.5738090179e+01    0.1940883    0.1105452 -54.95  0.000563122    1.541    0.351
       243 -10.1925     47.8494    111.7433   1.1066444612e+02   4.7857720410e+01    0.1929899    0.1624974 -51.23 0.0005752279    1.182    0.154
       244  -9.3880     31.5502    111.4800   1.1537215866e+02   4.9568410352e+01    0.1283952    0.1035438 -70.58 1.511835e-05    1.011    0.011
       245  -9.4101     92.5608    109.4784   9.7089536636e+01   4.2082497477e+01    0.1468569    0.1354529 -58.59 0.0001038584    1.015    0.015
       246  -9.3175     84.7519    108.4633   9.9106572889e+01   4.3617753788e+01    0.1856416    0.1441527  20.45 0.0009414083    1.593    0.372
       247 -10.6218     64.1698    106.8490   1.0484235384e+02   4.7026582937e+01     0.361653    0.2452344  83.10  0.001134321    1.954    0.488
       248  -9.4450     37.1320    108.2842   1.1321107181e+02   4.9794940748e+01    0.2186306    0.1066638 -37.43 0.0009473503    2.770    0.639
       249  -9.1888     83.6752    124.1647   1.0287548804e+02   4.0079934720e+01      0.20895    0.1161607 -49.71 0.0003918544    1.727    0.421
       250 -10.9331     47.5884    103.3782   1.0915451298e+02   4.9865476123e+01    0.5325571    0.1080873 -55.09  0.001546349    3.506    0.715
       251 -10.2057     35.7523    103.4656   1.1278072998e+02   5.1061360126e+01    0.3222575    0.1887888  78.00  0.001361372    2.349    0.574
       252  -9.6329     29.3966    103.6795   1.1474018690e+02   5.1590733267e+01    0.1865467   0.09291966 -58.89 0.0007107964    1.596    0.374
       253  -9.6084    100.5957    103.3309   9.3241094284e+01   4.2073465053e+01    0.2008815    0.1351692 -42.77 0.0005049011    1.457    0.313
       254 -10.2295    141.8788    100.9361   8.1483417767e+01   3.4021667051e+01    0.2242964    0.2192941 -46.03 0.0003270945    1.008    0.008
       255 -11.2559     41.5658     99.3701   1.1022525604e+02   5.1447937027e+01    0.3485046    0.2605474  20.44 0.0004833954    1.668    0.400
       256 -10.4152      8.8827     99.3785   1.2023457973e+02   5.4121602769e+01    0.2435577     0.161166  66.46 0.0009528254    1.721    0.419
       257  -9.7826      3.8311     98.1280   1.2156712357e+02   5.4709813142e+01    0.1737571    0.1331526 -89.38   0.00119284    1.208    0.172
       258 -10.6499    104.4429     92.2057   8.9100387333e+01   4.3840582731e+01    0.5539213     0.258634 -44.89  0.002148964    2.037    0.509
       259 -10.3029     23.0488     95.9338   1.1537895637e+02   5.3917420259e+01    0.1825053    0.1476243 -68.88 0.0002911593    1.028    0.027
       260 -11.7347     47.1722     94.4157   1.0743406502e+02   5.2009443286e+01    0.4005934     0.233167  35.54  0.001768469    1.972    0.493
       261  -9.2998     39.0062     94.9819   1.1016153430e+02   5.2729073912e+01    0.1451625    0.1388042 -60.21 0.0007392004    1.155    0.134
       262 -10.4011      1.6110     92.9709   1.2154860761e+02   5.6000574419e+01    0.2730538    0.1215936 -82.70  0.001007088    2.118    0.528
       263  -9.6355     17.2962     91.5575   1.1645110363e+02   5.5352539606e+01    0.1394019    0.1136348 -23.09  0.000929421    1.486    0.327
       264 -10.6624      6.9420     90.1260   1.1949543465e+02   5.6345945567e+01    0.2676942      0.14881 -75.48  0.001124886    1.480    0.324
       265 -10.6152      2.7610     87.3272   1.2039918669e+02   5.7210794516e+01    0.2524525    0.1506292 -72.11 0.0009378617    1.293    0.226
       266  -9.4657    118.0008     90.2244   8.4679348373e+01   4.1539154653e+01    0.2095212    0.1946794  36.30 0.0004747892    1.117    0.105
       267 -10.2051     20.1438     81.8270   1.1376248627e+02   5.7362806757e+01    0.2116454    0.1725901  78.97 0.0005769697    1.409    0.291
       268 -11.0874     26.9145     87.4741   1.1259653274e+02   5.5554213992e+01    0.4920708    0.3984762 -50.79  0.002574781    1.126    0.112
       269 -11.5361     21.2949     87.9191   1.1452548876e+02   5.5893773479e+01    0.1964188     0.189917 -74.52 0.0001521754    1.215    0.177
       270 -10.3704     87.7574     88.6973   9.3107154901e+01   4.7644112089e+01    0.2846383    0.2397954 -38.48 0.0005419077    1.134    0.118
       271 -10.2397     10.9897     85.9295   1.1753965720e+02   5.7052001150e+01    0.3171789    0.1844477  86.11  0.001722466    2.024    0.506
       272  -9.5055    123.5073     87.4670   8.2354447017e+01   4.0942323500e+01    0.1534119    0.1488714 -54.91 0.0002239007    1.039    0.037
       273 -10.6869    155.1129     85.2993   7.3777761733e+01   3.4042388376e+01    0.2641681    0.2201551 -43.37 0.0003591518    1.190    0.160
       274  -9.2491    129.6673     85.7051   8.0180232638e+01   3.9944143596e+01    0.1576229    0.1233024   7.86 0.0002335014    1.639    0.390
       275 -11.9770     50.1932     83.3106   1.0387383645e+02   5.4219349481e+01    0.3875211    0.2811247  -0.06 0.0006575722    1.809    0.447
       276  -9.5949     14.5601     83.7556   1.1599306535e+02   5.7314666470e+01     0.162322   0.09811827 -77.25 0.0004086643    1.520    0.342
       277 -10.6937     73.3211     81.1029   9.5554371789e+01   5.1642461658e+01    0.4520486    0.2427366 -35.68  0.001951905    2.052    0.513
       278  -9.2995     95.0422     81.9833   8.8912816370e+01   4.7821369615e+01    0.1703373    0.1648082  20.85 0.0004316761    1.093    0.085
       279 -10.3244     44.0153     80.5609   1.0530606117e+02   5.5522703356e+01    0.3029897    0.1785299 -44.97  0.001233855    1.505    0.335
       280  -9.5321     58.0033     81.1519   1.0067877391e+02   5.3759848913e+01    0.2152095    0.1482263 -10.16    0.0010054    2.000    0.500
       281  -8.9362      2.6941     80.7495   1.1942038403e+02   5.8686926004e+01    0.1138013   0.06844492 -46.45 0.0006891378    1.506    0.336
       282  -9.8014     55.0177     78.0297   1.0086525129e+02   5.4828463434e+01    0.2082442    0.1717069 -44.84 0.0003860365    1.057    0.054
       283 -10.4350     52.3414     75.4338   1.0109330573e+02   5.5726570892e+01    0.2881021    0.2089766 -25.68   0.00114511    1.509    0.338
       284 -10.3305     18.3515     75.2886   1.1307814472e+02   5.8957390508e+01    0.5211288    0.1913163 -56.52  0.002488488    1.965    0.491
       285  -9.8273     28.8397     75.2620   1.0936181890e+02   5.8154131559e+01    0.4107457    0.1412898 -53.59  0.001819483    2.160    0.537
       286 -10.9456     63.1215     75.5825   9.7397839931e+01   5.4315368939e+01    0.3961403     0.253181  46.07  0.001585552    1.878    0.467
       287 -10.2141     69.6920     74.2521   9.4767115646e+01   5.3671954939e+01    0.2120434    0.1911427 -62.98 0.0004309447    1.185    0.156
       288  -9.3577     93.2159     74.5897   8.7195170004e+01   4.9711126351e+01    0.2034397    0.1463617  41.51 0.0002584986    1.482    0.325
       289  -9.4885     95.0259     71.5269   8.5648856704e+01   5.0002986071e+01     0.225897    0.1825033  12.28 0.0004081946    1.412    0.292
       290  -9.2252    169.0052     72.6680   6.6945242610e+01   3.2900407174e+01    0.1932294    0.1450969  56.82 0.0008869314    1.337    0.252
       291 -11.0399     88.6822     70.9602   8.7467789359e+01   5.1275654578e+01    0.4506697    0.2382597 -54.55 0.0004469957    2.144    0.534
       292 -11.3428     42.9345     70.4736   1.0310219181e+02   5.7872565116e+01    0.4022666    0.2384355 -20.30 0.0009349782    2.302    0.566
       293 -10.2240    204.8785     69.5281   5.9459150214e+01   2.4318340568e+01    0.2471026    0.1979493 -37.10 9.276674e-05    1.206    0.171
       294 -11.0794     79.7053     69.9809   9.0081122763e+01   5.3013068558e+01    0.2258897     0.213097   6.00  0.000306643    1.111    0.100
       295 -11.1186     52.4442     69.6790   9.9446169257e+01   5.6966768877e+01    0.2358527    0.2116341 -62.57 0.0004040234    1.185    0.156
       296 -10.6600      1.5580     68.4833   1.1773245207e+02   6.1448517255e+01     0.388652     0.117989 -68.51  0.001723064    2.550    0.608
       297  -9.4055     64.1984     69.5747   9.5246319957e+01   5.5456970022e+01    0.1761506    0.1304324  12.94  0.000825069    1.609    0.378
       298 -10.7422     56.6160     66.8193   9.7099323795e+01   5.7056274243e+01    0.3051391    0.2383684 -83.86   0.00107994    1.779    0.438
       299 -10.4417    105.8185     67.0274   8.0879545877e+01   4.8780724891e+01    0.2393871    0.2087187  39.75 0.0004543708    1.186    0.157
       300  -9.7607     75.3401     66.1646   9.0317176673e+01   5.4502030200e+01    0.2170409    0.1837614   9.41 0.0003755651    1.275    0.215
       301 -10.3214     15.4857     65.5158   1.1202118256e+02   6.1301520332e+01    0.2477822    0.1948508  43.76  0.001670562    1.632    0.387
       302  -9.4576     30.0279     70.2391   1.0774721711e+02   5.9163311192e+01    0.1658713    0.1368067 -48.24 0.0002055438    1.041    0.040
       303 -10.6467     31.1025     64.7019   1.0594232210e+02   6.0272564823e+01    0.2841914    0.2292419  28.72  0.001855069    1.497    0.332
       304 -13.2060     24.1884     57.7217   1.0674855022e+02   6.2338900961e+01    0.3953909    0.2538655 -50.33 0.0005338754    1.218    0.179
       305  -9.7318     28.9303     53.4752   1.0365302823e+02   6.2827104077e+01     0.204787    0.1474476 -59.07 0.0007458269    1.309    0.236
       306 -12.1336      6.3588     60.0575   1.1427753371e+02   6.3023733415e+01       0.6844    0.5807948 -47.25  0.004236293    1.140    0.123
       307 -11.1614     20.0268     40.8976   1.0350549243e+02   6.6083489362e+01    0.4844852    0.4014136  74.78  0.003230828    1.852    0.460
       308 -10.1685      4.4511     32.5301   1.0791714392e+02   6.8736002104e+01    0.3762743    0.2057077 -16.04  0.002259533    2.046    0.511
       309 -11.6120      7.3189     51.2195   1.1185357542e+02   6.4834650432e+01    0.4249464    0.3490651 -21.05  0.001755531    1.313    0.238
       310 -11.6345      5.8670     38.9659   1.0920257381e+02   6.7402050261e+01    0.5111376    0.3664447  26.00  0.003071985    1.775    0.437
       311 -11.6803     17.1781     46.9750   1.0660113374e+02   6.5084503165e+01    0.4427117    0.2991219   7.76  0.002261446    1.752    0.429
       312 -12.7976     13.5724     36.4876   1.0496126656e+02   6.7410238740e+01    0.3563958    0.2147272 -56.68  0.001435389    1.452    0.311
       313 -10.0577     98.4914     60.9322   8.1004651117e+01   5.1406260795e+01    0.2106472    0.1370648 -38.33 -9.343438e-05    1.465    0.318
       314  -9.7092     73.4990     61.4262   8.9376110943e+01   5.5747656482e+01    0.2196212    0.1777503  -6.75  0.000693524    1.323    0.244
       315 -10.3955     70.1827     60.1499   9.0104017000e+01   5.6516528335e+01    0.3273911    0.2136925  39.02  0.001281007    1.695    0.410
       316  -9.7984     16.6171     60.2851   1.1036894526e+02   6.2352005479e+01    0.2101714      0.13023 -75.87 0.0009619233    1.776    0.437
       317 -10.3833     31.9446     59.1273   1.0409595178e+02   6.1382713844e+01    0.2396772    0.1991714  52.37  0.001553734    1.588    0.370
       318  -9.4153    132.9963     58.9727   7.0714854217e+01   4.4206439726e+01    0.1833224    0.1686411 -26.85 0.0003445911    1.083    0.076
       319  -9.2322    238.4573     58.5587   5.1815795597e+01   1.7869526213e+01    0.1403918    0.1265672 -53.57 0.0001139781    1.009    0.009
       320  -9.0739     44.9455     58.4450   9.8861585658e+01   6.0205942081e+01    0.1578546    0.1064759  57.69 0.0008044488    2.327    0.570
       321  -9.5721    209.8632     57.4909   5.5376759895e+01   2.4941055611e+01    0.2041842    0.1448503  66.30 0.0003848811    1.440    0.305
       322 -10.5283     53.1846     55.7591   9.4848999198e+01   5.9768475844e+01    0.3238989    0.2361721 -88.13   0.00160903    2.498    0.600
       323 -11.2039     94.1688     50.2949   7.8512954257e+01   5.4173109819e+01    0.6406834    0.3208126 -27.48   0.00117544    2.259    0.557
       324 -10.1112     33.1957     54.6872   1.0230450128e+02   6.2190264246e+01    0.1705699    0.1586504  50.16  0.001175422    1.393    0.282
       325 -10.2363    151.2424     53.2891   6.4570836771e+01   4.0648391579e+01    0.2457629    0.2159416  29.27 0.0003188844    1.188    0.158
       326 -11.6622     42.2527     51.4838   9.7677083040e+01   6.1915080829e+01    0.7011977    0.3512508 -20.55  0.002872877    3.260    0.693
       327 -10.2817     60.6382     52.0464   9.0757262744e+01   5.9500427764e+01    0.2266757     0.185871  11.95 0.0005268596    1.288    0.223
       328  -9.3824    123.1226     51.2976   7.0559513033e+01   4.7807649420e+01    0.3161054    0.1997202  83.56  0.001164127    3.045    0.672
       329  -8.9325    156.2762     50.6945   6.2658609462e+01   3.9770403681e+01    0.1516759    0.1159608 -66.18            0    1.547    0.354
       330 -10.6921     65.5859     49.5021   8.7998274186e+01   5.9262007141e+01    0.2524818    0.1945798 -21.40 0.0007088477    1.225    0.183
       331 -10.5480    114.6750     47.0887   7.1287611794e+01   5.0407930874e+01    0.3082761    0.2106304 -30.52  0.001021519    1.455    0.313
       332  -9.7875     31.4875     47.9774   1.0090470078e+02   6.3708612907e+01    0.1671016    0.1390061 -31.57 -0.0001486752    1.068    0.064
       333 -12.7418     12.4364     43.9343   1.0774816327e+02   6.6018088495e+01    0.3214042    0.1729476 -48.06 0.0003663971    1.386    0.278
       334  -9.0534    165.2782     46.2967   5.9465587211e+01   3.8104550589e+01    0.1495836     0.114565  25.79 0.0002196086    1.534    0.348
       335 -11.0514     61.9550     44.8440   8.7609689200e+01   6.0655661655e+01    0.3126017    0.2145002 -32.68 0.0005889559    1.294    0.227
       336  -9.3935    122.9589     45.5267   6.8522710105e+01   4.8762379003e+01    0.2180112    0.1407434  50.11 0.0007414711    1.514    0.340
       337  -9.9396    199.8786     43.7676   5.3002834406e+01   2.9464791154e+01    0.2090657    0.1937983  46.97 0.0003262908    1.167    0.143
       338  -9.1280    192.4981     44.4902   5.4302501368e+01   3.1269465474e+01    0.1469259    0.1407835 -85.12 0.0008105467    1.018    0.018
       339  -9.3292    108.6064     43.8249   7.1755318637e+01   5.2261808346e+01    0.2075838    0.1285826 -42.50 0.0009487113    1.706    0.414
       340 -10.5421     69.8087     42.6002   8.3822641542e+01   5.9847041849e+01    0.3883843    0.2093938 -19.04  0.001340676    2.555    0.609
       341  -9.7042     33.0208     43.5610   9.8789417273e+01   6.4428962025e+01    0.2128218    0.1724901  48.42  0.001161228    1.720    0.419
       342  -9.1759     29.7049     42.7302   9.9915748140e+01   6.4905322390e+01    0.1220772   0.07661784 -27.63  0.000230602    1.517    0.341
       343 -11.8914    103.5466     39.2059   7.1429271215e+01   5.4061145408e+01    0.3437082    0.2356341 -27.68 0.0004167785    1.438    0.305
       344  -9.2482     53.0308     42.9572   9.0349044393e+01   6.2242641211e+01     0.152161    0.1265754 -26.24 0.0009476428    1.012    0.012
       345  -8.9191    152.0000     40.9437   6.0290377861e+01   4.2296311957e+01    0.2374364   0.08543141 -29.46  0.000792455    2.874    0.652
       346  -9.9980     91.2261     40.8497   7.5817957864e+01   5.6320402943e+01    0.2339768    0.1926754  55.00  0.001296089    1.423    0.297
       347 -10.2297     39.5952     40.1898   9.4804845820e+01   6.4384318062e+01    0.3887585    0.2037604   5.16  0.001241675    3.078    0.675
       348  -9.3824     40.9813     36.2479   9.2717274627e+01   6.4948956344e+01    0.3375831    0.2116144 -65.68  0.001628248    2.794    0.642
       349 -10.2057    117.8501     38.8626   6.7371427007e+01   5.0943316688e+01     0.370227    0.1710035  54.49 0.0009975161    2.156    0.536
       350  -9.7718     82.2261     38.9836   7.8020368663e+01   5.8318823062e+01    0.1953271    0.1723938 -37.95 0.0004767523    1.236    0.191
       351 -10.2522     85.9498     37.2106   7.6064422875e+01   5.7907579328e+01    0.2207376    0.1799028 -23.02  0.000428894    1.149    0.130
       352  -9.7736    156.0440     36.9679   5.8165117971e+01   4.1802680256e+01    0.2219933    0.2074114  49.35 0.0003850108    1.040    0.039
       353 -11.2873     75.8668     33.4909   7.7949037136e+01   6.0323832393e+01    0.3991491    0.2795271   9.02  0.002124644    1.578    0.366
       354 -12.2181    193.9517     35.1994   5.1391708531e+01   3.2148749365e+01    0.2805998    0.2555842 -83.86 0.0003640659    1.042    0.040
       355  -9.4890    198.3882     35.2832   5.0801162010e+01   3.0990516050e+01    0.2588678    0.1565616  46.98 0.0006066032    1.808    0.447
       356  -9.4213    175.5925     35.7851   5.4343985278e+01   3.6865156073e+01    0.2168505    0.1275372 -42.24 0.0009497332    1.720    0.419
       357 -10.1176    131.1199     36.2594   6.3152223177e+01   4.8168958901e+01    0.3917606    0.1913722  60.65 0.0007764668    2.117    0.528
       358  -9.2691     55.5490     29.5226   8.3891016089e+01   6.4202981798e+01    0.2066313    0.1106419 -36.03 0.0006038428    1.667    0.400
       359 -10.9095     59.8475     33.6792   8.3958820797e+01   6.2897494076e+01    0.4070889    0.2468899  -4.61   0.00195375    2.209    0.547
       360 -10.7584     55.0110     33.4352   8.5767904985e+01   6.3639896907e+01    0.2349716    0.2023386 -36.50 0.0001871284    1.248    0.199
       361  -9.4779    120.3129     34.3326   6.5030953353e+01   5.1011647033e+01     0.152811    0.1050701  21.21 0.0007044859    1.680    0.405
       362  -9.6747     47.7385     34.4213   8.9144165729e+01   6.4450376885e+01    0.1572908    0.1111796   9.60 0.0004432381    1.510    0.338
       363 -11.1328    142.5678     31.2296   5.8855695125e+01   4.5995282822e+01    0.3484572    0.2582854 -18.87 0.0006513263    1.449    0.310
       364 -10.1165     87.8462     33.2109   7.3809234766e+01   5.8151642968e+01    0.3031507    0.1565275  49.52  0.001198179    2.046    0.511
       365  -9.3816     66.4753     33.0611   8.1169363809e+01   6.1970633707e+01    0.1944726    0.1169405 -34.09  0.000491331    1.521    0.342
       366  -9.6341    233.2421     32.0663   4.5793430414e+01   2.2720083072e+01    0.1894504    0.1608931 -57.28 0.0003229702    1.050    0.048
       367 -11.6674    201.6633    244.7262   9.7923514624e+01  -3.7544949822e+00    0.2768919    0.1912973  32.72 0.0005490197    1.131    0.116
       368 -10.5635    159.0349     30.2667   5.5386549034e+01   4.1895258142e+01    0.2545328    0.2077427 -35.38  0.000561827    1.273    0.214
       369  -9.9904     33.2150     29.9275   9.3603839725e+01   6.6924847838e+01    0.3137736    0.1892285 -60.96  0.001612995    2.479    0.597
       370  -9.8978     24.4958     30.9867   9.7999351986e+01   6.7583321627e+01    0.1706716    0.1432075 -16.65 0.0007399017    1.145    0.126
       371 -10.2974    210.8900     29.2925   4.7550639688e+01   2.8561641103e+01    0.3589565    0.1992277  26.75  0.001279271    3.383    0.704
       372 -10.7231    138.9792    247.8737   1.0950522740e+02   5.8381992274e+00    0.3131349    0.1631123  30.98  0.001615997    2.200    0.545
       373 -10.1477     19.4287     29.4767   9.9790978589e+01   6.8290179698e+01    0.2127157    0.1889007 -67.59 0.0007794089    1.528    0.346
       374  -9.7953     78.2588    247.9793   1.2018349224e+02   1.4883399244e+01    0.2565755    0.1324692 -86.09 0.0009979029    2.285    0.562
       375 -10.2984    181.5684     27.8793   5.1000150409e+01   3.6299087199e+01     0.314088    0.1824317 -24.89   0.00140422    1.864    0.464
       376 -10.2458     70.8052     28.9496   7.7814514824e+01   6.1889372381e+01    0.2783108    0.1866868  44.39  0.001521061    1.633    0.387
       377 -11.6567     48.4855     26.6778   8.5554936344e+01   6.5642065716e+01    0.3773256    0.2991287  69.75  0.002132716    2.465    0.594
       378 -10.4025    164.5759     26.4639   5.3191978905e+01   4.0916167676e+01    0.2418788    0.1376122  66.68 0.0001017103    1.685    0.406
       379  -9.4680    100.0300     27.0341   6.7553493517e+01   5.6529281606e+01    0.1681587    0.1507327  16.38 0.0004898172    1.009    0.009
       380 -10.3202    221.1337     28.7053   4.6229143631e+01   2.6079388139e+01    0.2370308    0.1615663 -77.12  0.001197315    1.517    0.341
       381 -10.3227     73.4759    244.4462   1.2072334276e+02   1.6129332301e+01     0.208748    0.1434907  66.90 0.0007681124    1.143    0.125
       382 -11.6166     76.2772    241.6356   1.2001427427e+02   1.6227748903e+01    0.3145135    0.1774139  65.83 0.0007348613    1.559    0.359
       383 -10.0690    204.6401     25.9124   4.7374609042e+01   3.0562064785e+01    0.2716555    0.1406825 -16.68  0.001102553    2.538    0.606
       384 -10.0566     38.9028     26.3743   8.9569703677e+01   6.6897557050e+01    0.2286465    0.1399979   9.90  0.001274948    1.880    0.468
       385 -10.2847    170.2235     23.4776   5.1336512796e+01   3.9790730199e+01    0.3145858    0.2066834 -71.41 0.0008136866    1.834    0.455
       386 -10.9666    226.8823     22.1482   4.3955546522e+01   2.5471875245e+01    0.2239998    0.2078383 -13.09 0.0007650577    1.296    0.229
       387 -10.5539    190.0611     20.2820   4.7587154572e+01   3.4976763791e+01    0.2362031    0.1781978  58.64 0.0002738407    1.290    0.225
       388 -10.3960    192.8231     17.2003   4.6355326916e+01   3.4606125338e+01    0.2275603    0.2192766 -75.26 0.0003985168    1.084    0.078
       389 -11.2801    176.0545     21.9962   5.0004105025e+01   3.8435105537e+01    0.3809191    0.2256346  44.40   0.00140012    1.807    0.446
       390 -10.2299    153.6448     22.9797   5.3896954877e+01   4.4161449400e+01    0.2455605    0.1818568  49.95 0.0004257888    1.278    0.217
       391 -10.6548    132.5303     22.1233   5.7639756943e+01   4.9601290609e+01    0.2720695    0.2213565 -69.17  0.001115645    1.488    0.328
       392 -12.1821    116.9121     22.4707   6.1276066514e+01   5.3316762446e+01    0.2574514    0.2289176  -8.70  0.001496267    1.136    0.120
       393 -10.1425     62.3551     22.9048   7.8272841401e+01   6.4171225585e+01    0.2433713    0.1684852  23.95 0.0009879618    1.424    0.298
       394 -10.8252     27.1235     21.4598   9.2866631034e+01   6.8993418169e+01    0.3125075    0.1672796 -19.16  0.001204771    2.070    0.517
       395  -9.8422     40.5750     21.5522   8.6685452713e+01   6.7473325889e+01    0.1728072    0.1466916  15.24 3.508384e-05    1.275    0.216
       396 -10.3126     36.3989     21.3581   8.8481408847e+01   6.8006088447e+01    0.2802802    0.1743949  15.45  0.000639923    1.725    0.420
       397  -9.9234    249.0584    246.6403   9.0178226949e+01  -1.0998537619e+01    0.1557491    0.1092011  21.81 0.0006597169    1.074    0.068
       398 -10.6395    219.7173     19.9954   4.4126428768e+01   2.7477822795e+01     0.199127    0.1695365 -55.08 0.0008608487    1.095    0.087
       399  -9.1571     93.6306     20.3047   6.6561918170e+01   5.8726274564e+01    0.1293483    0.1074147 -70.74 0.0006535655    1.751    0.429
       400 -10.3224    199.0141     18.3899   4.5954803493e+01   3.2879376564e+01    0.2251989    0.2046512  -1.30  0.001314335    1.310    0.237
       401  -9.6277    101.8172     19.1134   6.3753883305e+01   5.7122139462e+01    0.1830262    0.1761055  -9.03 0.0003450227    1.155    0.134
       402  -8.5945     89.4505     19.4718   6.7442553468e+01   5.9685790538e+01    0.1325357    0.1191513  10.01 -1.956215e-05    1.051    0.049
       403 -10.1435     60.7429     18.1393   7.6681344840e+01   6.5095730025e+01    0.3391597    0.1515179  36.36  0.001213791    2.265    0.559
       404 -10.0591     46.2300     17.8680   8.2485100463e+01   6.7293926876e+01    0.2257204    0.1950982  70.13  0.001419832    2.094    0.522
       405 -10.9722    179.6236     13.7200   4.6990268759e+01   3.8406231232e+01    0.2720859    0.1841724  69.52 0.0007581875    1.357    0.263
       406  -9.2142    210.5001    246.5043   9.6645020418e+01  -5.3393504591e+00    0.1719353   0.09264725  45.05 -0.0002358186    1.721    0.419
       407 -10.5873    207.0563    245.5288   9.7099102326e+01  -4.6926360886e+00    0.1669593    0.1411944   3.75  0.000631101    1.220    0.180
       408 -10.0149     93.7843    234.4520   1.1625564015e+02   1.4979149923e+01    0.1920653    0.1463372 -79.04 0.0005108023    1.404    0.288
       409  -9.0841    157.6755     17.3166   5.1315518693e+01   4.3743927894e+01    0.1478824    0.1038751 -66.20 0.0004064351    1.669    0.401
       410 -10.3558    229.9209     16.1491   4.2174054125e+01   2.5439073697e+01    0.2120559     0.153164 -62.17 0.0005256839    1.260    0.206
       411 -10.3824     97.4768    245.0446   1.1659633525e+02   1.2643142976e+01    0.2468272    0.1396058 -69.79  0.001499893    2.050    0.512
       412 -10.0750    104.5073    238.5054   1.1470775777e+02   1.2684376499e+01    0.1806774    0.1132691 -67.95  0.001112558    1.839    0.456
       413  -9.2351     23.2240     16.2648   9.2444833469e+01   7.0225414788e+01    0.1650878    0.1139155 -25.26 0.0007594332    1.142    0.125
       414 -10.4389     96.4892    238.9515   1.1619887751e+02   1.3806937324e+01    0.3213873    0.1493915  57.39 0.0009557738    1.957    0.489
       415  -9.9043    127.6041     14.7363   5.5890959576e+01   5.1611542577e+01    0.1838063    0.1270377 -33.86 0.0005154301    1.550    0.355
       416  -9.8583    101.7020    235.6711   1.1493219793e+02   1.3588284939e+01    0.3126788    0.2421663 -18.98   0.00185652    2.545    0.607
       417  -9.4088    106.2597    235.3287   1.1406299859e+02   1.2954803384e+01    0.2375644    0.1331903  36.67 0.0004026532    1.784    0.440
       418  -9.6346    106.4318    244.3019   1.1493928182e+02   1.1435775418e+01    0.1384127    0.1015135  86.57 0.0004750463    1.460    0.315
       419  -9.8105     88.9941     13.7559   6.5044753154e+01   6.0443555026e+01      0.18177    0.1496738  33.23 0.0001930933    1.110    0.099
       420 -10.4364    145.8288    242.8365   1.0767648089e+02   5.4940145623e+00    0.1698437    0.1408982  36.71 0.0004571995    1.162    0.139
       421 -10.7033     91.7421    242.3288   1.1735975525e+02   1.3929793605e+01    0.2220785    0.1552911  60.96   0.00042045    1.124    0.111
       422 -11.0041    147.3343     13.2914   5.1662281211e+01   4.6820932058e+01    0.2194034    0.1860652  37.87  0.000520856    1.170    0.146
       423 -10.1355     62.4575    242.9827   1.2249485272e+02   1.7840676343e+01    0.2010142    0.1095171  58.88 0.0007497205    1.416    0.294
       424  -9.8340     51.4740     13.0873   7.7942404122e+01   6.7210069901e+01    0.1876787    0.1058942 -28.95  0.001032982    1.594    0.373
       425  -9.9634     32.0029     12.9108   8.6555344873e+01   6.9813418511e+01    0.1851341    0.1449465 -11.63  0.001237788    1.038    0.037
       426  -9.6271    185.6843    242.3413   1.0041153260e+02  -9.0717505726e-01    0.1134749    0.0866884  62.94 0.0003573818    1.707    0.414
       427 -10.2737    110.3944    241.2755   1.1392524068e+02   1.1329924741e+01     0.251937    0.1788462  77.72 0.0008884693    1.476    0.322
       428  -9.1333     26.4109     12.4801   8.9071569787e+01   7.0495145399e+01    0.1172428   0.08889158 -20.05 4.397939e-05    1.017    0.017
       429  -9.9483     55.1084    241.5627   1.2363875877e+02   1.9026084219e+01    0.2027233    0.1131018  83.90 0.0009084662    1.692    0.409
       430 -10.7422    247.9468    240.5869   8.9401405714e+01  -1.0221208141e+01    0.2647843    0.1879169  48.12   0.00153591    1.937    0.484
       431 -10.1746    197.7644    240.5930   9.8007977551e+01  -2.6218811007e+00    0.2001693    0.1209943  42.91 0.0004009614    1.414    0.293
       432 -10.3784    134.1723    240.8098   1.0955687393e+02   7.6786759716e+00    0.1522523    0.1277984  30.24 0.0003472012    1.323    0.244
       433 -10.4546    119.4803    240.9363   1.1224561780e+02   9.9823959897e+00    0.1898354    0.1232107  46.79 7.032976e-05    1.224    0.183
       434  -9.5357    191.6246    241.3126   9.9204581020e+01  -1.7298112905e+00     0.116737   0.08545214  60.25 0.0007030412    1.790    0.441
       435 -10.4479    137.9707    239.9874   1.0876563748e+02   7.1961755019e+00    0.1822829    0.1457405  51.72 0.0003448371    1.040    0.039
       436 -10.8711    143.4081    237.8191   1.0750328557e+02   6.6495983942e+00    0.4882604    0.1393315  43.58  0.001982775    2.766    0.638
       437 -10.0593     33.6508    239.7721   1.2708995643e+02   2.1911497945e+01    0.1699574    0.1389893  80.06  0.001384266    1.288    0.224
       438  -9.3224    225.6986    239.7165   9.2999896511e+01  -6.8708485038e+00    0.1173153   0.07339258  15.45 0.0002155735    1.552    0.356
       439  -9.8763    167.8377    238.2911   1.0307774765e+02   2.5629880917e+00    0.1775925    0.1643654  85.62  0.000805611    1.358    0.263
       440  -9.4504     63.8440    238.6965   1.2194066378e+02   1.8405780603e+01    0.1637692    0.1183265  45.72   0.00114999    1.375    0.273
       441  -9.7159    220.6858    238.3165   9.3644347300e+01  -5.9436625986e+00    0.1042508   0.08875612  54.49 0.0005310722    1.646    0.392
       442  -9.6520    190.6704    238.2968   9.8938651748e+01  -1.1814627712e+00    0.1140738   0.08653595  58.77 0.0002204675    1.636    0.389
       443  -9.5749     84.0811    238.0556   1.1833633312e+02   1.5756540930e+01    0.1961372    0.1050763  63.80  0.001123039    1.719    0.418
       444  -9.8290     46.6208    238.4794   1.2486253808e+02   2.0615729942e+01    0.1432365   0.08440619  49.83 0.0001348058    1.384    0.277
       445  -9.1570     44.3609    235.8475   1.2507336877e+02   2.1355986249e+01    0.2132307    0.1502917  77.64  0.001577268    1.122    0.109
       446 -10.5193    187.0405    235.7092   9.9215836540e+01  -2.4226013911e-01    0.1755011    0.1333874  36.38 0.0005608379    1.062    0.058
       447  -9.5156    160.3400    236.3000   1.0418531291e+02   4.0921843712e+00    0.1206604    0.0865222  19.13 0.0002950766    1.667    0.400
       448  -9.6593    156.6732    233.4506   1.0448253185e+02   5.1292059848e+00    0.1749764    0.1170496 -50.79 0.0007705881    1.852    0.460
       449 -10.7565     17.6496    233.0466   1.2933536500e+02   2.4850973489e+01    0.2102427    0.1527655  51.16  0.001041819    1.388    0.279
       450  -9.6644    230.3421    233.3268   9.1189549885e+01  -6.8373254500e+00    0.1816174     0.110963  13.49 0.0006570418    1.664    0.399
       451  -9.1639    197.3081    233.6381   9.7052009279e+01  -1.6478848994e+00    0.1128512   0.09208332  66.68 0.0007039874    1.741    0.426
       452 -10.0360    173.7651    233.4132   1.0131115353e+02   2.2789961498e+00     0.184153   0.09753404  34.01 0.0009543163    1.705    0.413
       453 -10.9280     72.8475    226.1445   1.1931435491e+02   1.9456733938e+01    0.3615949    0.1554278  55.18  0.001459924    1.985    0.496
       454 -11.7887     47.5508    231.2343   1.2422108595e+02   2.1802537300e+01    0.3305348    0.1600742  68.09  0.001926945    1.833    0.455
       455 -10.0797     41.6729    231.7166   1.2526343739e+02   2.2420691612e+01    0.1643419    0.1300219  86.10 0.0002940519    1.234    0.190
       456 -10.0123     39.6981    229.6362   1.2546737537e+02   2.3032702783e+01    0.1796109    0.1272817  86.51 0.0006618908    1.204    0.170
       457 -10.0676    143.6745    232.2134   1.0674708671e+02   7.4837541911e+00    0.4292991    0.1236275  43.90  0.001709368    2.785    0.641
       458 -10.7986     29.5749    231.0193   1.2726578436e+02   2.3934639886e+01    0.2205671    0.1426598 -85.03 0.0009651866    1.379    0.275
       459 -10.1569    243.8275    231.1456   8.8546692155e+01  -8.6061962620e+00    0.1598057    0.1367401  12.84 0.0004761077    1.231    0.188
       460  -9.0595    159.6031    230.5389   1.0353960199e+02   5.0818317811e+00    0.1231016    0.1019438  45.37 -7.188513e-05    1.044    0.042
       461 -10.3019    153.3420    226.3905   1.0414806875e+02   6.7873083017e+00    0.1949579    0.1777818  41.47 0.0003094204    1.113    0.101
       462  -9.9918    111.3085    227.6967   1.1229804210e+02   1.3487397207e+01      0.21976    0.1476564 -77.74  0.001093543    1.725    0.420
       463 -10.3514    108.7908    225.1794   1.1249182264e+02   1.4326272810e+01    0.2117361    0.1860257  76.97 0.0003721227    1.147    0.128
       464  -9.8148     93.5981    227.7508   1.1562802772e+02   1.6190886854e+01    0.2041092    0.1082105 -60.54  0.001135566    2.127    0.530
       465  -8.7764     55.4540    228.4884   1.2264067029e+02   2.1322749165e+01    0.1133858   0.08610962  69.44 2.736404e-05    1.041    0.040
       466  -9.2840    175.3118    227.6788   1.0019308541e+02   2.8529659678e+00    0.1201964   0.09135633  65.26   0.00046484    1.651    0.394
