#   1 NUMBER                 Running object number                                     
#   2 MAG_AUTO               Kron-like elliptical aperture magnitude                    [mag]
#   3 X_IMAGE                Object position along x                                    [pixel]
#   4 Y_IMAGE                Object position along y                                    [pixel]
#   5 X_WORLD                Barycenter position along world x axis                     [deg]
#   6 Y_WORLD                Barycenter position along world y axis                     [deg]
#   7 A_WORLD                Profile RMS along major axis (world units)                 [deg]
#   8 B_WORLD                Profile RMS along minor axis (world units)                 [deg]
#   9 THETA_WORLD            Position angle (CCW/world-x)                               [deg]
#  10 FWHM_WORLD             FWHM assuming a gaussian core                              [deg]
#  11 ELONGATION             A_IMAGE/B_IMAGE                                           
#  12 ELLIPTICITY            1 - B_IMAGE/A_IMAGE                                       
         1 -13.6016    221.4548      8.1020   3.5507267455e+01   2.9251212674e+01     1.345389     1.058469  50.26  0.005636011    1.532    0.347
         2 -14.2726    195.6267     37.9574   4.5688679045e+01   3.1852748337e+01     2.268286     1.504619  23.07   0.01050375    2.326    0.570
         3 -10.5751     78.5909     14.5397   6.2183041191e+01   6.2070651680e+01     0.358385    0.2271257  68.31  0.001333581    2.512    0.602
         4 -10.1217     61.6182      9.7946   6.5935198188e+01   6.5722618378e+01      0.16843    0.1067764 -31.89 0.0009548074    1.710    0.415
         5  -9.9416    189.6349     14.9183   4.0314099495e+01   3.6008009927e+01    0.2220301    0.1685291  62.35 0.0006187048    1.261    0.207
         6 -11.6390    248.4509    243.5569   8.2368207400e+01  -1.0628682567e+01    0.3933104    0.2155677 -29.66  0.002416768    1.810    0.448
         7  -8.5767     81.0686    220.4711   1.1213021967e+02   1.8318293501e+01    0.1832722    0.1102984  39.67 0.0003645235    1.511    0.338
         8  -9.8125    184.2968    212.4503   8.9138472814e+01   3.2607527519e+00    0.2125482    0.1751192 -69.56  0.001203159    1.810    0.447
         9 -10.6990    164.0663    211.7647   9.3220488971e+01   6.8007215444e+00    0.2810954    0.1948331 -38.36  0.001514854    1.591    0.372
        10  -9.7417     56.5896    209.5599   1.1616716732e+02   2.3803978269e+01    0.3754668    0.1817013  84.34  0.001127392    2.641    0.621
        11 -10.0240     42.4944    208.6095   1.1901451680e+02   2.5679696736e+01    0.2643807    0.1402476  60.82  0.001203245    1.741    0.425
        12  -9.6584     35.6135    208.6448   1.2042280753e+02   2.6437314232e+01    0.1455418   0.09686683  64.88 0.0003985777    1.277    0.217
        13 -11.0777     66.0045    207.0399   1.1391775758e+02   2.3140345981e+01     0.230205    0.1790242  81.10 0.0003075031    1.174    0.148
        14 -11.4174     64.3642    202.9116   1.1384395612e+02   2.4240469067e+01    0.2357913    0.1950503  87.06 0.0005237378    1.101    0.091
        15  -9.0800     93.5959    205.8151   1.0774119247e+02   1.9525947617e+01    0.2228383    0.1952305   2.56 0.0004977202    1.497    0.332
        16  -9.5590     96.3952    202.2234   1.0665269382e+02   1.9863362992e+01    0.2267373    0.1244011 -63.26  0.001089545    1.928    0.481
        17 -11.0439    193.2550    195.4134   8.4231303341e+01   4.6291171376e+00    0.9594369    0.5468291 -65.08  0.003166626    5.092    0.804
        18  -9.4742     38.8068    199.5862   1.1902813217e+02   2.8027769675e+01    0.1769421    0.1342407  82.32 0.0004453916    1.108    0.097
        19 -12.4585     53.5557    197.3284   1.1563845105e+02   2.6817027554e+01    0.5289183    0.2747908 -47.53  0.002535179    2.550    0.608
        20 -10.2347    141.5168    198.5163   9.5922401044e+01   1.3198967951e+01    0.2436932     0.137896 -64.71 0.0009372294    2.464    0.594
        21 -10.8437     62.4303    250.4719   1.1844618700e+02   1.5087185021e+01    0.2148401    0.1103109  51.06 0.0005763306    1.538    0.350
        22  -9.4153     81.3974    194.1046   1.0901036897e+02   2.3846512523e+01    0.3093774    0.2048915  73.93  0.001599784    1.663    0.399
        23 -11.0974    149.5760    188.0185   9.2285952766e+01   1.3873183661e+01    0.5064989    0.3454337 -74.16  0.002290574    2.216    0.549
        24 -11.6668     74.0199    188.7162   1.1003825237e+02   2.6090032285e+01    0.6668803    0.3111176  55.51  0.002470542    2.357    0.576
        25 -11.1425     61.3535    187.2348   1.1280170886e+02   2.8107198851e+01    0.4975719    0.4143891   3.35  0.002002956    1.689    0.408
        26 -12.2488     67.0979    181.8152   1.1080486409e+02   2.8602377193e+01    0.7520831    0.6509432  36.07  0.003719809    1.278    0.217
        27  -9.5614     92.9532    185.1922   1.0509358548e+02   2.4125629699e+01    0.2814231    0.2346181  47.59 0.0008911494    1.147    0.128
        28 -11.0583     98.8069    181.0781   1.0307085846e+02   2.4142156231e+01    0.4102595    0.3192379   1.08   0.00165824    1.818    0.450
        29 -12.0209     49.0321    248.8465   1.2075217649e+02   1.7015106532e+01    0.1896225     0.137426  88.27 0.0005645081    1.297    0.229
        30 -10.4199    143.3511    179.2359   9.2104206577e+01   1.6827008045e+01    0.2513037    0.1938225 -62.18 0.0008640944    1.474    0.321
        31 -10.3848    119.3738    178.3357   9.7642385931e+01   2.1331145603e+01    0.2227708    0.1771427 -13.26  0.001073811    1.659    0.397
        32  -9.9379    187.9879    176.3745   8.1589422759e+01   9.0135265071e+00    0.3263704    0.3181121  64.06  0.001446157    1.237    0.192
        33  -9.2215    149.0506    176.4987   9.0258078868e+01   1.6342446944e+01    0.2316795     0.200186 -64.84 0.0003886253    1.306    0.234
        34 -10.0241    146.8418    172.8028   9.0057549070e+01   1.7537414559e+01    0.3185977    0.2220031 -66.76 0.0008149318    1.836    0.455
        35 -10.1939     46.3924    173.2037   1.1473481742e+02   3.3152934979e+01    0.3337614    0.3071647 -84.50  0.001193307    1.136    0.120
        36  -9.0684    167.9601    231.9535   9.5600444313e+01   2.7390860989e+00    0.1911311    0.1634022  27.01 0.0004985451    1.023    0.023
        37  -9.9614     84.0418    173.5400   1.0554458560e+02   2.8152326749e+01    0.2033923    0.1790016 -79.24 0.0004359941    1.085    0.079
        38  -9.9673     54.5834    173.5674   1.1279959602e+02   3.2110152912e+01    0.2654092    0.1883867  70.72 0.0007251619    1.386    0.279
        39 -10.3599    238.3793    173.2113   7.1179820076e+01   6.0799895484e-01    0.1901472    0.1137409 -41.39 0.0009532752    1.704    0.413
        40 -10.2764    138.0462    169.4961   9.1504093048e+01   1.9904978519e+01    0.3416675     0.300225  25.89 0.0008809296    1.154    0.134
        41  -9.4524    185.2115    169.3294   8.0721696419e+01   1.0874046773e+01    0.3346696    0.1872088 -55.79  0.001341397    2.457    0.593
        42  -8.8022    193.9713    171.3337   7.9299638641e+01   8.8291407179e+00    0.2053623    0.1754812  27.36 0.0009602707    1.133    0.117
        43 -11.7722     94.1563    151.2608   9.9192862657e+01   3.1896197975e+01    0.7027644    0.5898286 -25.11  0.003704696    1.418    0.295
        44 -10.7897    133.7299    144.9686   8.7467759610e+01   2.6223735762e+01     1.216107    0.3079201 -53.78  0.002904582    5.481    0.818
        45  -9.3091    187.4567    151.4971   7.6365949327e+01   1.3894444651e+01    0.1501946    0.1399484  -6.77 0.0002588196    1.012    0.012
        46  -9.2857    112.9003    150.9003   9.4135896298e+01   2.8778698827e+01    0.2394303    0.2040244  73.74 0.0007520142    1.290    0.225
        47  -8.9053    109.7907    147.8599   9.4340867543e+01   3.0053123118e+01    0.2292473    0.1966894 -87.48 0.0003070784    1.277    0.217
        48  -9.2908    174.8865    149.1322   7.8564624057e+01   1.6934795204e+01    0.2268483    0.2109261 -79.32 0.0005411768    1.264    0.209
        49  -8.6635    143.3253    145.6399   8.5204515629e+01   2.4156834220e+01    0.1602125    0.1242062  86.89 0.0007042813    1.782    0.439
        50 -10.8514    105.9888    137.5476   9.3205072537e+01   3.3187246115e+01    0.5894759    0.3507574 -32.65  0.002368785    2.185    0.542
        51 -10.5716    105.9354    130.6757   9.1699165793e+01   3.4838397993e+01    0.4081203     0.332894 -59.16  0.001183659    1.218    0.179
        52 -11.6660     94.0079    137.3430   9.6500618090e+01   3.5291093555e+01    0.2951697     0.260608 -43.68 0.0002888875    1.141    0.124
        53 -10.4852    135.6963    129.6603   8.3401217733e+01   2.9300521947e+01    0.7876973    0.1437204 -48.93   0.00172254    6.053    0.835
        54 -10.6725    114.0737    128.9973   8.9042100775e+01   3.3734653567e+01    0.3614092    0.3346804   2.62  0.001117875    1.164    0.141
        55  -9.2752    160.9982    127.9736   7.6722064393e+01   2.4290463612e+01     0.250074    0.1990835 -84.46 0.0008630055    1.705    0.413
        56 -10.3775    101.3580    124.7682   9.1645640352e+01   3.7065273696e+01    0.2918289    0.2397077 -25.13 0.0004602028    1.360    0.265
        57 -10.8285    119.6248    123.2376   8.6124948875e+01   3.4008509124e+01    0.4909811    0.3369418 -17.85  0.002027455    2.064    0.516
        58  -9.5557    109.5396    118.2557   8.7725792827e+01   3.7108277408e+01    0.2526769    0.2301134  47.11 0.0002586992    1.144    0.126
        59  -9.9991    231.3208    113.7099   5.9313698825e+01   1.1904364028e+01     0.274525    0.2491949  17.01 0.0007428785    1.203    0.169
        60  -9.1972    167.7822    112.8528   7.1295630927e+01   2.5920633268e+01    0.3022684     0.215095 -59.71  0.001321751    1.672    0.402
        61 -11.5558    118.3098    109.6720   8.3018758595e+01   3.7369272657e+01    0.5958765    0.4991116  89.70  0.002886989    1.498    0.332
        62  -9.5155    205.2559    110.1669   6.2945110175e+01   1.8018959171e+01      0.29667    0.2209667  48.73 0.0008451929    1.424    0.298
        63  -9.9802    134.5183    104.4059   7.7155324951e+01   3.5128638800e+01    0.6255798    0.1511904 -45.12  0.001639904    4.133    0.758
        64  -9.4434     58.1635    228.0858   1.1748461145e+02   1.9824608056e+01    0.1496937    0.1169389  69.34 0.0003313404    1.054    0.051
        65  -8.4047     76.0021    221.4747   1.1328380568e+02   1.8814603145e+01    0.2454996     0.108854 -55.90  0.001171678    2.502    0.600
        66 -10.1819     59.6861    220.4295   1.1652088419e+02   2.1164609745e+01    0.2627721    0.2112418   1.32  0.001622709    1.995    0.499
        67  -8.6826    156.2744     82.3426   6.5455796358e+01   3.4557085378e+01    0.1558622    0.1216345   5.89 0.0003876479    1.618    0.382
        68  -9.1062     65.2091     70.7374   8.8861462381e+01   5.5207978521e+01    0.1951112     0.184085 -30.74  0.001155731    1.125    0.111
        69 -10.9744     71.9579    245.9951   1.1632873699e+02   1.4671931905e+01    0.4002554     0.171513 -70.99  0.002064812    2.617    0.618
        70 -12.8807    179.6055     52.5609   5.2145087487e+01   3.3774154966e+01    0.7337728    0.7088034 -15.00 0.0008856572    1.122    0.109
        71  99.0000     51.5895    219.5546   1.1807657429e+02   2.2340271127e+01     0.465847     0.132119  46.86  0.001975313    2.868    0.651
        72 -19.5153     13.3146    145.2826   1.1997781716e+02   4.2896958384e+01     19.16092      4.62998 -76.64   0.06541512    3.930    0.746
        73  -8.6304     49.3378    216.7112   1.1829241519e+02   2.3192246978e+01    0.2509713    0.2053698  54.83  0.001724829    1.154    0.134
