#   1 NUMBER                 Running object number                                     
#   2 MAG_AUTO               Kron-like elliptical aperture magnitude                    [mag]
#   3 X_IMAGE                Object position along x                                    [pixel]
#   4 Y_IMAGE                Object position along y                                    [pixel]
#   5 X_WORLD                Barycenter position along world x axis                     [deg]
#   6 Y_WORLD                Barycenter position along world y axis                     [deg]
#   7 A_WORLD                Profile RMS along major axis (world units)                 [deg]
#   8 B_WORLD                Profile RMS along minor axis (world units)                 [deg]
#   9 THETA_WORLD            Position angle (CCW/world-x)                               [deg]
#  10 FWHM_WORLD             FWHM assuming a gaussian core                              [deg]
#  11 ELONGATION             A_IMAGE/B_IMAGE                                           
#  12 ELLIPTICITY            1 - B_IMAGE/A_IMAGE                                       
         1 -14.0298    204.3891     19.6146   5.6978715304e+01   3.1211198710e+01     1.949717     1.265184  10.77  0.007449144    1.893    0.472
         2 -13.7528    210.7087     13.6532   5.4395085503e+01   3.0161779601e+01     3.942401        1.539  28.54  0.001549402    6.034    0.834
         3 -11.0116      1.9321      4.6477   1.1169548564e+02   7.3106307997e+01     0.604427   0.08218876 -59.76  0.001859134    6.155    0.838
         4 -10.6953    189.9204     15.5303   5.7567929946e+01   3.5491219809e+01     0.231358    0.2008636 -21.23 0.0007990809    1.162    0.139
         5 -11.3010    249.3906    247.3760   1.0029748501e+02  -4.5907044641e+00    0.3290867    0.1278839 -26.85  0.002021513    3.172    0.685
         6 -14.4734     94.1212    249.0797   1.2384179366e+02   1.7144963359e+01     1.936721    0.4091908  45.71  0.009496851    3.055    0.673
         7 -12.9054    106.7982    244.3815   1.2156633722e+02   1.6110258058e+01    0.4947114    0.3347065  53.29  0.002494393    1.043    0.041
         8 -11.6909     61.9706    249.0315   1.2859799696e+02   2.1018066504e+01    0.3568229    0.1408182  60.20  0.002346311    2.044    0.511
         9 -15.4521      9.2260    244.4681   1.3587858472e+02   2.7040482804e+01     7.566489     2.128273  32.22   0.03240592    7.412    0.865
        10 -11.0402     66.7353    225.4088   1.2645453739e+02   2.3816356046e+01    0.1954822    0.1109913  67.27 0.0008153042    1.471    0.320
        11 -13.2969     54.9783    238.7120   1.2906895390e+02   2.3234747727e+01    0.5462226    0.2202912  48.48  0.002631764    1.728    0.421
        12 -15.9083      8.6672    209.7984   1.3478751187e+02   3.2269575646e+01     7.548364     1.139759 -77.82   0.02520581    5.554    0.820
        13 -13.9029    126.4862    247.8898   1.1883559217e+02   1.3008756100e+01     1.513803    0.3381544  40.54  0.006391484    3.899    0.744
        14 -10.9093     26.3457    203.8658   1.3171055633e+02   3.1587489128e+01    0.1667262   0.09250165  55.81 0.0006859758    1.347    0.258
        15  -9.9107    226.4252    201.8272   9.7145311975e+01   2.8460522674e+00    0.2000123    0.1846766 -62.59   0.00117549    1.748    0.428
        16  -9.5507    195.3270    199.6429   1.0190783958e+02   8.2747975433e+00    0.1116213   0.08832303  70.32 0.0007044619    1.779    0.438
        17 -11.6049     64.1926    192.0206   1.2442219987e+02   2.9462327493e+01    0.2716146    0.2192819 -47.20  0.001401533    1.886    0.470
        18 -11.7510     69.4744    185.0711   1.2285613031e+02   3.0018046758e+01    0.2319737    0.2105637 -56.54  0.000884669    1.541    0.351
        19  -9.4865    191.5182    192.0323   1.0138554239e+02   9.8625105494e+00    0.1498518    0.1053566 -69.02 0.0008102079    2.648    0.622
        20  -8.3040    181.6750    192.2983   1.0313501616e+02   1.1529805684e+01    0.1150614   0.08758608  65.93 0.0003794868    1.630    0.386
        21 -10.9177     79.0309    173.4654   1.1988768565e+02   3.0860994885e+01    0.2002282    0.1674206  68.91 0.0003881618    1.059    0.055
        22 -13.2284     66.1618    170.7287   1.2213372760e+02   3.3011661569e+01    0.3802691    0.2377314 -48.97  0.001599426    2.199    0.545
        23 -12.1991     85.9724    164.9689   1.1753825869e+02   3.1480994842e+01     0.820026    0.4088933  58.02  0.004318367    1.995    0.499
        24 -12.9751     67.7681    144.6707   1.1891026196e+02   3.7832596386e+01    0.9516961    0.5056193  83.84  0.003129911    2.423    0.587
        25 -12.3139     57.7850    131.5965   1.1951885184e+02   4.1714260631e+01     1.686375    0.5331827 -78.52  0.004085995    9.647    0.896
        26  -9.9145     99.0391    149.4385   1.1272245604e+02   3.2519792322e+01     0.233005    0.1797146 -66.12 0.0007301261    1.312    0.238
        27  -9.1669    102.1813    145.2120   1.1139800307e+02   3.2851129032e+01    0.2409534    0.1514093 -25.86  0.001036553    3.499    0.714
        28 -11.9743     87.6111    148.3350   1.1504293526e+02   3.4427552372e+01    0.2324192    0.2112973 -63.65 0.0004875899    1.256    0.204
        29 -10.3219     39.0107    146.9731   1.2540726072e+02   4.0644497954e+01    0.1745566    0.1367953  79.87 0.0006440865    1.020    0.020
        30 -10.2340     33.4694    165.9931   1.2811620129e+02   3.7533500245e+01    0.1552258   0.08635347 -81.12 0.0005491669    1.557    0.358
        31 -12.8453     37.9376    224.4941   1.3091136612e+02   2.7162928197e+01    0.2957228     0.248551  65.16 0.0007328078    1.357    0.263
        32  -9.6030    110.0242    135.4816   1.0804549655e+02   3.3486728350e+01    0.2440445    0.1780152 -35.21  0.001115647    1.782    0.439
        33 -10.5248     97.5084    132.3285   1.1036385934e+02   3.6131585690e+01    0.2250632     0.209263 -22.61  0.001025495    1.377    0.274
        34  -9.1633    107.0941    122.6611   1.0637608234e+02   3.6533948672e+01    0.1732211    0.1567632  56.30 0.0003096199    1.096    0.088
        35 -11.6472    149.7520    229.0416   1.1332364223e+02   1.1974345214e+01    0.3116504    0.1294847  37.88   0.00167762    2.142    0.533
        36 -10.9421    167.9727    113.0240   9.0540738723e+01   2.6480235049e+01    0.3328928    0.2762099 -87.17 0.0007230424    1.547    0.353
        37 -10.7960      1.8684     89.3982   1.2874124995e+02   5.5563894880e+01    0.2605382   0.09481021 -68.58  0.001402798    1.988    0.497
        38 -11.5898      2.2275     78.5820   1.2745682593e+02   5.7840033959e+01    0.5459691    0.0774589 -67.62  0.002122838    3.708    0.730
        39  -9.8795      1.6583     62.0103   1.2547677544e+02   6.1402371853e+01    0.1637613    0.1088047 -71.57  0.000456444    1.122    0.109
        40  -8.9397    108.4327     42.2192   8.4013407924e+01   5.2133520787e+01    0.1915785    0.1284435 -45.67 0.0003214899    1.533    0.348
        41 -10.9000    229.3296    249.0927   1.0341353048e+02  -1.9169590265e+00    0.2031673    0.1121512  42.10 0.0008480715    1.385    0.278
        42 -14.9782     45.4877    215.0595   1.2921219627e+02   2.7817448344e+01     1.717376     1.159125  51.22   0.01397537    1.263    0.208
        43 -11.7051     53.2161    228.6838   1.2877762547e+02   2.4886276123e+01    0.2678573    0.1375523  77.32  0.001894793    1.831    0.454
