#   1 NUMBER                 Running object number                                     
#   2 MAG_AUTO               Kron-like elliptical aperture magnitude                    [mag]
#   3 X_IMAGE                Object position along x                                    [pixel]
#   4 Y_IMAGE                Object position along y                                    [pixel]
#   5 X_WORLD                Barycenter position along world x axis                     [deg]
#   6 Y_WORLD                Barycenter position along world y axis                     [deg]
#   7 A_WORLD                Profile RMS along major axis (world units)                 [deg]
#   8 B_WORLD                Profile RMS along minor axis (world units)                 [deg]
#   9 THETA_WORLD            Position angle (CCW/world-x)                               [deg]
#  10 FWHM_WORLD             FWHM assuming a gaussian core                              [deg]
#  11 ELONGATION             A_IMAGE/B_IMAGE                                           
#  12 ELLIPTICITY            1 - B_IMAGE/A_IMAGE                                       
         1 -13.6713    189.3868     39.4468   4.4626449866e+01   3.3060076197e+01     1.289499    0.9930648  12.48  0.004617387    1.713    0.416
         2 -13.1266    214.2543      7.4436   3.3482859998e+01   3.0912667510e+01    0.8808778    0.7527856 -51.83    0.0044583    1.043    0.042
         3 -10.3383     39.0433    213.4979   1.1527532789e+02   2.5416080927e+01    0.1572148    0.1332691  72.79  0.001143713    1.151    0.131
         4 -14.7740    245.1912    234.7939   7.8068336052e+01  -3.6534391006e+00     2.326913    0.7755066 -29.59   0.01276072    2.892    0.654
         5 -16.8474     11.1238     87.7481   1.1278330070e+02   5.7685817779e+01     12.85977     4.248136 -77.96   0.04897873    2.707    0.631
         6  -9.6165     72.0257    245.5470   1.1058430794e+02   1.6057210914e+01     0.194682   0.09805143  51.57   0.00116994    1.680    0.405
         7 -10.3139    113.1003    207.3642   9.8538425399e+01   1.7375338678e+01     0.214075    0.1859373 -85.58 0.0007927269    1.366    0.268
         8 -10.1063     67.2991    207.3067   1.0864056961e+02   2.3433554834e+01    0.1571957    0.1273504  54.09 0.0003986468    1.029    0.028
         9  -9.2524     58.7976    203.2908   1.1021355599e+02   2.5243650745e+01    0.2486693    0.1800988 -37.47  0.001402433    1.985    0.496
        10 -14.1927     11.3702    207.0641   1.2088682682e+02   2.9337788848e+01    0.6210911    0.3101076  40.30  0.003762816    1.582    0.368
        11 -10.0941     59.7641    232.4348   1.1213446805e+02   1.9660108726e+01    0.1513677   0.09820034  41.67 0.0005480425    1.197    0.165
        12  -9.6702     43.7925    221.7997   1.1475452998e+02   2.3336138653e+01    0.1547888    0.1229406 -84.97 0.0008758842    1.364    0.267
        13 -10.7287     59.9612    197.9135   1.0949996832e+02   2.6196329048e+01    0.2306891     0.190838 -44.97  0.001197145    1.557    0.358
        14 -10.9520    134.1040    196.9243   9.2616614126e+01   1.6181698596e+01    0.1966856     0.161459  51.16 0.0006112976    1.270    0.212
        15 -11.3009    109.6471    192.3371   9.7402695533e+01   2.0668897406e+01     0.834271    0.2162288  34.25  0.002882203    3.476    0.712
        16 -12.2690    116.1908    187.8997   9.5302437056e+01   2.0553244433e+01    0.6419064    0.3099855  48.45  0.002903391    2.116    0.527
        17  -9.3696     69.3959    185.5421   1.0609430083e+02   2.7623652409e+01    0.5008714    0.3744355 -88.26  0.002798146    1.385    0.278
        18  -9.7962     72.6121    183.8169   1.0512799289e+02   2.7577748337e+01    0.3341397    0.2026205  89.91  0.001700189    1.949    0.487
        19  -8.7546     28.0988    185.5929   1.1608491252e+02   3.2267758738e+01    0.1461209    0.1014744  42.59 0.0002342452    1.274    0.215
        20  -9.5666     19.9024    184.6094   1.1797836372e+02   3.3251612618e+01    0.1616874    0.1024881  34.97 0.0006168541    1.482    0.325
        21  -9.4466     96.8096    191.0814   1.0020008456e+02   2.2767441852e+01    0.1936226    0.1566535  60.55 0.0004865454    1.211    0.174
        22 -10.1307     92.2974    217.7033   1.0414917819e+02   1.8333583911e+01    0.2868138    0.1740048  57.57  0.001640715    1.692    0.409
        23  -9.1878    113.2817    177.3280   9.4439559989e+01   2.3093344491e+01    0.1299858    0.1034506 -13.23 0.0002601508    1.602    0.376
        24 -10.8067     80.9102    171.8661   1.0164375429e+02   2.9062228268e+01    0.3728925    0.2388364 -40.63  0.001853195    2.015    0.504
        25 -10.9383     84.3123    167.3607   1.0017461898e+02   2.9582393978e+01    0.3492348    0.2643129 -28.70 0.0009779945    1.770    0.435
        26  -9.2112     74.7601    165.8036   1.0245068258e+02   3.1275227040e+01    0.1831739    0.1378996  64.74 0.0003369772    1.301    0.231
        27 -10.1666     91.0285    159.1644   9.7235889009e+01   3.0434927567e+01     0.211285    0.1936697 -73.74  0.000337251    1.121    0.108
        28 -12.3708     79.9522    153.7442   9.9386381003e+01   3.3332014155e+01    0.3833123    0.2861206 -39.46 0.0008925862    1.614    0.380
        29 -10.4727     96.4357    152.7986   9.4785562586e+01   3.1041787239e+01    0.4974018    0.3512612 -21.75  0.002132835    2.078    0.519
        30  -9.6533     54.4364    151.4169   1.0618520691e+02   3.7300058955e+01    0.3262793    0.2047508  71.83  0.001612434    1.689    0.408
        31 -10.8870     55.0567    146.1051   1.0534609029e+02   3.8519197012e+01    0.4015028     0.292028  14.47  0.002106183    1.722    0.419
        32  -8.7876     49.9588    152.4753   1.0757409652e+02   3.7577188979e+01    0.1893224    0.1262096  34.49 0.0006041052    1.489    0.328
        33 -12.5770     59.7613    131.9913   1.0194625522e+02   4.1432577077e+01    0.7012545    0.4830166 -71.70  0.003573291    1.390    0.281
        34 -11.5026     69.7054    135.2439   9.9434048839e+01   3.9267666808e+01    0.4699691    0.3309653  43.56  0.001372868    1.386    0.279
        35  -9.6479    107.4927    146.4986   9.0743086675e+01   3.0653619538e+01    0.1438968    0.1354349  63.97 3.167546e-05    1.039    0.038
        36 -10.6894    107.7914    138.8976   8.9210899895e+01   3.2326355090e+01    0.4823947    0.2761548 -33.21  0.001930256    2.455    0.593
        37 -11.2470     96.3085    138.2563   9.2240044963e+01   3.4431979530e+01    0.2661114      0.24501  37.47  0.000399561    1.109    0.099
        38  -9.3347    190.3310    134.9482   6.9456311398e+01   1.7642767938e+01     0.188957    0.1598233 -24.67 0.0003064285    1.093    0.085
        39 -10.9395    115.2238    129.6242   8.5289446166e+01   3.3098300104e+01    0.3197737    0.2675157   9.90 0.0008316915    1.422    0.297
        40 -12.4757    143.0389    145.6365   8.1719557433e+01   2.4494892049e+01    0.8753303    0.3610772 -59.48  0.002618582    4.580    0.782
        41 -10.0741    102.8139    125.5809   8.7844583394e+01   3.6291812091e+01    0.2635612    0.2199106 -23.58 0.0006887102    1.426    0.299
        42 -11.0390    120.3330    124.1092   8.2693645612e+01   3.3374235246e+01     0.266987    0.2123611  26.63  0.001322967    1.380    0.275
        43 -10.2418    134.7129    120.5462   7.8151989241e+01   3.1322026742e+01    0.2735979    0.1324538 -46.75 0.0008723547    2.053    0.513
        44 -18.1952     21.3642    240.0633   1.2006709820e+02   2.2294834804e+01     6.758263     2.126285  25.26   0.02532131    3.524    0.716
        45  -9.3807    110.2826    119.0240   8.4263006313e+01   3.6444500175e+01    0.2068833     0.191643 -60.19 0.0002980341    1.069    0.065
        46 -10.3221     71.9395    249.4453   1.1086357220e+02   1.5442812652e+01    0.1789334    0.1363607 -77.01 0.0005756658    1.600    0.375
        47 -12.0417    119.5477    111.7657   7.9946444874e+01   3.6288391469e+01     0.567323     0.397356  75.05  0.002422902    2.036    0.509
        48 -12.8605     68.3801    145.0692   1.0134845409e+02   3.7040446627e+01     0.899475    0.5730619  73.22  0.002527659    1.824    0.452
        49  -9.3023    113.3423     95.3072   7.7310579740e+01   4.1231503800e+01    0.1567825     0.124206  -1.92 0.0005524346    1.689    0.408
        50  -9.9112     98.1935     86.8827   7.9443588494e+01   4.6222911494e+01    0.2308645    0.2150996  49.24 0.0003067601    1.105    0.095
        51 -12.0377    174.7404     53.5310   5.0847552839e+01   3.4639152616e+01    0.4655316    0.4088118 -34.86 0.0008846701    1.099    0.090
        52 -10.3986    226.1493    217.2556   7.8411377262e+01   3.9835372491e-01    0.1794481    0.1433143   1.86 0.0002176451    1.141    0.124
        53 -12.3779    194.0920     33.7752   4.2441911626e+01   3.2658252443e+01    0.5349602    0.4206215 -43.67  0.001397412    1.134    0.119
        54  -8.4417    159.2213     33.9837   4.7045106162e+01   4.1243878847e+01    0.1826573    0.1150877 -30.54            0    1.551    0.355
        55  -8.5828    127.0101     28.7034   5.0800495421e+01   5.0222929271e+01    0.1705393    0.1296118  65.79 0.0003180363    1.299    0.230
        56  -8.4717    232.4610     20.4896   3.5551852733e+01   2.5625653424e+01    0.1252716     0.104446 -46.62 0.0008089523    1.041    0.039
        57  -9.5397    189.4973     15.5031   3.7618314590e+01   3.5856380633e+01    0.1358382    0.1196228 -59.37 4.730768e-05    1.002    0.002
