#   1 NUMBER                 Running object number                                     
#   2 MAG_AUTO               Kron-like elliptical aperture magnitude                    [mag]
#   3 X_IMAGE                Object position along x                                    [pixel]
#   4 Y_IMAGE                Object position along y                                    [pixel]
#   5 X_WORLD                Barycenter position along world x axis                     [deg]
#   6 Y_WORLD                Barycenter position along world y axis                     [deg]
#   7 A_WORLD                Profile RMS along major axis (world units)                 [deg]
#   8 B_WORLD                Profile RMS along minor axis (world units)                 [deg]
#   9 THETA_WORLD            Position angle (CCW/world-x)                               [deg]
#  10 FWHM_WORLD             FWHM assuming a gaussian core                              [deg]
#  11 ELONGATION             A_IMAGE/B_IMAGE                                           
#  12 ELLIPTICITY            1 - B_IMAGE/A_IMAGE                                       
         1 -11.4164    240.4983      2.0192   1.6098472289e+01   2.7016724690e+01    0.3004569    0.1647508  77.12  0.001783088    1.813    0.448
         2 -13.1035    237.7943     17.5457   1.9233602361e+01   2.5835003906e+01    0.4195759    0.3148985  40.67  0.001678997    2.251    0.556
         3 -13.0272    226.9024     12.5725   1.8918255565e+01   2.8484773588e+01    0.4094828    0.2957189 -28.35   0.00273786    1.694    0.410
         4 -13.6719    232.4845      6.6096   1.7399871492e+01   2.8047054245e+01    0.9312873    0.3324194 -40.38  0.004942082    2.168    0.539
         5 -13.2057    247.2142     11.4748   1.7533265499e+01   2.4772575900e+01    0.7745126    0.3824692 -51.44  0.004866736    1.488    0.328
         6 -11.9629    248.3286      2.6734   1.5846177369e+01   2.5515354076e+01    0.3962409    0.2853298 -83.15  0.002045988    1.253    0.202
         7 -11.0250    217.6497     16.7977   2.0409250894e+01   2.9860313492e+01    0.2619012    0.1728447 -21.90  0.001250191    2.058    0.514
         8 -11.9319    194.9925     14.9900   2.1745048629e+01   3.4832503223e+01    0.5459895    0.1841442 -51.33  0.002056729    2.627    0.619
         9 -12.4209    191.5326      6.4468   2.0030305462e+01   3.6489015636e+01    0.4986852    0.2531622 -30.74  0.002689372    2.102    0.524
        10 -10.8054    174.4066     12.7814   2.3052674673e+01   3.9676845119e+01    0.2742985    0.2029306 -81.45  0.001699232    1.161    0.138
        11 -11.2801    200.6522     12.5339   2.0729433132e+01   3.3876554446e+01    0.2295457    0.1169278 -47.23  0.001266861    1.667    0.400
        12 -11.1671    133.0256     12.5587   2.7906524117e+01   4.9493867084e+01    0.2216639    0.1846836 -46.95 0.0003512749    1.278    0.217
        13 -11.3021     31.4697     12.2719   5.7517912290e+01   7.1402403563e+01    0.3075254    0.2063205 -13.09  0.001827833    1.565    0.361
        14 -10.3353    124.9770     12.0657   2.8968355233e+01   5.1482829077e+01    0.1913968    0.1689543  73.70 0.0003836376    1.042    0.040
        15 -11.0483     69.9931     11.4648   4.1056574335e+01   6.4265112246e+01    0.2082438     0.182326 -11.21 7.970277e-05    1.250    0.200
        16 -12.4776    195.0484      3.5189   1.9094471151e+01   3.6017884538e+01    0.5084813    0.2201517  86.43  0.002526854    2.193    0.544
        17 -10.7883      2.8638      9.9071   7.4661646316e+01   7.5326638901e+01    0.1920767    0.1307183 -16.80  0.001254188    1.282    0.220
        18  -9.4471      7.6377      9.2727   7.0811310286e+01   7.4960161132e+01    0.1034825   0.08706072  41.28 0.0004743403    1.658    0.397
        19 -10.3351     24.3209      7.5052   5.8864982357e+01   7.3106126893e+01    0.2032324    0.1437257 -25.09 0.0008355435    1.402    0.287
        20 -10.5238     20.5759      6.2728   6.0405424168e+01   7.3802644868e+01     0.211715    0.1520692 -13.78 0.0008577067    1.317    0.241
        21 -12.7613    217.4273      4.1436   1.7768803628e+01   3.1270352731e+01     0.415647    0.3729289 -30.91  0.003130182    1.491    0.329
        22 -10.0404    138.2025      6.8359   2.5420956211e+01   4.8793011205e+01    0.1819049    0.1300256  57.86 0.0008146563    1.354    0.261
        23  -9.7068    107.4985      7.4862   3.0353079405e+01   5.6097780827e+01    0.1295199    0.1112499  66.55 5.009092e-05    1.015    0.015
        24  -9.8390    103.5004      7.5339   3.1123260047e+01   5.7041042055e+01    0.1289635      0.11159  69.83 0.0001838586    1.025    0.025
        25 -12.1327    206.7732      2.6360   1.8107517496e+01   3.3613040826e+01    0.3569713    0.1735538 -62.95  0.001975486    1.774    0.436
        26 -11.3211     79.2923      4.3502   3.5211504451e+01   6.2902005609e+01    0.2680535    0.2091987  73.20 0.0004330667    1.288    0.224
        27 -10.4315     74.5048      1.6799   3.5265804320e+01   6.4190531234e+01    0.3331934    0.1564048  61.10  0.001637293    1.828    0.453
        28 -10.2033    151.7116      4.9802   2.3281625269e+01   4.5743007599e+01    0.2835762    0.1273789 -76.14  0.001187282    2.774    0.640
        29 -11.9458    160.4518      1.9902   2.1566079149e+01   4.3963085465e+01    0.3215811    0.2204757  84.97  0.001945672    1.242    0.195
        30 -11.4342     14.1113      3.7945   6.3101362539e+01   7.4996659205e+01     0.291971    0.1796741  26.63 0.0009395779    1.454    0.312
        31 -10.3764     30.5508      2.4174   5.2382703829e+01   7.2749691834e+01    0.2199493    0.1865621 -61.31  0.001444233    1.916    0.478
        32 -10.3913    142.0686      2.6776   2.3695655479e+01   4.8241535600e+01    0.1780718    0.1405904  81.13 0.0005161837    1.073    0.068
        33 -11.0520    179.4853      1.9958   1.9906959659e+01   3.9600338433e+01     0.235058     0.142464  65.05  0.001200472    1.620    0.383
        34 -10.1062    115.8148      2.0239   2.7003748529e+01   5.4582166485e+01    0.1875821    0.1496022 -79.44 0.0004485815    1.249    0.200
        35  -9.8330     23.7427      1.5640   5.5654089411e+01   7.3925215240e+01    0.1436113    0.1017319  41.43 0.0004896051    1.443    0.307
        36 -11.3062    232.2978    212.6109   5.7825810439e+01  -2.5250449198e+00    0.2816366    0.2106281 -14.39  0.001288214    1.070    0.065
        37 -10.3861     49.4485    249.7652   1.0042503862e+02   1.5025070175e+01    0.2394979    0.1412908  36.27  0.001394927    1.403    0.287
        38 -10.2265     80.8539    199.2489   8.8181360982e+01   2.1847318135e+01     0.252541    0.1673239 -36.45  0.001204796    1.943    0.485
        39 -10.1857    157.9827    197.7929   6.9454734173e+01   1.0260543286e+01      0.19592    0.1775672  55.59 0.0006252496    1.312    0.238
        40  -9.4159    243.5008    197.4657   5.3485741697e+01  -1.6462218376e+00    0.1174945   0.09052888 -17.64 4.688904e-05    1.014    0.013
        41 -10.1848      5.2094    198.8811   1.0724449748e+02   3.0611865039e+01    0.2800853   0.08794319 -89.10   0.00104419    3.380    0.704
        42 -10.7477    249.7402    183.5618   5.0136899253e+01  -3.5239206884e-01    0.2138474    0.1296347 -34.75 0.0006352259    1.334    0.250
        43 -10.8585    240.8193    181.7304   5.1155990789e+01   1.0345530816e+00    0.2466465    0.2065392  -5.93  0.001004052    1.138    0.121
        44 -10.8880     35.1265    158.0369   9.5732952788e+01   3.7961116541e+01    0.3554207     0.184003  36.14 0.0005553775    1.875    0.467
        45 -10.0793     30.0056    154.0357   9.6817523701e+01   3.9538462660e+01    0.2410242    0.1474401  62.12  0.001138004    1.717    0.418
        46 -10.0257    249.4951    153.5285   4.4760091896e+01   4.2410676276e+00    0.1212255   0.09554579 -30.51 0.0001457798    1.012    0.011
        47 -11.1671    236.7332    146.2273   4.5187778316e+01   7.2208444064e+00    0.2579237    0.1469133 -42.97 0.0006098922    1.492    0.330
        48 -12.0063    248.2201    131.7906   4.0837862827e+01   7.8204011990e+00    0.4439254    0.2109994 -45.41  0.002294483    1.784    0.440
        49  -9.3152    231.3504    134.3035   4.3635453618e+01   1.0006154414e+01    0.1252983   0.09276179  -7.59 0.0002913158    1.700    0.412
        50 -10.1057    225.3709    133.6075   4.4372644077e+01   1.1086499842e+01    0.1848408    0.1373132 -61.99 0.0005549245    1.579    0.367
        51 -10.0997      6.8177    134.5426   1.0204936902e+02   4.6614268759e+01    0.1767383    0.1355172  12.32   0.00100302    1.536    0.349
        52 -10.1515    234.0147    129.5256   4.2308115309e+01   1.0369355064e+01    0.1562804    0.1095825  89.56 0.0004592489    2.448    0.592
        53  -9.5974    207.6935    129.3138   4.6243662275e+01   1.4850555207e+01     0.133058     0.100258 -67.70 0.0005125137    1.623    0.384
        54  -9.2991     41.6807    129.2939   8.9574952594e+01   4.4812915464e+01    0.1496691    0.1043877  64.30  0.000300867    1.608    0.378
        55 -11.4593    240.8790    125.0531   4.0492208554e+01   1.0008590485e+01    0.2207742    0.1757239  59.77  0.001433608    1.592    0.372
        56  -9.8161    227.0264    124.9979   4.2386669210e+01   1.2259600084e+01    0.2048037    0.1431855 -63.84  0.001127216    1.729    0.422
        57 -10.8679     20.0539    117.8103   9.5444440308e+01   4.9987750182e+01      0.49002    0.2248488  32.17  0.002142329    2.233    0.552
        58 -10.3353     28.2956    117.7689   9.2430983154e+01   4.9259017731e+01    0.2444308    0.1599179 -73.01 0.0008667213    1.437    0.304
        59 -10.4099    232.7760    117.1646   3.9998050797e+01   1.2594474704e+01    0.2252894    0.1744941  36.10 0.0006853481    1.630    0.386
        60 -10.1747     80.1795    115.4454   7.3617077226e+01   4.2850415101e+01    0.2618864    0.1923521 -43.90 0.0006874266    1.382    0.276
        61  -9.5363      4.3509    110.7317   1.0028465342e+02   5.2947635437e+01    0.1342804   0.09080719  57.98   0.00040732    1.624    0.384
        62  -9.5121     21.2876    109.3207   9.3683254169e+01   5.2091868868e+01    0.1453008    0.0921138 -41.63  0.000507493    1.598    0.374
        63 -12.4958    245.3491     97.8078   3.4558634796e+01   1.3564979987e+01    0.4527065    0.3164756 -48.24  0.002106996    1.156    0.135
        64 -10.3020    239.1987    103.2117   3.6358883088e+01   1.3753710119e+01    0.1771718    0.1242475 -56.47 0.0007887689    1.345    0.256
        65  -9.5924     57.2955    100.6753   7.8113203893e+01   5.0157252777e+01    0.1483839    0.1141008  73.98 0.0003240358    1.623    0.384
        66  -9.9345    234.2705     98.6730   3.6036851331e+01   1.5310927258e+01    0.1279519   0.08209071 -59.23 0.0004517562    1.579    0.367
        67  -9.7626    126.1694     96.6305   5.5039216591e+01   3.8018574941e+01    0.2197598    0.1413842  38.54 0.0008829869    1.699    0.411
        68  -9.6493     12.9534     95.0418   9.4629102504e+01   5.6389539256e+01    0.1610986    0.1423269 -60.25 0.0003911682    1.006    0.006
        69  -9.9463     46.0266     93.2191   8.0658664664e+01   5.3539506881e+01    0.1798901     0.117974  26.44 0.0003018458    1.608    0.378
        70 -10.0717    104.0709    101.6548   6.2544256569e+01   4.1621418828e+01    0.2063107     0.196565  33.26 0.0005913273    1.080    0.074
        71  -9.7994    144.0000     88.0554   4.8429277456e+01   3.5744629956e+01     0.246038   0.08322897 -41.32 0.0007984495    2.915    0.657
        72 -10.5949     25.6246     87.2041   8.7748130136e+01   5.7297474446e+01    0.2051819    0.1085704 -53.22 0.0009446364    1.654    0.396
        73 -10.0419    155.1258     85.0796   4.5279635740e+01   3.3777665738e+01    0.2064247    0.1950521  13.18  0.001150799    1.247    0.198
        74  -9.5587    117.6853     83.3242   5.3484694089e+01   4.2606800684e+01    0.1550046    0.1185624 -84.41 0.0007042196    1.664    0.399
        75 -10.3947     74.0455     79.4684   6.6000875254e+01   5.2364349125e+01    0.2751352     0.195595 -32.91 0.0006385964    1.524    0.344
        76 -10.0558     43.6325     78.7823   7.7875102848e+01   5.7291107080e+01    0.1973138    0.1315757 -67.07 0.0008054273    1.684    0.406
        77 -10.0155    120.4692     78.2160   5.1241139736e+01   4.2978264676e+01    0.2914397     0.197485 -87.80 0.0008096222    2.271    0.560
        78  -9.8083    110.0156     77.5009   5.3832612838e+01   4.5454979712e+01    0.2179136    0.1268002  28.00 0.0008104194    2.585    0.613
        79  -9.9792     63.3263     74.9832   6.8650186709e+01   5.5205466451e+01    0.2033816    0.1862126 -37.87 0.0006463524    1.073    0.068
        80 -10.6030     95.1420     71.9460   5.6478336824e+01   4.9757219977e+01    0.3209042    0.2050007  41.47 0.0007901303    1.562    0.360
        81 -10.5731    143.7739     70.8093   4.3665210058e+01   3.8941916189e+01    0.2911915    0.1881443  46.76 0.0007091136    1.636    0.389
        82 -10.4015    228.7619     70.0027   3.0706633325e+01   2.0697779557e+01    0.1702222   0.08900085 -40.28  0.000869228    1.617    0.382
        83  -9.5419    166.2765     72.6668   3.9898198471e+01   3.3415437620e+01    0.1475518    0.1017819 -68.06 0.0002064397    1.603    0.376
        84 -10.1533     51.6502     68.5155   7.1360137257e+01   5.8456844513e+01    0.4237765    0.2276381 -72.09  0.001440158    3.967    0.748
        85 -11.6434      2.0040     66.8086   9.4317008761e+01   6.3923132028e+01    0.4125244    0.1523947 -57.29  0.001453995    2.085    0.520
        86 -10.5119     29.5266     68.4412   8.1295747275e+01   6.1338529403e+01    0.1344127    0.1214405 -30.20  5.58791e-05    1.006    0.006
        87 -11.7382    137.0112     65.1444   4.3443578516e+01   4.1496647785e+01    0.3947974    0.2670362  86.46   0.00141023    1.888    0.470
        88  -9.0766    203.6761     65.6621   3.2642947696e+01   2.6325140490e+01    0.1224711    0.1045719  13.66 0.0006473787    1.720    0.418
        89 -10.4849     16.8425     63.8837   8.6209248227e+01   6.3583697234e+01    0.2061245    0.1503742 -34.74 0.0004280597    1.256    0.204
        90 -11.4440    245.1932     62.5892   2.7574792611e+01   1.8755461360e+01    0.2521152    0.1476702 -59.30  0.001485902    1.518    0.341
        91  -9.8780     43.7188     61.6043   7.2580486004e+01   6.1073514878e+01     0.175831    0.1259686  37.06 0.0006151655    1.453    0.312
        92  -9.7353    166.5050     60.4659   3.6627649777e+01   3.5332020133e+01    0.1398441    0.1260757 -76.77  0.000150791    1.003    0.003
        93 -10.5159    119.9884     59.7148   4.5652177039e+01   4.6406962781e+01    0.2613989    0.1434768 -67.73 0.0008966068    3.387    0.705
        94 -10.4108     61.8888     58.2937   6.3616985216e+01   5.8876166590e+01    0.1990238    0.1666683  29.18 0.0005735775    1.163    0.140
        95 -11.2867     56.0515     56.8726   6.5513664946e+01   6.0144889394e+01    0.2229376    0.1993178  24.84 0.0003255593    1.092    0.084
        96 -10.9742     25.0666     56.0090   7.9744552354e+01   6.4541037614e+01    0.3600465    0.1836087 -57.88  0.001701331    1.957    0.489
        97 -10.1065     28.4602     52.0265   7.6689822961e+01   6.5002247192e+01    0.2082839    0.1611706   1.29 0.0005485383    1.293    0.226
        98 -12.3126      6.3737     61.7402   9.0986379271e+01   6.4836820965e+01    0.3610438    0.2890615  44.65 0.0009048018    1.509    0.337
        99 -10.2866    226.1548     55.8153   2.7976395328e+01   2.3229749791e+01    0.2007388    0.1355597 -58.91 0.0006514478    1.255    0.203
       100 -11.2211      5.9780     55.2721   8.9588230259e+01   6.6312610256e+01    0.1713618    0.1483384 -26.73 0.0002900965    1.068    0.064
       101 -10.6336     20.0379     53.5023   8.1558268725e+01   6.5577406694e+01    0.2789269     0.164041  40.01  0.001420511    2.003    0.501
       102 -10.0014    123.0000     53.0273   4.2808065816e+01   4.6779486770e+01     0.227302   0.08166929 -35.99 0.0006054005    2.921    0.658
       103 -10.6669    154.4284     51.9762   3.6298722456e+01   3.9451166259e+01    0.2918409    0.1994029  65.17  0.001112246    1.408    0.290
       104  -9.5569     61.5142     52.4818   6.1632800475e+01   6.0037270217e+01     0.138647    0.1270854   6.23 -1.739414e-05    1.035    0.034
       105  -9.7280     71.3013     51.3513   5.7410011303e+01   5.8422386191e+01    0.1438626    0.1067304   2.60 0.0007038586    1.697    0.411
       106 -10.4044    136.1091     53.9027   4.0262316360e+01   4.3525177714e+01    0.2224445    0.1822758 -77.99 0.0004100394    1.267    0.211
       107 -10.0524    133.6975     49.3171   3.9345757735e+01   4.4796061332e+01    0.2078196    0.1600269 -67.05 0.0007676032    1.384    0.277
       108  -9.8154    136.5072     48.5378   3.8549118586e+01   4.4237976457e+01    0.2093052    0.1844863  73.62 0.0007265115    1.060    0.056
       109 -10.5360     86.8564     48.1763   5.0873815455e+01   5.5778420479e+01    0.3960868    0.1589843  39.55  0.001429967    2.827    0.646
       110  -9.8828     26.6928     47.0666   7.5861254013e+01   6.6208018742e+01    0.1776825    0.1454688 -32.67 0.0004012235    1.111    0.100
       111 -10.2974    149.9327     44.0794   3.4797707321e+01   4.1657056098e+01     0.330931    0.1466394 -57.15  0.001230944    2.968    0.663
       112 -12.0146     61.8192     44.3654   5.8362562628e+01   6.1416127973e+01    0.2359762    0.2231045  15.00 0.0003176218    1.052    0.050
       113  -9.4498    121.6761     43.7044   4.0079247356e+01   4.8490219864e+01    0.1410045    0.1048316  32.04  0.000557536    1.622    0.383
       114 -10.5758     22.7964     41.2680   7.5822419113e+01   6.7782705062e+01    0.2921745     0.164263 -15.05  0.001374581    2.278    0.561
       115 -10.3465     11.4517     42.4462   8.2702416789e+01   6.8640012528e+01    0.1943887    0.1245191 -25.70 0.0006568082    1.485    0.327
       116 -10.3220     13.7291     39.0108   8.0164774765e+01   6.9130639573e+01    0.1968793     0.166329 -14.33  0.000502507    1.049    0.047
       117 -12.2535    238.6975     37.8034   2.3178659692e+01   2.3234387639e+01    0.2559175    0.2124807 -57.79 0.0003527528    1.140    0.122
       118 -11.9630    242.8781     33.6931   2.2058354054e+01   2.2973584584e+01    0.2587469    0.1599582 -42.23  0.001125133    1.378    0.274
       119 -10.3513      8.9215     31.3656   8.0214119349e+01   7.1029493510e+01    0.3337277    0.1069753  32.10  0.001414862    3.203    0.688
       120  -9.6223     40.5473     38.9186   6.5580740426e+01   6.5910059990e+01    0.1863403    0.1012722 -22.74   0.00080693    2.473    0.596
       121 -12.1739      6.6850     36.7386   8.3590845468e+01   7.0164153473e+01    0.5105158    0.3795098  75.39  0.002674004    2.222    0.550
       122 -10.2140    176.2723     35.9944   2.8807816274e+01   3.6541634841e+01    0.1770923      0.15123 -60.87  0.000225332    1.095    0.086
       123  -9.8895     23.3593     35.8463   7.3370440576e+01   6.8744459603e+01    0.1779679    0.1003151 -37.41 0.0004509459    1.669    0.401
       124 -10.4167     98.0307     35.0347   4.2726345380e+01   5.5244152275e+01    0.2045279     0.183821  52.45 0.0003437925    1.024    0.023
       125  -9.3808     60.7423     34.3159   5.4630859011e+01   6.3231107775e+01    0.1199016    0.1057964 -78.33 0.0002958159    1.535    0.349
       126 -10.3810     44.1268     32.1086   6.0903430183e+01   6.6494943979e+01    0.2293159    0.1834437  86.57 0.0009974244    2.216    0.549
       127 -10.6168    107.0842     30.7483   3.8911478384e+01   5.3697502788e+01    0.3374127    0.2090097 -16.51  0.001610299    2.122    0.529
       128  -9.7930    133.8068     31.3798   3.3724119712e+01   4.7214017770e+01    0.1868217    0.1127707  56.52  0.000301589    1.544    0.352
       129 -10.3603     91.0144     31.1165   4.3141236598e+01   5.7359616963e+01    0.2013137    0.1837186  56.34 0.0004514178    1.039    0.037
       130 -11.0611     78.3898     30.2001   4.6552764856e+01   6.0254853842e+01    0.2427738     0.218997  40.20  0.000576838    1.006    0.006
       131  -9.7978    146.4834     28.9648   3.0920929829e+01   4.4449238817e+01    0.1827377    0.1290748 -37.52 0.0004108954    1.488    0.328
       132 -10.1787     18.5300     28.0437   7.2876894691e+01   7.0696176836e+01    0.2608171     0.187678 -77.21  0.001376209    2.641    0.621
       133 -11.1320     37.1863     27.0810   6.2012865965e+01   6.8383093616e+01     0.293537     0.217308  10.51   0.00118627    1.330    0.248
       134 -12.6108    244.8342     26.2204   2.0474135647e+01   2.3520068794e+01    0.2834485    0.2332775 -60.07  0.001644028    1.160    0.138
       135 -12.0160    244.3911     21.1101   1.9519671851e+01   2.4200482702e+01    0.1912917    0.1646846 -85.77 0.0005593048    1.300    0.231
       136  -9.8341    207.5127     27.4751   2.3529342084e+01   3.0711160978e+01    0.1260711      0.09748 -67.43 0.0008095984    1.046    0.044
       137 -10.2598      1.6896     25.3368   8.2579882329e+01   7.2730568332e+01    0.1900249    0.1440639 -65.65  0.001218792    1.631    0.387
       138  -9.4690     99.6666     25.3372   3.8674989918e+01   5.6095924051e+01    0.1380141    0.1001715 -74.12 0.0007051977    1.742    0.426
       139  -9.9725     62.5306     22.8728   4.8866368993e+01   6.4488627431e+01    0.1800548      0.12648 -26.00  0.001009219    1.532    0.347
       140 -10.4038     50.0835     22.4365   5.3694775443e+01   6.6907583089e+01     0.214635    0.1737899 -19.89 0.0007419765    1.265    0.209
       141  -9.7320     46.2920     20.2382   5.4315409445e+01   6.7880533082e+01    0.2767093    0.1099495  50.98 0.0007595544    2.863    0.651
       142 -10.7333     26.1516     22.4278   6.5753201419e+01   7.0699617437e+01    0.2102153    0.1495642 -23.22 0.0006664105    1.342    0.255
       143 -10.5057     13.5422     23.0125   7.3713489078e+01   7.2107028710e+01    0.3219844    0.1411984  36.08  0.001567438    2.490    0.598
       144  -9.9891    201.6644    249.3455   6.8891493710e+01  -4.1702839412e+00    0.1005273   0.08879256  45.91 0.0005767996    1.771    0.435
       145 -11.2465    172.0022    247.6715   7.4259756417e+01  -3.5029164470e-01    0.2685809    0.1538407 -51.73  0.001488226    2.281    0.562
       146 -10.6022     76.5508    248.2947   9.4466539274e+01   1.2036823928e+01     0.322794    0.1651864  48.42    0.0016786    1.736    0.424
       147 -10.3314     66.7185    249.0327   9.6662503806e+01   1.3115185877e+01    0.2746971   0.09686562  49.22  0.001168971    2.630    0.620
       148 -11.2786     19.8829    249.2944   1.0657834140e+02   1.8317573581e+01    0.2052385    0.1061819  49.50  0.001196594    1.486    0.327
       149 -10.3562    121.6938    248.2972   8.4693377888e+01   6.1351932108e+00    0.1226325   0.08572099  52.85 0.0002281708    1.588    0.370
       150 -11.0137    221.8750     21.1038   2.1013743304e+01   2.8517140808e+01    0.1929714    0.1242847 -62.53 0.0005600765    1.254    0.203
       151 -10.9860    188.0011     21.0240   2.3797239738e+01   3.5699082346e+01    0.2005936    0.1626345 -75.79 0.0008822783    1.017    0.016
       152 -10.5830    174.3500     20.6846   2.5083774154e+01   3.8830916704e+01    0.3314203    0.1697575  66.72  0.001681945    1.804    0.446
       153 -10.1182    132.8184     21.6181   3.0806187153e+01   4.8597377178e+01    0.1915355    0.1151827  80.85   0.00053657    1.663    0.399
       154 -10.2592    105.0520     20.8367   3.5756863208e+01   5.5347389817e+01    0.1912919    0.1623342 -89.56 0.0002863977    1.223    0.182
       155 -10.4461    196.7834    246.4153   6.9359565093e+01  -3.1926655877e+00    0.1652385   0.09232587  16.72 0.0005348726    1.676    0.404
       156  -9.9986    182.4672     18.4528   2.3697834501e+01   3.7230061737e+01    0.1250021    0.1052787 -79.84 0.0001168704    1.043    0.041
       157 -10.1558    166.5605     18.0133   2.5230572439e+01   4.0933652414e+01    0.1887817    0.1501028  87.35 0.0003259096    1.095    0.087
       158 -10.7177    152.0045     17.9780   2.6951768001e+01   4.4376376765e+01    0.1958514    0.1659331 -85.42            0    1.025    0.024
       159 -11.3705      7.4122     17.5768   7.5242251039e+01   7.3640982318e+01     0.214268    0.1644927 -13.50 0.0005576483    1.090    0.083
       160 -10.0927     15.4543     17.5247   6.9831871960e+01   7.2810302867e+01    0.1218082   0.09734613  -7.16 -2.003368e-05    1.050    0.048
       161 -10.0864     62.6047     15.7232   4.5520561148e+01   6.5341971579e+01    0.2030294    0.1330482  21.04  0.001081464    1.735    0.423
       162 -11.2757    249.3897    239.7695   5.9390090531e+01  -8.0014045036e+00    0.2075044    0.1050413 -28.92  0.001200833    1.636    0.389
       163 -10.3040    188.3346    244.3092   7.0632002285e+01  -1.8745001261e+00     0.123602   0.07764833  -2.79 0.0005705847    1.676    0.403
       164 -10.0357     46.0499     14.6725   5.1631806363e+01   6.8642756423e+01    0.1789755    0.1435632  29.99 0.0005472311    1.083    0.077
       165 -10.0447     46.3104    243.9950   1.0069587591e+02   1.6524643363e+01    0.1752268    0.1410924  57.10 0.0009473871    1.045    0.043
       166  -9.2996    112.3055     14.3050   3.1919824782e+01   5.4307513898e+01     0.132917   0.08998185  39.92 0.0003196443    1.602    0.376
       167 -10.1105     36.3403    243.2812   1.0279628119e+02   1.7784596600e+01    0.1068964   0.09268525 -14.64 0.0002376348    1.627    0.385
       168 -11.0279    202.0766    240.3293   6.7488455107e+01  -2.9513316005e+00    0.2509117    0.1602373  18.08  0.001070011    1.380    0.275
       169 -10.3644    187.6494    240.6771   7.0230586793e+01  -1.2515699341e+00    0.1270559   0.07897622  -3.44 0.0007048421    1.750    0.429
       170 -10.1577    144.1183     12.5073   2.6368190559e+01   4.6830339666e+01    0.1929027    0.1128141  74.14 0.0006510688    1.508    0.337
       171 -10.3774    162.8259    239.2100   7.4902133571e+01   2.1674997720e+00    0.1711527    0.1272759  -1.06 0.0004660679    1.328    0.247
       172 -11.5977    222.1513    237.4651   6.3498170594e+01  -4.8579968463e+00    0.3293326    0.1532162  18.37  0.001743595    2.288    0.563
       173 -11.2860    177.9770    237.8041   7.1675480905e+01   4.1059396016e-01    0.1934448    0.1407049   3.35  0.001188203    1.275    0.216
       174 -10.9749    239.9018    235.4675   6.0237130503e+01  -6.4995427670e+00    0.1827717    0.1180651 -12.22 0.0004957629    1.278    0.217
       175 -10.3337     66.5602    234.8480   9.5474593945e+01   1.5954002791e+01    0.2704635    0.1264354  45.26  0.001025373    1.815    0.449
       176 -11.5488    244.7697    233.3227   5.9127737334e+01  -6.7233622172e+00    0.2802543    0.1488063 -32.31  0.001787301    1.608    0.378
       177 -10.0071     61.2175    237.1501   9.6880610904e+01   1.6144336136e+01     0.186848    0.1209291  51.87 0.0007595367    1.348    0.258
       178 -10.3660    218.4932    231.0481   6.3136752233e+01  -3.5537483157e+00    0.1662342   0.09829538 -32.84  0.001008352    1.547    0.353
       179 -11.0827     11.4744    231.2144   1.0747077365e+02   2.2832171029e+01     0.210167    0.1460686  37.88 0.0007471268    1.319    0.242
       180  -9.8909    225.9682    230.0200   6.1692570182e+01  -4.2625134431e+00    0.1414001    0.1088642  -4.27 0.0006342537    1.027    0.026
       181  -9.6080    161.3367    230.6926   7.3975579495e+01   3.7832187144e+00    0.1203765   0.09544844  54.69 0.0002042041    1.676    0.403
       182 -10.5157     62.0228    228.6379   9.5952023496e+01   1.7814522362e+01    0.3522826    0.1472828  49.40  0.001558946    2.206    0.547
       183 -10.4500    235.6779    225.2701   5.9325718968e+01  -4.6889978678e+00     0.177039    0.1495486 -12.45 0.0006271496    1.242    0.195
       184  -9.8378    125.5462    225.9702   8.1022689004e+01   9.6913128083e+00    0.1811703    0.1311187 -53.27  0.001018722    1.561    0.359
       185 -10.3747    221.6951    221.7622   6.1107204087e+01  -2.5997814685e+00    0.2184236    0.1156378 -28.25  0.001232919    1.724    0.420
       186 -11.2622    228.7338    220.4182   5.9695458845e+01  -3.2296552385e+00    0.2094066    0.1836288   9.90 0.0006240924    1.323    0.244
       187 -11.9325    246.5777    217.5426   5.6344936347e+01  -4.8227756184e+00    0.3091701    0.2416775  14.02  0.002313794    1.311    0.237
       188 -10.5025    212.3882    215.1351   6.1653364689e+01  -4.7707786573e-01    0.2630039    0.1804335  14.19  0.001494807    1.386    0.278
       189  -9.9584    209.5321    212.4990   6.1727056112e+01   2.9331602022e-01    0.1572394    0.1513188 -44.28   0.00074545    1.488    0.328
       190  -9.4714     15.4933    216.4700   1.0580902650e+02   2.5650561271e+01    0.1252943     0.101548  64.14 8.750644e-05    1.003    0.003
       191 -10.8891    179.9869    216.6207   6.8008842598e+01   3.5895761204e+00    0.2361164     0.176352 -33.11 0.0006780985    1.318    0.241
