#   1 NUMBER                 Running object number                                     
#   2 MAG_AUTO               Kron-like elliptical aperture magnitude                    [mag]
#   3 X_IMAGE                Object position along x                                    [pixel]
#   4 Y_IMAGE                Object position along y                                    [pixel]
#   5 X_WORLD                Barycenter position along world x axis                     [deg]
#   6 Y_WORLD                Barycenter position along world y axis                     [deg]
#   7 A_WORLD                Profile RMS along major axis (world units)                 [deg]
#   8 B_WORLD                Profile RMS along minor axis (world units)                 [deg]
#   9 THETA_WORLD            Position angle (CCW/world-x)                               [deg]
#  10 FWHM_WORLD             FWHM assuming a gaussian core                              [deg]
#  11 ELONGATION             A_IMAGE/B_IMAGE                                           
#  12 ELLIPTICITY            1 - B_IMAGE/A_IMAGE                                       
         1  -9.0027     79.6440     12.5360   8.0557499024e+01   6.0643059023e+01    0.2687962     0.203724 -16.89  0.001774249    1.402    0.287
         2 -11.5401    245.1118      5.3931   5.3583698560e+01   2.5070676290e+01    0.7440211    0.4937342  62.79  0.004863967    1.688    0.408
         3  -8.6684     31.7380     11.0288   9.6916427971e+01   6.8201157033e+01    0.1771331    0.1248308  15.09 0.0004150893    1.177    0.151
         4  -9.7225     20.3436      8.7113   1.0092850832e+02   6.9762320356e+01    0.1934186    0.1414915   0.57 0.0002914132    1.047    0.045
         5  -9.0018     49.1047      4.5919   8.7250889756e+01   6.6508104097e+01    0.2016608    0.1437176   6.82 0.0003667617    1.189    0.159
         6  -7.4395    111.2585      4.3634   6.9916628215e+01   5.5023216463e+01    0.1243687   0.07782599  31.29 0.0004225426    1.632    0.387
         7  -8.7789    175.5092    247.4823   1.1503140580e+02  -3.1839012202e+00     0.129996    0.1121578  29.44 4.972273e-05    1.006    0.006
         8 -10.0468    201.3720    248.8951   1.1014649993e+02  -7.5462206931e+00    0.3804603    0.2580597  16.23  0.001978118    1.477    0.323
         9  -8.8667    186.3505    250.0083   1.1326693566e+02  -5.3523463257e+00    0.1743123    0.1574011   6.51 0.0008044472    1.102    0.092
        10  -9.0497     27.5550    250.2668   1.4412410481e+02   1.8651366703e+01     0.204353    0.1290768  51.00 0.0008571288    1.385    0.278
        11 -10.5056     11.1642    248.4874   1.4680009881e+02   2.0828663990e+01    0.3494611    0.2850176  52.52  0.002548461    1.417    0.294
        12  -7.7680     57.3516    247.3071   1.3852926177e+02   1.5500149008e+01    0.1046209   0.09659681 -30.33 0.0007042774    1.712    0.416
        13 -11.8679    241.4930    242.9119   1.0159401684e+02  -1.2549222693e+01    0.3164778    0.2394336 -31.01 0.0003489689    1.371    0.271
        14 -10.0865     38.1182    241.6173   1.4161834910e+02   1.9124688814e+01    0.3369702    0.1900877  70.36  0.001515975    1.560    0.359
        15  -8.9225    225.0478    242.6884   1.0458711979e+02  -1.0187052928e+01    0.2054558    0.1635484 -18.33 0.0005527278    1.200    0.167
        16  -8.4478     63.3306    241.7578   1.3689114138e+02   1.5808638571e+01     0.255196    0.1485333  66.62 0.0007844276    1.603    0.376
        17  -9.7334     27.8921    241.6143   1.4346742256e+02   2.0343097069e+01    0.2771558    0.1321915  37.13  0.001525801    2.198    0.545
        18  -9.9698      3.9643    241.1103   1.4758368924e+02   2.3033366108e+01    0.2836468     0.169486  72.54 0.0006348063    1.271    0.213
        19  -8.3914    210.6203    245.7790   1.0784843302e+02  -8.4930840342e+00    0.1590515     0.117348 -46.55 0.0004728871    1.673    0.402
        20  -8.4042    201.3169    241.3215   1.0891327123e+02  -6.3556695428e+00    0.1322282    0.0912573   2.96 0.0004119326    1.663    0.399
        21  -7.8846    170.3002    240.3352   1.1497120781e+02  -1.1004890923e+00    0.1321386   0.09875128   1.62 0.0006138226    1.656    0.396
        22  -8.0674     53.7656    239.2061   1.3849120972e+02   1.7627810354e+01    0.1485604    0.1344951 -83.51 0.0004804995    1.312    0.238
        23  -9.3035     18.3475    238.8465   1.4497068649e+02   2.1980244820e+01    0.2819679   0.09647883  51.26  0.001405768    2.394    0.582
        24 -10.2779    189.8377    236.1897   1.1033641337e+02  -3.6561986770e+00    0.3689216    0.2664632 -45.32  0.001567722    1.561    0.360
        25  -8.1795    233.0080    235.5637   1.0187135351e+02  -1.0291808993e+01    0.1840974    0.1483864 -18.35 0.0004770877    1.158    0.137
        26  -8.0351    195.9784    236.2919   1.0912509824e+02  -4.6816981564e+00    0.1931882    0.1539554  27.46 0.0008211305    1.118    0.106
        27  -7.2964     45.2916    236.3361   1.3985281592e+02   1.9321290561e+01    0.1080411    0.0904887 -52.94 0.0004952361    1.640    0.390
        28  -7.7527      6.7993    234.8577   1.4673532571e+02   2.4007950448e+01    0.1601764   0.09543001  71.98 0.0005111618    1.313    0.238
        29  -9.7620    193.0262    244.4879   1.1106726152e+02  -5.5395933277e+00    0.3251209    0.1632123  39.05  0.001540852    1.783    0.439
        30  -7.8528      1.4344    233.4761   1.4757814796e+02   2.4821791243e+01     0.114364   0.07936227  78.46 2.577013e-05    1.036    0.035
        31  -9.8522     47.6963    227.3310   1.3859245780e+02   2.0923049066e+01    0.3031967    0.1500956  59.30  0.001351628    1.887    0.470
        32  -7.7240    195.3308    229.2984   1.0805967923e+02  -3.3984847061e+00     0.136377   0.09684807   4.28 0.0007029893    1.643    0.391
        33  -7.9909    238.8708    226.8482   9.9243952178e+01  -9.8310637283e+00     0.151286     0.142316  11.79 0.0002415996    1.304    0.233
        34  -8.6762    248.2822    225.4195   9.7287691509e+01  -1.0958671580e+01    0.3697541    0.1755336  25.68  0.001780433    2.321    0.569
        35  -7.7602     11.5350    226.0005   1.4533250309e+02   2.5360416466e+01    0.1720927   0.09084375 -83.57 0.0007796607    1.554    0.357
        36  -8.9142     44.1481    221.2373   1.3873363541e+02   2.2693490728e+01     0.247121    0.1401012  58.95 0.0008730598    1.594    0.372
        37  -7.5504     64.0281    220.2561   1.3457737455e+02   2.0288562632e+01    0.1525954    0.1031775  43.94 0.0003672102    1.442    0.307
        38  -9.6112     14.9044    218.0588   1.4415386860e+02   2.6706575629e+01    0.3794077    0.1861385  73.50  0.001364946    1.914    0.477
        39  -8.5522      2.0183    219.3509   1.4662210884e+02   2.7697498075e+01     0.208439     0.125376  87.94 0.0004628808    1.282    0.220
        40  -7.2922    216.7042    219.7134   1.0212324190e+02  -5.2896471203e+00    0.1321413   0.09399418   0.17   0.00024797    1.548    0.354
        41  -7.7598    182.2571    219.7682   1.0906835957e+02   5.3814778613e-01    0.2239062     0.104664  30.11 0.0008859608    2.412    0.585
        42  -8.4219    242.1612    218.6277   9.7148731519e+01  -9.0453351996e+00    0.1757674    0.1067093  22.57 0.0004264901    1.702    0.412
        43  -8.0052    228.0781    217.5361   9.9548992444e+01  -6.7367965100e+00    0.1931482     0.160315 -21.43 0.0006054913    1.124    0.111
        44  -7.6183    203.4755    216.9951   1.0423294394e+02  -2.6326922420e+00    0.1847662    0.1098277 -17.36 0.0007942431    2.327    0.570
        45  -7.1928     76.7135    217.2798   1.3155749337e+02   1.9126335461e+01    0.1353974   0.08891662  69.99 0.0002961719    1.519    0.341
        46  -7.6805     45.9804    212.0053   1.3747079166e+02   2.4515205885e+01    0.2051503    0.1221007  68.81 0.0004482553    1.614    0.380
        47  -7.8651    233.4865    211.4099   9.7396748140e+01  -6.5762381737e+00    0.1310058     0.111019  -3.14 0.0001298933    1.039    0.038
        48  -7.7374    112.5132    210.9004   1.2281323149e+02   1.4805394774e+01    0.1982023     0.137216 -60.90 0.0004974709    1.495    0.331
        49  -8.6221     99.2745    209.6750   1.2560428484e+02   1.7304003383e+01    0.2918295    0.1945003  69.99 0.0009811508    1.654    0.395
        50  -9.4242     26.9398    209.0304   1.4108819789e+02   2.7413992213e+01    0.2869125    0.2377459 -37.30  0.001321743    1.800    0.444
        51 -10.1006    124.0097    205.9911   1.1944815600e+02   1.3878850375e+01    0.2035947    0.1879608  64.05  0.001161369    1.003    0.003
        52  -7.8276    246.8634    204.9664   9.3751280196e+01  -7.5713272635e+00    0.2260305    0.1334322 -13.92 0.0008737852    2.064    0.515
        53  -7.0516    215.3329    205.6726   9.9766845931e+01  -2.6429327099e+00    0.1284891    0.1112204  87.88  0.000705159    1.716    0.417
        54  -7.6195     69.5321    199.5481   1.3093653946e+02   2.4229003646e+01      0.13559    0.1191429  85.86 0.0001938146    1.040    0.038
        55  -7.3536     76.3462    198.7478   1.2928156038e+02   2.3422104268e+01    0.1427063   0.09307085  66.15   0.00030607    1.585    0.369
        56  -7.7615     52.8248    198.0988   1.3450411849e+02   2.6840818724e+01    0.2070539     0.148818  78.83 0.0005680631    1.286    0.222
        57  -8.5638    193.1973    195.6503   1.0229325162e+02   3.1530920051e+00    0.5144605    0.1720733 -46.37  0.001767668    3.086    0.676
        58  -8.0458     57.1353    193.4906   1.3298599184e+02   2.7363195338e+01    0.2231586    0.1590842  79.25 0.0007023248    1.342    0.255
        59  -8.4646    246.7480    165.0252   8.5892066156e+01  -7.0374368563e-01    0.2100905    0.1936183  12.82 0.0004905418    1.172    0.146
        60  -8.3737    247.0884    160.4803   8.4906200463e+01   5.3893555771e-02    0.2134641    0.1552629 -37.61 0.0004089345    1.201    0.168
        61  -8.2313    101.4415    156.9911   1.1617748557e+02   2.9493614444e+01    0.2861608    0.2028437  58.95 0.0007100708    1.553    0.356
        62 -10.1323    215.4914    153.5567   8.9059949494e+01   7.2059240352e+00    0.2667856     0.254962 -86.91  0.001527065    1.159    0.137
        63  -7.8248    113.1153    152.5316   1.1220839351e+02   2.8465325837e+01    0.2268377    0.1513852  42.07 0.0006522124    1.532    0.347
        64  -8.3549      9.5535    151.7098   1.3930047357e+02   4.2360883644e+01    0.2410773    0.1478215  78.57 0.0009433315    1.696    0.410
        65  -7.7505     54.4978    149.5618   1.2736573641e+02   3.8399356254e+01    0.1393709    0.1210781 -82.73 1.354578e-05    1.076    0.071
        66  -8.3892     85.1299    147.0244   1.1856778137e+02   3.4683133902e+01    0.2604618    0.1949314 -70.88 0.0007597844    1.342    0.255
        67  -7.6242     24.8215    147.6252   1.3494115773e+02   4.2051543875e+01    0.1644212    0.1113685  46.29 0.0005762022    1.652    0.395
        68  -8.1338     34.2861    145.5797   1.3216325079e+02   4.1639886840e+01    0.2308564    0.1419571 -80.45 0.0006408017    1.585    0.369
        69  -8.8930     66.7415    144.0396   1.2305458528e+02   3.8156518627e+01    0.3468035    0.2680189 -86.77  0.001519963    1.381    0.276
        70  -7.4151    234.4769    136.3562   8.1945864015e+01   6.8094961907e+00    0.1366977    0.1264303 -51.10 9.898146e-06    1.052    0.050
        71  -7.9150     62.6687    135.6998   1.2262638708e+02   4.0752291298e+01    0.1431318    0.1028992 -31.00 0.0004086369    1.648    0.393
        72  -8.1478     75.5428    134.0362   1.1861611076e+02   3.9344835112e+01    0.2643037    0.1913945  54.93 0.0007219656    1.567    0.362
        73  -8.1243     31.6381    130.7764   1.3060262822e+02   4.5461221691e+01    0.2259104    0.1464184 -73.16 0.0006580401    1.406    0.289
        74  -8.4076      5.5670    124.0817   1.3693307970e+02   4.9095929406e+01    0.2034986    0.1546126  54.36 0.0006169357    1.563    0.360
        75  -7.3102    125.3179    118.3357   1.0100012945e+02   3.4111819340e+01    0.1592634    0.1243701  -7.45 0.0002888936    1.699    0.411
        76  -7.3006     65.2996    115.6567   1.1767608425e+02   4.5195772660e+01    0.1402368    0.1084766  84.08 0.0007036434    1.674    0.403
        77  -8.3451     37.5415    115.0547   1.2607276690e+02   4.8604081981e+01    0.2198621    0.1756201  54.55 0.0006062794    1.499    0.333
        78  -8.3001     51.6364    113.1639   1.2133759015e+02   4.7514258807e+01    0.2198767    0.1838625  47.74 0.0008332966    1.383    0.277
        79  -7.3885    189.6883    111.7428   8.4426140435e+01   2.1115666587e+01    0.1438566    0.1209003  15.19 0.0002972359    1.527    0.345
        80  -8.6657      8.9626    109.6390   1.3382221164e+02   5.2177574910e+01    0.2338595     0.152053 -70.75 0.0006580524    1.321    0.243
        81  -8.3600    133.5950    107.7372   9.6080299473e+01   3.4677026968e+01    0.3496937    0.1484814 -42.79  0.001001089    2.360    0.576
        82  -7.4647    115.5100    107.5063   1.0084043107e+02   3.8511375387e+01    0.1508493     0.147154 -67.54 1.662982e-05    1.051    0.049
        83  -7.2516    127.3491    106.6649   9.7420011198e+01   3.6245864495e+01    0.1607328    0.1231648 -89.84 -0.0001141461    1.779    0.438
        84  -7.5249     86.3536    105.7133   1.0883317891e+02   4.4282861416e+01    0.1439916    0.1150541  76.86 0.0007022846    1.669    0.401
        85  -7.6290     72.5114    105.5324   1.1304950553e+02   4.6496155075e+01    0.1403181    0.1308931 -49.98 6.884361e-05    1.063    0.059
        86  -8.8709     13.2021     97.0059   1.3031237188e+02   5.4718457138e+01    0.1946183    0.1490479  44.91  0.001139549    1.657    0.396
        87  -8.3685      1.7795     93.0967   1.3330782161e+02   5.6260666851e+01    0.1729323    0.1411412 -76.31  0.001085669    1.257    0.204
        88  -7.9157     30.2095     91.8255   1.2360507695e+02   5.4526809878e+01    0.2004684    0.1286348  72.24 0.0009454479    2.836    0.647
        89  -9.2306    231.1438     80.2895   7.0213781527e+01   1.7600994208e+01     0.236165    0.1910331 -56.28 0.0003740825    1.096    0.088
        90  -8.0779     35.5085     81.5156   1.1931617950e+02   5.6220639409e+01    0.1298189     0.104557 -35.19 0.0001552772    1.052    0.050
        91  -8.2164    184.5049     77.9745   7.7008771552e+01   2.8621551465e+01    0.2157194    0.1403914 -42.83 0.0006140664    1.527    0.345
        92  -7.2600    148.4699     77.5173   8.4172142971e+01   3.7230965501e+01    0.1467497    0.1420046  57.02 4.841435e-05    1.021    0.021
        93  -8.2404      8.9924     76.5044   1.2760039935e+02   5.9349082706e+01    0.1544361    0.1126842   4.97 0.0006861566    1.566    0.361
        94  -7.0467    169.6587     75.3025   7.9108641184e+01   3.2612788145e+01    0.1533777    0.1117398 -80.26 0.0004364708    1.676    0.403
        95  -8.8196     24.4867     72.9919   1.2112601826e+02   5.8948358137e+01    0.2626098   0.07704522 -48.33  0.001107671    2.532    0.605
        96  -7.8456     36.7015     69.3346   1.1562891629e+02   5.8545620200e+01    0.1121925   0.09874627  89.30 0.0002907501    1.651    0.394
        97  -8.8071     17.9613     61.5983   1.2059445782e+02   6.1687264119e+01    0.2548693     0.183018  13.24  0.001615632    1.520    0.342
        98  -8.1750     65.8494     61.0731   1.0256374527e+02   5.6425494803e+01    0.1826927    0.1709369   1.96 0.0003970515    1.155    0.134
        99  -9.5895     39.0141     57.0358   1.1108741311e+02   6.0592153927e+01    0.2145387    0.1862841 -20.37 0.0003574105    1.103    0.093
       100  -8.1988     75.0758     50.1182   9.5752558710e+01   5.6773205241e+01    0.2009964    0.1571722   3.00 0.0004330323    1.241    0.194
       101  -7.4019    163.6984     49.3611   7.3265232327e+01   3.8092164005e+01    0.1461259    0.1019479 -71.92 0.0007036676    1.722    0.419
       102  -9.3425     45.3709     48.9145   1.0598318296e+02   6.1251747660e+01    0.2125827    0.1739146  -1.39 0.0003768748    1.086    0.079
       103  -8.9361      8.6273     48.7165   1.2072832253e+02   6.4717692251e+01    0.1961245    0.1102193 -15.48 0.0009221986    1.803    0.445
       104  -9.4069     11.6774     46.6853   1.1885793288e+02   6.4869386793e+01    0.2727499    0.1756003  37.76  0.001508673    2.171    0.539
       105  -9.2103     24.2607     47.2357   1.1381485480e+02   6.3766145776e+01    0.3910037    0.1705984   7.23  0.001716227    3.454    0.711
       106  -7.4850    133.0060     45.7775   7.8375980074e+01   4.5774871973e+01    0.1873049     0.104751  55.54 0.0008430316    1.640    0.390
       107  -8.7508      2.7272     46.4328   1.2253619427e+02   6.5488110501e+01    0.2680219    0.1576694  45.26  0.001527736    2.982    0.665
       108  -8.7318    206.0305     41.2396   6.4791995393e+01   2.9196562663e+01    0.2075195    0.1805075 -58.49 0.0004953856    1.164    0.141
       109  -8.8464     83.2873     39.9362   8.9551188509e+01   5.6827239643e+01    0.2608956    0.1649036  33.95            0    1.470    0.320
       110  -8.4100     54.4172     36.8435   9.8255298930e+01   6.1916343544e+01    0.2306058    0.1358859  17.81 0.0006876045    1.787    0.440
       111  -8.0532     38.7787     35.1562   1.0368245239e+02   6.4191014937e+01    0.1652537    0.1136869  -4.18 0.0004612874    1.338    0.253
       112  -8.6973    214.9128     33.3815   6.1967800377e+01   2.8210666999e+01    0.2545499    0.1950685  74.55 0.0006760734    1.203    0.169
       113  -8.5028     96.0470     33.2159   8.3442818168e+01   5.5279872556e+01    0.1970545    0.1726026   0.83 0.0003094245    1.134    0.118
       114  -8.2217     10.5052     33.5384   1.1514108564e+02   6.7159446016e+01    0.1102832   0.08513223 -23.01 0.0002809012    1.061    0.058
       115  -8.4172    225.6409     31.0947   6.0319563545e+01   2.6117168107e+01    0.2114745    0.1784417 -72.82  0.000846029    1.086    0.080
       116  -9.1703    189.0099     27.3343   6.3720343461e+01   3.4933661435e+01    0.7315824    0.3201492 -78.71  0.002144011    5.765    0.827
       117  -8.1804    127.9920     30.1003   7.4653430581e+01   4.8870429742e+01    0.1961233    0.1707773  47.15 0.0002938815    1.030    0.029
       118  -7.7776      1.3813     29.7789   1.1798583935e+02   6.8382309117e+01    0.1575724   0.07212628 -40.25 0.0009491774    1.636    0.389
       119  -8.0697    172.7409     26.7305   6.5807464864e+01   3.8836224576e+01     0.273667    0.1455248 -89.51  0.001169066    2.518    0.603
       120  -8.9000     71.7495     26.1640   8.8172552749e+01   6.0598888395e+01    0.3095363    0.1613212  25.77  0.001536879    2.089    0.521
       121  -7.7097     57.4551     25.4836   9.2809047901e+01   6.2981699950e+01    0.1212039   0.09684115   7.54 7.547758e-05    1.021    0.020
       122  -8.1915     48.8111     25.6655   9.6090436199e+01   6.4211610348e+01    0.2448545   0.09045039  31.29  0.001099854    2.766    0.638
       123  -8.7686     84.5265     21.2954   8.2429062816e+01   5.8856193090e+01     0.221351    0.2046355  67.28 0.0009607916    1.405    0.288
       124  -9.3559    197.8317     19.8235   6.0887922421e+01   3.3759623464e+01    0.2589518    0.1408519 -81.63   0.00124548    2.083    0.520
       125  -9.0339      9.2847     19.8752   1.1071944392e+02   6.9322418602e+01    0.2731179    0.1421076   2.88 0.0005675407    1.995    0.499
       126  -8.8646     24.0983     16.4067   1.0252590817e+02   6.8416296511e+01    0.2093857     0.166678   1.88 0.0006728953    1.162    0.140
       127  -9.0986    189.7211     15.2781   6.0779067291e+01   3.6134328572e+01    0.2293655     0.170849 -78.87 0.0008667191    1.245    0.197
       128  -7.2985    146.9967     14.2155   6.6404175326e+01   4.6193295064e+01    0.1720095   0.08955516  64.45 0.0004749511    1.630    0.386
       129  -8.5524    153.1120    249.1659   1.1979673492e+02   2.3809738106e-01     0.268042    0.1387088  40.11  0.001174944    1.660    0.398
       130  -8.4621     74.8470     13.6544   8.2402532169e+01   6.1406330534e+01    0.2931512   0.07437551  42.95  0.001139973    3.249    0.692
       131  -8.7645     64.5467     14.0904   8.5833532436e+01   6.3138107189e+01    0.2570717    0.1373178  34.75 0.0008445004    1.620    0.383
       132  -7.5980     50.6732     14.7144   9.0954867309e+01   6.5245226345e+01    0.1196411   0.07296816  12.72 0.0007007738    1.607    0.378
       133  -7.2104     66.2961    249.3047   1.3702884713e+02   1.3875929461e+01    0.1028631   0.09725539 -37.84 0.0003279459    1.583    0.368
       134  -7.7991     97.3111     12.3151   7.5767822068e+01   5.7246443543e+01    0.1293456   0.07834127  29.87 0.0004028399    1.636    0.389
       135 -10.2811     34.6389    247.8877   1.4271606713e+02   1.8282571401e+01     0.341437    0.2179118  56.35  0.001317989    1.290    0.225
       136 -10.3011     21.1497    248.3024   1.4509893266e+02   1.9772433215e+01    0.3605838    0.2060826  43.65 0.0008434985    1.676    0.404
       137  -8.3992    219.0090    246.3312   1.0634051752e+02  -9.8348936777e+00    0.2480172    0.1445298 -36.63  0.001375147    1.795    0.443
