#   1 NUMBER                 Running object number                                     
#   2 MAG_AUTO               Kron-like elliptical aperture magnitude                    [mag]
#   3 X_IMAGE                Object position along x                                    [pixel]
#   4 Y_IMAGE                Object position along y                                    [pixel]
#   5 X_WORLD                Barycenter position along world x axis                     [deg]
#   6 Y_WORLD                Barycenter position along world y axis                     [deg]
#   7 A_WORLD                Profile RMS along major axis (world units)                 [deg]
#   8 B_WORLD                Profile RMS along minor axis (world units)                 [deg]
#   9 THETA_WORLD            Position angle (CCW/world-x)                               [deg]
#  10 FWHM_WORLD             FWHM assuming a gaussian core                              [deg]
#  11 ELONGATION             A_IMAGE/B_IMAGE                                           
#  12 ELLIPTICITY            1 - B_IMAGE/A_IMAGE                                       
         1 -13.4744      4.1634     10.9325   1.2223694510e+02   7.2298484891e+01     2.078118    0.3846276 -55.75  0.008491587    3.038    0.671
         2 -12.5761     14.0778     12.1847   1.1723312240e+02   7.1434901878e+01      0.44421    0.2993106 -68.62  0.002305436    1.763    0.433
         3 -14.2712    201.5856     16.6421   6.3444963554e+01   3.2340906238e+01     2.992903     1.589927  30.58   0.01045205    2.351    0.575
         4 -13.7297    206.0277      9.6817   6.0775455949e+01   3.1866498536e+01     1.482062    0.8103873  45.45  0.001384445    1.903    0.475
         5 -11.8986    128.2909    244.5405   1.2690425634e+02   1.2531879211e+01    0.2384122    0.1857461 -38.22  0.001919648    1.865    0.464
         6 -12.1814    140.1197    248.8536   1.2540648722e+02   1.0416284406e+01     0.345983    0.2605159  63.83  0.002781244    1.461    0.316
         7 -11.3955    105.4344    246.2358   1.3071895684e+02   1.5294033203e+01     0.195187     0.160898  74.01  0.001315252    1.288    0.224
         8 -11.8181     98.0334    248.4771   1.3206210747e+02   1.5925899964e+01    0.2922153    0.2131845  86.55   0.00243952    1.562    0.360
         9 -12.0468    101.2698    246.4153   1.3139539206e+02   1.5794272583e+01    0.4026356    0.2280254  77.03  0.002677174    2.362    0.577
        10 -11.6052     81.4172    248.4341   1.3465813192e+02   1.7931548254e+01    0.3134222    0.1605595  62.02  0.002204181    1.770    0.435
        11 -12.0233     83.0756    243.7326   1.3408552228e+02   1.8374171623e+01    0.2422501    0.2020917  71.18  0.002182846    1.227    0.185
        12 -11.8546     75.4739    245.4839   1.3539415606e+02   1.9023862680e+01    0.4310336    0.1488109 -67.23  0.002580718    3.438    0.709
        13 -11.3282     65.7618    249.7729   1.3714648738e+02   1.9535571761e+01    0.2768138   0.09927089  38.39  0.001684924    2.291    0.564
        14 -15.7867      2.6748    229.0303   1.4577261029e+02   2.8697151156e+01     9.137362    0.6567096 -76.80   0.03540926    8.154    0.877
        15 -14.8017     44.8149    229.0530   1.3928114337e+02   2.4766206287e+01     1.998138     1.605856   9.73  0.001770359    2.260    0.558
        16 -15.4596     50.0544    219.2112   1.3787961771e+02   2.5737538361e+01     5.456887      1.45869  41.16    0.0169904    2.687    0.628
        17 -11.2040    120.2430    239.1369   1.2772282024e+02   1.4297490621e+01    0.1825451    0.1252149 -55.09  0.001385337    1.925    0.480
        18 -11.5897    149.8391    229.6262   1.2182236299e+02   1.1406522325e+01    0.3293335    0.1391384  34.78  0.001761209    2.134    0.531
        19 -11.4911     68.4874    234.7034   1.3581677246e+02   2.1350308748e+01    0.2498443    0.1664105  54.36  0.001845968    1.094    0.086
        20 -10.5773    192.9540    194.6783   1.0955246050e+02   9.1647207702e+00     0.659892    0.3508429 -60.78  0.002001757    9.026    0.889
        21 -11.4925     68.0899    195.3239   1.3299998619e+02   2.7659670179e+01    0.2939589    0.2144969 -42.80  0.001862598    2.073    0.518
        22  -9.4033    113.6134    193.1909   1.2413649694e+02   2.1991047756e+01    0.2306132     0.126157  21.81  0.001026604    3.241    0.691
        23 -11.5771     73.1060    188.1473   1.3141345891e+02   2.8311792562e+01    0.2182013    0.1980267 -68.41 0.0005002926    1.344    0.256
        24  -9.1931    125.9735    185.3402   1.2074390445e+02   2.1434000262e+01    0.1928813   0.09443577  23.15 0.0007047081    4.336    0.769
        25 -10.7970     82.0130    176.0061   1.2841969447e+02   2.9384779830e+01    0.1937701    0.1719669 -83.75  0.000368983    1.172    0.147
        26 -13.1887     69.4885    173.5666   1.3071914409e+02   3.1421421815e+01    0.4099642    0.2499479 -45.12  0.001779738    2.307    0.567
        27 -12.1607     88.6384    167.2578   1.2602466444e+02   3.0137493005e+01    0.7837484      0.41919  54.75  0.004213672    1.827    0.453
        28 -13.0990     67.5583    144.7271   1.2786751408e+02   3.7367703504e+01      1.06687    0.5631284  82.59  0.004967023    2.656    0.623
        29 -12.3534     58.3218    132.8086   1.2852717044e+02   4.0978069401e+01     1.739312    0.5602075 -78.76  0.004214879    9.131    0.890
        30 -12.1637     33.1029    156.4683   1.3674593699e+02   3.8690419513e+01    0.4469909    0.1645118 -78.80  0.002219566    2.556    0.609
        31 -10.0250    100.9727    150.9383   1.2108169378e+02   3.1525796015e+01    0.2360393    0.2230554 -14.62 0.0008700139    1.295    0.228
        32  -9.5013    103.4769    147.0173   1.1990111530e+02   3.1920526381e+01    0.2429348    0.1512267 -40.26  0.001240795    1.999    0.500
        33 -11.9554     89.7071    150.2226   1.2352484815e+02   3.3314244833e+01    0.2304473     0.224843 -43.47 0.0004644117    1.228    0.186
        34 -10.3173     45.5182    149.0004   1.3337552055e+02   3.8975951892e+01    0.1762838   0.09846075 -73.16 0.0006936329    1.606    0.377
        35  -9.1575    134.3426    148.2453   1.1318184936e+02   2.6583473924e+01     0.178103    0.1239928 -59.73 0.0006198261    1.644    0.392
        36  -8.8685    192.3670    144.2097   1.0033684585e+02   1.6344021386e+01    0.1741813    0.1262407 -41.74 0.0004090351    1.570    0.363
        37  -9.9325    111.3221    136.3990   1.1626865856e+02   3.2798844986e+01    0.2750164    0.2147485 -13.91  0.001484205    1.802    0.445
        38 -10.4172     98.9830    133.5799   1.1871422262e+02   3.5340102267e+01     0.242169     0.202356 -30.75 0.0008700358    1.454    0.312
        39 -11.3582     50.1156    130.0029   1.3018335105e+02   4.2489488683e+01    0.2584881    0.1914601 -87.22 0.0007278912    1.207    0.171
        40  -9.5761    108.0103    123.4463   1.1461075305e+02   3.5998100709e+01    0.1871717    0.1757814 -68.82 0.0001841255    1.048    0.045
        41 -14.6517      9.4250    207.2094   1.4400496197e+02   3.1568788821e+01     2.333228     1.543768 -47.43   0.01553376    2.657    0.624
        42 -11.1622    168.1125    113.2388   9.8197068488e+01   2.6400877046e+01    0.3269451    0.3002344 -68.55 0.0006612719    1.309    0.236
        43 -10.9204     53.1323    110.3916   1.2666103990e+02   4.6472568805e+01    0.2571699    0.1683865 -76.23  0.001239114    1.413    0.292
        44 -10.6789     43.6049    109.1208   1.2907989516e+02   4.7750244448e+01    0.2652511    0.1683257  46.96  0.001554231    1.674    0.403
        45 -10.6156    248.4098    249.4165   1.0864741039e+02  -4.4728890251e+00    0.2814805   0.08427832  34.94  0.001506707    2.382    0.580
        46 -10.9065    110.5976    248.8867   1.3010951447e+02   1.4296741781e+01    0.1752904    0.1222144 -81.17  0.001225968    1.849    0.459
        47 -11.0279    144.2032    243.4223   1.2421878437e+02   1.0504782978e+01    0.1524038    0.1455913  55.84 0.0005638589    1.311    0.237
