#   1 NUMBER                 Running object number                                     
#   2 MAG_AUTO               Kron-like elliptical aperture magnitude                    [mag]
#   3 X_IMAGE                Object position along x                                    [pixel]
#   4 Y_IMAGE                Object position along y                                    [pixel]
#   5 X_WORLD                Barycenter position along world x axis                     [deg]
#   6 Y_WORLD                Barycenter position along world y axis                     [deg]
#   7 A_WORLD                Profile RMS along major axis (world units)                 [deg]
#   8 B_WORLD                Profile RMS along minor axis (world units)                 [deg]
#   9 THETA_WORLD            Position angle (CCW/world-x)                               [deg]
#  10 FWHM_WORLD             FWHM assuming a gaussian core                              [deg]
#  11 ELONGATION             A_IMAGE/B_IMAGE                                           
#  12 ELLIPTICITY            1 - B_IMAGE/A_IMAGE                                       
         1  -9.1322     74.0298     19.1447   7.0648774201e+01   6.2649075212e+01    0.3253469     0.178408 -38.84 0.0009017555    2.021    0.505
         2  -8.0515     17.3846     14.2364   9.3342069516e+01   7.1100815610e+01    0.1486806   0.09404517 -46.87 0.0003365211    1.581    0.368
         3  -8.2855     90.7904      8.9906   6.0721663832e+01   6.0492110879e+01    0.1979207    0.1388042 -48.09 0.0007065317    1.929    0.482
         4  -7.8527    101.4656      8.4251   5.7611882719e+01   5.8233480521e+01    0.1319116    0.1171964  34.12 9.739531e-05    1.048    0.046
         5  -8.5183     33.4923      5.4517   8.0706605222e+01   7.0679957247e+01    0.2124944    0.1747407 -59.46  0.001296643    2.362    0.577
         6  -8.5268     79.2175      4.1517   6.1925583951e+01   6.3329706856e+01    0.2597172    0.1487564 -29.28  0.000873372    1.836    0.455
         7  -8.5285     55.6460      9.9886   7.3190119482e+01   6.6940783288e+01    0.1980128    0.1755151 -25.43 0.0008756141    1.381    0.276
         8  -7.7978    115.4740      2.5002   5.1948461227e+01   5.5538393697e+01    0.1311113    0.1201366  51.28 0.0008086745    1.086    0.079
         9  -8.2801     62.4471      1.4732   6.6238255892e+01   6.6737325993e+01    0.1741441    0.1167681  56.48 0.0001395632    1.882    0.469
        10  -9.1870    147.0630    246.1960   1.0626944081e+02   4.2115773431e+00    0.2920883    0.2000469  73.83  0.001689567    2.042    0.510
        11  -8.5240    249.1186    249.2363   8.8489452789e+01  -1.1698099605e+01    0.2485737    0.1283283 -18.71  0.001487235    2.049    0.512
        12  -9.5572    211.2833    247.1667   9.4678234278e+01  -6.0528868218e+00    0.3464432    0.2239181 -51.83  0.001922133    2.607    0.616
        13  -7.8693    191.7464    249.9702   9.8577381188e+01  -3.4031666476e+00    0.1698118     0.110222  50.00  0.001021876    1.653    0.395
        14  -8.1171    182.9874    250.5367   1.0023743709e+02  -2.1097690966e+00    0.1874371   0.09339144  39.10  0.000495235    1.569    0.363
        15  -8.6506     93.7938    249.2514   1.1634146976e+02   1.1887494574e+01    0.2524768    0.1473573  76.28  0.001393782    1.963    0.491
        16  -7.3428     86.2710    250.6201   1.1779555243e+02   1.2729724838e+01    0.1189148   0.06810305  67.92 0.0005608987    1.694    0.410
        17  -9.2185    120.0121    245.3202   1.1118326120e+02   8.6113481482e+00    0.3321034      0.20529  81.22  0.001585612    2.291    0.564
        18  -8.2699     67.5611    244.8007   1.2061744094e+02   1.6274832825e+01    0.1836681   0.09920856 -68.37  0.001128365    2.015    0.504
        19  -8.9042      9.8211    244.4067   1.3020052969e+02   2.3065355203e+01    0.2286893   0.07901881  81.51  0.001194669    2.830    0.647
        20  -9.4634    248.5924    242.3956   8.7486948229e+01  -1.0907502764e+01    0.2434522     0.185693 -24.98  0.001006328    1.537    0.349
        21  -8.8654    201.9707    243.4872   9.5794832402e+01  -4.1712341702e+00    0.1832446    0.1684744 -53.27 0.0007136262    1.592    0.372
        22  -8.4698    194.7008    243.6701   9.7139293414e+01  -3.0562700062e+00    0.2135746    0.1499481  12.00 0.0005088998    1.494    0.331
        23  -8.8530    194.1581    240.0909   9.6710798501e+01  -2.5005079452e+00    0.2190174    0.1872082 -56.10  0.000795634    1.687    0.407
        24  -8.4156    169.0206    243.4977   1.0184068521e+02   1.0729668079e+00    0.1890391    0.1664328  82.46 0.0006176164    1.517    0.341
        25  -8.8324     77.4116    243.1190   1.1873941760e+02   1.5238638444e+01    0.2204886    0.1040079  64.40 0.0008516565    2.156    0.536
        26  -7.7789     49.5167    243.0106   1.2361681439e+02   1.8889140516e+01    0.1626842   0.06966238  76.98 0.0008102435    2.688    0.628
        27  -9.0417    183.2674    240.3406   9.8754993384e+01  -7.8701874784e-01    0.3982035    0.2404441  62.22  0.001942103    2.821    0.645
        28  -9.3617    160.1163    240.4674   1.0309693204e+02   2.9590097657e+00    0.2865905    0.2102756  88.66  0.001294434    2.192    0.544
        29  -8.2401    153.6480    242.3714   1.0456069766e+02   3.7260631884e+00    0.1813956    0.1261894  62.46 0.0008750405    1.662    0.398
        30  -8.1407     88.3398    242.1869   1.1668720912e+02   1.3866308574e+01    0.1534395   0.09697822 -87.99 0.0006851255    1.753    0.430
        31  -8.8170    232.8489    247.3951   9.0950301460e+01  -9.2483634956e+00    0.1769065    0.1523666 -27.51 0.0007755617    1.575    0.365
        32  -8.5332    146.1443    239.2319   1.0557210599e+02   5.4244725642e+00    0.1645626    0.1275474  63.31 0.0005810988    1.371    0.271
        33  -8.8753    135.7227    238.9464   1.0751040021e+02   7.1567522046e+00    0.1886881    0.1260221  73.32  0.001008317    1.956    0.489
        34  -8.1502    129.3717    238.6293   1.0867548906e+02   8.2264026930e+00    0.1986436    0.1097862 -76.18 0.0009471145    3.039    0.671
        35  -9.1282    230.7680    237.2216   8.9699847647e+01  -7.7862994263e+00    0.2212071    0.2074131 -87.98  0.001105737    1.943    0.485
        36  -9.0221    213.7615    242.3697   9.3511326429e+01  -5.8488046461e+00     0.241559    0.1581011   7.64  0.001466591    1.618    0.382
        37  -9.4563    247.8036    234.6570   8.6351832991e+01  -9.9498784946e+00    0.2969894    0.2075129 -42.06  0.001741048    2.138    0.532
        38  -9.4765    246.5038    229.2399   8.5663023257e+01  -9.1484227405e+00    0.4055287    0.1880067 -28.30  0.002015275    2.211    0.548
        39  -9.9642    214.9433    233.4214   9.1895728794e+01  -4.9163320226e+00    0.4867391    0.3694881 -88.15  0.002435691    3.663    0.727
        40  -8.3366     25.7919    237.1818   1.2727819148e+02   2.2679208563e+01    0.2046541   0.06594618  64.05 0.0009682216    2.950    0.661
        41  -8.9176    203.2868    234.9804   9.4260336636e+01  -3.2795255529e+00    0.2507599    0.2031764 -73.15  0.001408401    2.247    0.555
        42  -9.6784    175.6960    233.3348   9.9156364849e+01   1.4476985759e+00    0.4200521    0.2435221 -58.88  0.002131931    2.751    0.637
        43  -8.0512    170.0286    235.9702   1.0060869631e+02   1.9980061738e+00    0.1779125    0.1405705  68.34 0.0006002458    1.645    0.392
        44  -9.2695    108.8247    234.5723   1.1211731250e+02   1.2140375010e+01     0.379963    0.1981963  62.04  0.001230976    2.095    0.523
        45  -7.4176     58.0259    237.0000   1.2171475099e+02   1.8900522048e+01    0.1790349   0.05344428  38.93 0.0007996742    2.923    0.658
        46  -7.8814    184.4592    235.4929   9.7824329286e+01  -3.0599898127e-01    0.1252764    0.1002408  28.85 0.0003930217    1.035    0.033
        47  -8.2588    153.2840    235.6518   1.0374798880e+02   4.8121996952e+00    0.1207633   0.08833668  66.77 0.0003650188    1.650    0.394
        48  -8.2842     99.8530    234.5296   1.1381338196e+02   1.3514026931e+01    0.2330981    0.1427789  83.37  0.001299071    1.990    0.498
        49  -9.0554     78.6850    234.2504   1.1774568441e+02   1.6636287838e+01    0.2588059    0.1515733  87.85 0.0008946383    1.875    0.467
        50  -9.2684     68.3462    232.5174   1.1950097636e+02   1.8367779461e+01    0.4171612    0.1670515  65.17  0.001839208    3.053    0.672
        51  -8.4354    194.4552    232.8063   9.5553141904e+01  -1.5640039888e+00    0.2225275    0.1725714  52.48 0.0009770343    1.508    0.337
        52  -8.4511    144.9916    233.4760   1.0504979940e+02   6.5251037307e+00    0.2898462    0.1435108  64.03  0.001099477    3.951    0.747
        53  -8.5983    140.1701    230.1481   1.0554738169e+02   7.8658408432e+00      0.27704     0.170475  63.30  0.000959249    1.947    0.486
        54  -8.1868    132.7447    232.9090   1.0733763196e+02   8.6261693826e+00    0.1958192    0.1298845  75.01  0.001065683    1.996    0.499
        55  -8.5650     92.3492    232.0053   1.1497738342e+02   1.5080874588e+01    0.2870509    0.1540412  71.52  0.001143011    2.238    0.553
        56  -9.2121    186.4846    230.8226   9.6741144729e+01   2.3182565758e-02    0.2845814    0.2283075  89.90  0.001070465    2.112    0.527
        57  -8.2042    157.8795    232.0460   1.0237611396e+02   4.6114955534e+00    0.1860723    0.1391924  83.13 0.0006159985    1.972    0.493
        58  -9.0455    236.0899    230.7969   8.7717611666e+01  -7.8126590316e+00    0.2212418    0.1743042 -20.06 0.0007321466    1.362    0.266
        59  -8.7312      1.7896    230.9544   1.3091821566e+02   2.6245195141e+01    0.1920669   0.09506512  73.64 0.0007458082    1.511    0.338
        60  -8.1450    204.8581    230.3934   9.3249137717e+01  -2.9212748405e+00    0.1838775   0.09527886  30.05 0.0006512743    1.736    0.424
        61  -9.9534    149.6692    226.2234   1.0316209731e+02   6.9251411399e+00    0.5676923    0.3451473 -86.79  0.002367864    3.851    0.740
        62  -8.1921    122.8377    234.1314   1.0939091610e+02   1.0017269115e+01    0.1924317    0.1404432  62.09 0.0006863226    1.293    0.227
        63  -8.0407    229.8222    229.0414   8.8522856767e+01  -6.6600247381e+00    0.1604503    0.1453519 -70.91  0.001069917    1.988    0.497
        64  -8.7243    162.2175    227.9469   1.0095802760e+02   4.5252769309e+00    0.2988866    0.1710331  59.29  0.001140022    2.290    0.563
        65  -8.9207    127.9236    227.1373   1.0755396889e+02   1.0393997756e+01    0.2874871     0.201985  76.31  0.001035098    1.722    0.419
        66  -8.4290    120.2377    227.9095   1.0915438504e+02   1.1506523086e+01    0.2454798    0.1595092  72.22  0.001260077    1.832    0.454
        67  -8.2561     49.4354    227.1188   1.2253114397e+02   2.1805967424e+01    0.2887019    0.1286467  68.90  0.001483949    2.278    0.561
        68  -7.7673    223.4802    227.4706   8.9388330542e+01  -5.4892528183e+00    0.1500572    0.1142689 -37.66 0.0006665747    1.648    0.393
        69  -9.1587    225.1237    222.4157   8.8241151993e+01  -5.0973361259e+00    0.3307067    0.1876054 -25.36 0.0009666932    1.889    0.471
        70  -8.6530    206.1064    226.2027   9.2342786522e+01  -2.5563768531e+00    0.2339634    0.1729521 -37.98 0.0009602012    1.617    0.381
        71  -8.1932    199.8322    226.5782   9.3569922517e+01  -1.5815273393e+00    0.1697423    0.1035668  45.23 0.0004947546    1.581    0.368
        72  -8.9132     94.2706    224.4543   1.1383451916e+02   1.6177899705e+01    0.4053284    0.1774601  61.62  0.001755418    2.783    0.641
        73  -8.8589    180.4186    224.4824   9.6919941469e+01   1.9716379271e+00    0.2366231    0.2002567  65.00 0.0008367522    1.491    0.329
        74  -8.8258    104.8278    223.8760   1.1170474682e+02   1.4671540994e+01    0.3056985    0.1921275  85.04  0.001292129    1.981    0.495
        75  -9.0500      7.8349    235.1760   1.3012285957e+02   2.4899364177e+01    0.1283133    0.1029102  85.01 0.0006081244    1.317    0.241
        76  -8.1981     38.4995    224.7550   1.2433861505e+02   2.3559404607e+01    0.1528879   0.08411521  82.50 0.0007072925    1.618    0.382
        77  -8.6892    216.4218    223.4852   8.9997262148e+01  -3.8567078925e+00    0.2138374    0.2078676  70.42 0.0008649771    1.534    0.348
        78  -8.4772    172.9502    223.2530   9.8174941634e+01   3.4332980262e+00    0.2065256    0.1753079  81.72 0.0006350686    1.605    0.377
        79  -8.1704    114.0131    224.0901   1.0991936594e+02   1.3184529317e+01    0.2022482    0.1295951  67.88 0.0006957449    1.696    0.410
        80  -8.2040     59.8502    224.0470   1.2037578266e+02   2.1075831206e+01    0.2050203    0.1017216  71.47 0.0007926169    2.089    0.521
        81  -9.1234    239.1068    221.8345   8.5667445342e+01  -7.1757049541e+00    0.2236701    0.2082704 -47.11 0.0009588416    1.713    0.416
        82  -9.3937    192.5074    221.5023   9.4131296226e+01   3.6598931794e-01    0.2998756    0.2464259  86.56  0.001054403    2.008    0.502
        83  -8.4137    140.4655    222.9428   1.0452651220e+02   9.0315252160e+00    0.1634832    0.1084994  88.71  0.000807133    2.397    0.583
        84  -9.2587    160.0721    221.1268   1.0037922283e+02   5.9863990553e+00    0.4709062     0.219383  56.31  0.001900617    2.985    0.665
        85  -8.0947    202.7772    220.3975   9.2006616834e+01  -1.1995186774e+00    0.1975309    0.1565769 -49.53 0.0007576475    1.698    0.411
        86  -8.6667     82.8378    220.6324   1.1567008630e+02   1.8582290786e+01    0.2995995    0.1417931  66.99  0.001364706    2.589    0.614
        87  -8.0148     73.1749    220.7693   1.1755866342e+02   1.9920995174e+01     0.213757   0.09577404  67.80 0.0009435065    2.779    0.640
        88  -8.0454     27.5793    220.8281   1.2603839933e+02   2.5535621971e+01    0.1993393   0.08687714 -73.25  0.001136989    2.101    0.524
        89  -8.4730    210.0183    219.4678   9.0498250545e+01  -2.2694022173e+00    0.1803554    0.1561224  -3.16 0.0005274963    1.162    0.139
        90  -9.1417    120.2803    219.3071   1.0808148673e+02   1.3039920436e+01    0.3369364     0.206975  72.39  0.001604208    2.114    0.527
        91  -9.0786    248.8926    218.2954   8.3360734713e+01  -8.1987201176e+00    0.2677734    0.1795543  55.65  0.001443551    2.701    0.630
        92  -9.2900    132.7413    215.9201   1.0511402619e+02   1.1575750639e+01    0.4417028    0.2705546  78.48  0.002014424    2.683    0.627
        93  -8.7353     51.5212    217.4332   1.2140713811e+02   2.3413883063e+01    0.2157365    0.1379795  82.03 0.0007394578    1.376    0.273
        94  -8.6653    169.3102    216.3180   9.7813707992e+01   5.1669578905e+00    0.2684663    0.2105259  84.58 0.0008731105    1.888    0.470
        95  -8.6700    142.9953    216.7309   1.0315055064e+02   9.6778902340e+00     0.255744    0.2010387  77.25  0.001385416    1.517    0.341
        96  -7.7293    111.6456    217.3113   1.0957070691e+02   1.4811193520e+01    0.1368036   0.08475818  65.47 0.0007044281    1.729    0.422
        97  -8.2609     61.7818    217.2058   1.1943171139e+02   2.2149013034e+01    0.2062976   0.08984262  67.32 0.0009250479    2.669    0.625
        98  -8.6025    232.5516    214.9575   8.5615855230e+01  -5.2937677308e+00    0.2197857    0.2075004 -77.73  0.001173504    1.768    0.434
        99  -7.6714     18.6149    216.2021   1.2735915551e+02   2.7373261678e+01    0.1439181   0.08319281 -74.28 0.0005674126    1.620    0.383
       100  -8.3378    185.5478    214.3330   9.4297121486e+01   2.6444271915e+00     0.198353    0.1828375  80.59 0.0005388315    1.433    0.302
       101  -8.0530    154.3257    215.0405   1.0061425620e+02   8.0041227252e+00    0.1724926    0.1608803  68.56 0.0006109786    1.178    0.151
       102  -8.9857     92.8193    213.8913   1.1297075034e+02   1.8409206043e+01    0.3288872     0.170024  66.30  0.001210328    2.287    0.563
       103  -7.5605     41.3595    215.6751   1.2318199488e+02   2.4986084989e+01    0.1286355   0.06393717  65.34 0.0007043328    1.780    0.438
       104  -9.4062    213.9613    212.1667   8.8505136510e+01  -1.8980706034e+00     0.314725    0.2767456  67.51   0.00134703    1.696    0.411
       105  -9.4077     73.4352    212.3086   1.1669405535e+02   2.1542732902e+01    0.5813264    0.2084187  60.52  0.002144074    3.818    0.738
       106  -8.7469    161.4282    212.2554   9.8752154785e+01   7.2299319932e+00    0.2304916    0.1849448  74.70 0.0006567101    1.585    0.369
       107  -8.1644    106.5246    212.7879   1.1005425332e+02   1.6490397245e+01    0.1661522    0.1152411 -87.81 0.0007116604    1.644    0.392
       108  -8.9359    204.3256    211.1195   9.0132677186e+01  -1.1656742642e-01    0.2301712    0.2150469 -36.69 0.0007812449    1.346    0.257
       109  -9.5103    175.6902    210.3705   9.5585674324e+01   5.0132164085e+00    0.4186948    0.2768593  70.04  0.001507907    2.611    0.617
       110  -8.9740    148.1479    210.9033   1.0124414051e+02   9.8101098989e+00    0.2963414     0.218424  85.41  0.001089401    1.895    0.472
       111  -9.1353      6.7681    209.7915   1.2911271537e+02   2.9780988957e+01    0.4934727     0.141858  76.20  0.001833258    4.843    0.794
       112  -8.2205    192.2904    210.5001   9.2338134259e+01   2.0613161164e+00    0.1963257    0.1631105 -70.88  0.000775771    1.802    0.445
       113  -8.9264    116.3335    210.4671   1.0774113652e+02   1.5342397145e+01    0.3355431    0.2119624  73.27   0.00128771    1.972    0.493
       114  -8.6645     85.6554    209.7163   1.1395946883e+02   2.0305831518e+01    0.3219125    0.1670585  66.53  0.001449524    2.198    0.545
       115  -8.2374     46.3507    209.3918   1.2175279094e+02   2.5647916394e+01    0.2456972    0.1138239  66.76  0.001246969    2.134    0.531
       116  -9.1685    236.4999    208.3606   8.3729550232e+01  -5.0469879395e+00    0.2624316    0.2353444 -52.63  0.000930625    1.721    0.419
       117  -8.1193    156.6647    208.1430   9.9072142764e+01   8.7874754425e+00    0.1958459    0.1637723  85.51 0.0009825358    1.500    0.333
       118  -8.3728    139.2164    208.1301   1.0266880967e+02   1.1879945537e+01    0.2492356    0.1522501  61.93 0.0009138325    1.936    0.483
       119  -8.2146    126.2452    208.2352   1.0538043176e+02   1.4103055787e+01    0.1833754    0.1409234  73.05 0.0008239433    1.397    0.284
       120  -9.1354     99.3377    206.1821   1.1072412383e+02   1.8925112043e+01    0.3431334    0.2104777  77.19  0.001418986    1.970    0.492
       121  -8.2857     11.7021    207.3201   1.2810010381e+02   2.9803262229e+01    0.1174944   0.05876595  67.77 0.0002620964    1.618    0.382
       122  -8.5268     56.2304    205.4484   1.1947584218e+02   2.5228164536e+01     0.262668    0.1371064  70.63  0.001033866    1.937    0.484
       123  -9.4014    194.9994    203.5920   9.0603624871e+01   2.6631378417e+00    0.4020444    0.2896473 -31.00  0.001726577    1.506    0.336
       124  -9.1947    192.3438    197.3405   8.9999625723e+01   4.1477177648e+00    0.3233444    0.2576827 -65.19  0.001490167    1.801    0.445
       125  -8.9611    183.7815    204.1253   9.2912848546e+01   4.5884560291e+00      0.30762    0.2209545  66.55 0.0008292403    2.025    0.506
       126  -8.8270    131.4086    204.1209   1.0370674418e+02   1.3995235544e+01      0.29724     0.204805  82.55  0.000984311    1.963    0.491
       127  -8.1353    109.0673    205.0845   1.0854678236e+02   1.7584156431e+01    0.2111703    0.1402132  72.94  0.000621189    1.695    0.410
       128  -7.8885     92.3386    205.6530   1.1211817519e+02   2.0116830424e+01    0.1404813   0.08443113  68.68 0.0007047323    1.783    0.439
       129  -8.1034    226.7784    204.0234   8.4678567681e+01  -2.8807838232e+00    0.2189036    0.1325833  -1.71  0.001081144    2.060    0.515
       130  -9.5744    163.7644    203.0103   9.6780276134e+01   8.4094218972e+00    0.3918699    0.2421056  57.79  0.001091647    1.914    0.477
       131  -9.3768    250.0902    201.9697   8.0184757731e+01  -6.3266583063e+00    0.3414335    0.1663377 -31.90  0.001090212    1.996    0.499
       132  -9.3694    246.2550    194.5004   7.9427403988e+01  -4.7319243650e+00    0.3896541    0.2724936 -55.57  0.002026569    2.588    0.614
       133  -8.5703    211.0246    202.2680   8.7279938202e+01   4.6283286280e-02    0.2078293    0.1883797 -69.77 0.0005577683    1.622    0.383
       134  -9.3711    246.4475    207.2596   8.1790783252e+01  -6.4526575003e+00    0.2625512    0.1928298 -24.74 0.0006348871    1.356    0.263
       135  -7.9590     17.3302    203.6460   1.2685516172e+02   2.9992258426e+01    0.1251013   0.05986436  67.24 0.0007045913    1.780    0.438
       136  -9.2093    242.9977    200.6427   8.1159266279e+01  -5.0449323669e+00    0.3035945    0.1695418 -36.40 0.0009774262    1.891    0.471
       137  -8.9425    140.4299    201.0466   1.0133587252e+02   1.2986955089e+01    0.3513429    0.2308847  80.02  0.001221952    2.375    0.579
       138  -8.3764     79.7574    201.1593   1.1422521668e+02   2.2911389601e+01    0.3290701    0.1702166  73.57  0.001478702    2.496    0.599
       139  -8.0023     48.3951    202.2299   1.2075589293e+02   2.6866897646e+01    0.1711692   0.09479409  89.31 0.0009419831    1.725    0.420
       140  -8.5266     10.5560    202.6766   1.2804994473e+02   3.0841201236e+01    0.1744256   0.08907174  38.67  0.000880659    1.976    0.494
       141  -7.7208    222.2565    201.6189   8.5062009930e+01  -1.7823819394e+00    0.1142624    0.1040808 -66.08 0.0006968264    1.666    0.400
       142  -9.2062    237.0821    198.5314   8.1801419191e+01  -3.8069821612e+00    0.2857117    0.1739634 -35.10  0.001167002    1.711    0.416
       143  -9.5185    149.5151    198.7239   9.9044200771e+01   1.1783253907e+01    0.4059839    0.2821125  80.15   0.00137033    2.167    0.539
       144  -8.9764    123.9557    199.3503   1.0458661306e+02   1.6215105828e+01    0.3043313    0.2095622  81.23  0.001192781    1.858    0.462
       145  -9.3161    112.9639    198.5121   1.0682563442e+02   1.8254424334e+01    0.4393025     0.247259  68.66  0.001689526    2.412    0.585
       146  -9.1427     88.7925    198.6044   1.1201785722e+02   2.2101293431e+01    0.3854622     0.220223  85.13  0.001789307    2.262    0.558
       147  -8.5243    176.9371    198.9512   9.3386830448e+01   6.7028229991e+00    0.2168093    0.1886208 -56.57 0.0006488095    1.388    0.280
       148  -8.2209    202.4952    198.1086   8.8149403624e+01   2.1893214373e+00    0.2094219    0.1810456  52.70  0.001057812    1.376    0.273
       149  -9.1778     61.6003    197.1283   1.1758761748e+02   2.6267046094e+01    0.3959876    0.1900914  71.64  0.001649662    2.519    0.603
       150  -8.0894     29.5651    197.7832   1.2412618041e+02   2.9939109121e+01    0.1651369   0.08721508  85.50 0.0009315517    1.690    0.408
       151  -8.8783     12.6381    197.7683   1.2737761377e+02   3.1642163735e+01    0.2573146   0.09252698  75.95  0.001151204    3.036    0.671
       152  -8.8515    215.9388    195.6479   8.5120299893e+01   1.8735703953e-01    0.2555136    0.1839656 -50.57 0.0007925296    1.873    0.466
       153  -8.0093    132.9473    195.9918   1.0214430099e+02   1.5297145834e+01    0.2166289    0.1544172  73.06 0.0004962976    1.696    0.410
       154  -8.6050    224.7769    194.4940   8.3256562371e+01  -1.1726115425e+00    0.2384756    0.1658905 -48.38  0.001275761    1.919    0.479
       155  -7.8110    209.4304    195.5270   8.6332320304e+01   1.3549716387e+00    0.1336958    0.1163729  14.69 9.466569e-05    1.017    0.017
       156  -8.7486    185.3324    194.8668   9.0951296423e+01   5.8490379869e+00    0.2399349    0.2084237  69.53 0.0006623649    1.458    0.314
       157  -9.1087    161.0093    194.4668   9.5901846095e+01   1.0452076423e+01    0.3173163    0.2194436  65.72 0.0009000443    1.875    0.467
       158  -8.9614     77.1443    194.0022   1.1396158047e+02   2.4792618148e+01    0.2776392    0.1911825  82.31 0.0006936167    1.424    0.298
       159  -8.8904     43.9259    193.5663   1.2090568280e+02   2.9221118874e+01    0.4154737    0.1789219  69.71  0.001852176    2.729    0.634
       160  -8.2941    230.7962    194.3402   8.2129381014e+01  -2.1735891197e+00    0.1740143    0.1508656 -10.95 0.0006208888    1.146    0.127
       161  -8.6201    172.5488    192.0210   9.3053614009e+01   8.7334865754e+00    0.2877788    0.2247575  77.27  0.001035964    1.798    0.444
       162  -7.8045    241.4299    192.2155   7.9826565916e+01  -3.6374106771e+00    0.1594364    0.1147483 -36.63 0.0004135423    1.536    0.349
       163  -8.3257    198.9328    191.9256   8.7690581803e+01   3.8277792849e+00    0.2026972    0.1854943  21.54 0.0005710425    1.080    0.074
       164  -7.9236    178.9884    191.9058   9.1701820029e+01   7.5430697092e+00    0.2068813    0.1682042  76.32 0.0006317135    1.685    0.406
       165  -9.1930    139.5914    190.8407   9.9875598959e+01   1.5109979211e+01    0.3625267    0.2506195  78.52   0.00106315    2.022    0.505
       166  -7.5508    205.2681    191.6856   8.6406740603e+01   2.7088686261e+00    0.1200347    0.1096523  88.69 0.0002291114    1.550    0.355
       167 -10.3869     92.1591    188.8216   1.1003982745e+02   2.3650486339e+01    0.9024531     0.266115  49.90  0.003085464    3.547    0.718
       168  -8.5283    148.5201    189.3178   9.7679110453e+01   1.3755857858e+01    0.2343523    0.1941604 -89.38 0.0007369082    1.457    0.314
       169  -8.2708    237.0112    188.5170   7.9886393862e+01  -2.3796101130e+00    0.2041118    0.1543891 -21.55  0.000517864    1.247    0.198
       170  -9.3932    156.0616    187.4391   9.5720870765e+01   1.2698972734e+01    0.3704056    0.2450579 -62.33  0.001045901    1.915    0.478
       171  -9.0053    129.1881    188.6048   1.0179163975e+02   1.7446912347e+01    0.2871385    0.2069432  77.72 0.0009342601    1.706    0.414
       172  -9.8675    120.9288    186.8575   1.0334632662e+02   1.9276498060e+01    0.5327429    0.2911376 -75.01  0.002159771    2.796    0.642
       173  -9.1706     54.8485    187.0748   1.1799479707e+02   2.9295261336e+01     0.421858    0.1928744  73.83  0.001771478    2.904    0.656
       174  -8.7498     34.2183    188.1555   1.2243834950e+02   3.1476153023e+01    0.3091611    0.1517494  75.80  0.001183041    2.054    0.513
       175  -8.2065    240.5106    180.4944   7.7675351103e+01  -1.8041180257e+00    0.2681778    0.1195999 -34.22  0.001055147    2.156    0.536
       176  -8.3222    242.7518    187.9985   7.8773859962e+01  -3.2610731051e+00    0.2833708    0.1262504 -35.83  0.001309066    2.210    0.548
       177  -8.2752    242.6824    184.3180   7.8059553925e+01  -2.7248987127e+00    0.2112478    0.2010379 -48.50  0.001373956    1.487    0.328
       178  -8.7391    191.5111    187.6280   8.8351915003e+01   5.9265638477e+00    0.2764158    0.2199967 -86.35  0.001069311    2.022    0.506
       179  -8.1286    230.5040    187.0750   8.0771231326e+01  -1.0604524176e+00    0.1931359    0.1223971 -33.09 0.0008079088    1.575    0.365
       180  -8.8417    164.8488    186.7681   9.3718148689e+01   1.1154044718e+01    0.2853302    0.2293428  82.50  0.001115932    1.659    0.397
       181  -9.1841    109.6507    186.1207   1.0575601231e+02   2.1380190508e+01    0.3733599    0.2259085  72.34  0.001143967    2.180    0.541
       182  -8.6937    249.2575    185.5804   7.7175034634e+01  -3.9845055792e+00    0.2287262    0.1570605 -27.86 0.0007262799    1.372    0.271
       183  -8.6702    183.0583    185.4230   8.9652305727e+01   7.9140880090e+00    0.2432684     0.195767 -59.31 0.0005724124    1.557    0.358
       184  -8.5265    202.7938    185.0038   8.5599278863e+01   4.2522432862e+00    0.1920055    0.1881069  70.57 0.0006062238    1.282    0.220
       185  -9.0373     66.5552    184.3742   1.1515214934e+02   2.8359123708e+01     0.376117    0.2138754  75.47  0.001118008    1.952    0.488
       186  -8.1020     11.7866    185.1635   1.2675307746e+02   3.4348330757e+01    0.2127818    0.0759147  65.73 0.0009562785    2.921    0.658
       187  -8.6490    224.0562    183.8412   8.1312360150e+01   5.5799175503e-01    0.2233483    0.1809607 -21.46 0.0005452316    1.197    0.165
       188  -8.9633    210.2034    183.7372   8.3908241070e+01   3.0850582445e+00    0.2949778    0.1864109 -27.82 0.0009755662    1.651    0.394
       189  -8.8488    174.2041    183.6476   9.1157385410e+01   9.9354353140e+00    0.2664531    0.2177606 -81.27 0.0008898975    1.684    0.406
       190  -8.1635      1.8539    183.8126   1.2861882990e+02   3.5494666216e+01    0.1590546   0.09512521  64.57  0.001051837    1.380    0.275
       191  -8.9287     44.4411    182.4464   1.1977275876e+02   3.1569319300e+01    0.3372873    0.1764523  73.80  0.001143391    1.989    0.497
       192  -9.2651    147.5930    180.7480   9.6370321062e+01   1.5619861616e+01    0.3741414    0.2720815  88.89  0.001028428    1.965    0.491
       193  -9.1041    216.2796    188.4058   8.3665707034e+01   1.2392802226e+00     0.344006    0.2249031 -26.37  0.001014882    1.565    0.361
       194  -8.9341     26.8005    181.1840   1.2340532150e+02   3.3764773785e+01    0.3176687    0.1440593  66.38  0.001589617    2.207    0.547
       195  -8.8069     24.4682    176.9591   1.2355281644e+02   3.4921875948e+01    0.3126932    0.1424166  78.56  0.001522309    2.286    0.563
       196  -7.9369    235.3553    181.2239   7.8734534889e+01  -1.0276876417e+00    0.1800807    0.1152799 -39.44 0.0006175939    1.675    0.403
       197  -8.6570    137.5955    179.3270   9.8348757896e+01   1.7802410180e+01    0.3190469     0.223677 -89.93  0.001117183    2.030    0.507
       198  -9.4717    191.5488    178.4395   8.6550646999e+01   7.5135428057e+00    0.3014733    0.2597703  70.68 0.0005965285    1.489    0.328
       199  -8.1170    169.3284    178.4926   9.1206846437e+01   1.1845417223e+01    0.2235065    0.1740477 -71.72   0.00077818    1.713    0.416
       200  -9.0373     35.9650    176.9720   1.2108794833e+02   3.3731730908e+01    0.4682041    0.1846056  80.42  0.001735074    3.882    0.742
       201  -8.6473    250.5137    172.8610   7.4403364118e+01  -2.3795244497e+00    0.2337494    0.1777859 -18.76 0.0005078999    1.162    0.140
       202  -9.0351    248.9791    177.5052   7.5608684744e+01  -2.7946007017e+00    0.2470722    0.2294576  51.45 0.0009759308    1.494    0.331
       203  -8.4887    247.3161    174.2760   7.5235539329e+01  -2.0475491715e+00     0.236615    0.1574214 -13.94 0.0007943883    1.468    0.319
       204  -8.5139    231.4646    177.0951   7.8598003295e+01   2.7830377929e-01    0.2728787    0.1206499 -40.62 0.0008819225    2.371    0.578
       205  -8.8039    205.1368    177.7334   8.3692236393e+01   5.0253681408e+00    0.2364501    0.1836424 -45.95 0.0007136663    1.476    0.323
       206  -8.6134    129.1520    177.4237   9.9929559138e+01   1.9771703072e+01    0.2992463    0.2050123  80.74 0.0009845719    2.002    0.501
       207  -8.1963     97.0832    177.7938   1.0737241738e+02   2.5271444620e+01    0.2105324    0.1655115   2.43    0.0010794    1.995    0.499
       208  -8.4357    217.5973    177.0499   8.1152811290e+01   2.8001370786e+00    0.2435939    0.1679914 -47.42 0.0008092524    1.744    0.427
       209  -9.5153    183.2148    175.7164   8.7723658230e+01   9.6314579473e+00    0.4398696    0.2447534 -44.59   0.00119214    1.932    0.483
       210  -8.7677     89.0755    176.8522   1.0908621637e+02   2.6753188267e+01    0.3000577    0.1995621  72.60  0.001163153    1.627    0.385
       211  -9.9322     57.3817    173.3834   1.1593846514e+02   3.2022530645e+01       0.8259    0.3552339  80.27  0.002694662    4.696    0.787
       212  -8.8075     13.1640    176.5247   1.2588501842e+02   3.6076971020e+01    0.2981493    0.1425425  72.93  0.001611514    1.947    0.486
       213  -8.6700    197.0716    183.4851   8.6434930011e+01   5.5823256887e+00    0.2076938    0.1962757 -83.60 0.0007349283    1.363    0.266
       214  -9.3052    158.8823    175.1774   9.2837246105e+01   1.4539621666e+01    0.3965144    0.2702227  74.76   0.00126902    2.271    0.560
       215  -9.4594    104.2582    174.7759   1.0524359059e+02   2.4753012416e+01    0.5027687    0.3062856  73.94  0.001715649    2.195    0.544
       216 -10.6130     76.0444    171.2132   1.1133600842e+02   2.9983729231e+01     1.053007     0.425797 -80.18  0.003259482    4.731    0.789
       217  -8.8541     74.3288    160.3580   1.1020801706e+02   3.2739229340e+01    0.2356106    0.1853375 -11.80 0.0009509232    2.003    0.501
       218  -8.0871    224.3860    174.2764   7.9314680735e+01   1.9945503229e+00    0.1812691    0.1235378 -41.36 0.0005225062    1.590    0.371
       219  -9.4750    175.7908    172.1038   8.8564046165e+01   1.1777401189e+01    0.3962191    0.2891755 -50.77  0.001064528    1.531    0.347
       220  -8.3338    143.1349    172.8842   9.5924752522e+01   1.8079225124e+01    0.2224557    0.1873728  72.56 0.0005605631    1.295    0.228
       221  -8.3855    134.7828    171.8932   9.7652010306e+01   1.9887805517e+01    0.2641808    0.2000256 -81.96   0.00101206    1.622    0.383
       222  -9.6028    121.4872    170.5932   1.0050955653e+02   2.2646172904e+01    0.4201409    0.2841754 -83.28  0.001089973    1.947    0.486
       223  -8.9600     45.1551    171.2481   1.1848220063e+02   3.3989205961e+01    0.3252874    0.1752885  81.74  0.001228929    1.974    0.493
       224  -8.1506    237.1703    169.6242   7.6037602720e+01   4.1160189976e-01    0.2186298    0.1689321 -34.74 0.0006199584    1.324    0.245
       225  -8.4994    230.3329    170.1756   7.7375618974e+01   1.5572696282e+00    0.2142633    0.1530458 -14.20 0.0008323616    1.399    0.285
       226  -8.8554    205.0373    170.0111   8.2124533529e+01   6.3611847700e+00    0.2328966     0.227915   9.30  0.001049855    1.157    0.136
       227  -8.4491    198.3630    170.0986   8.3471280822e+01   7.6536802718e+00    0.2413676     0.201132  70.68 0.0006601493    1.597    0.374
       228  -9.2729    167.2400    168.7392   8.9731813586e+01   1.4143445479e+01    0.4007613    0.2707919  73.33  0.001042695    2.356    0.576
       229  -8.7899    150.0119    169.5732   9.3733885066e+01   1.7419289283e+01    0.3245929    0.2289461 -70.41  0.001219704    1.845    0.458
       230  -8.1556    244.6272    169.3835   7.4688184994e+01  -8.6267266633e-01    0.1774183    0.1612378 -65.77 0.0005327641    1.607    0.378
       231  -8.4697    218.9912    168.6230   7.9144746524e+01   3.9137774389e+00    0.2213936    0.1857672 -39.73 0.0005303677    1.306    0.234
       232  -8.7312    111.9812    167.7488   1.0226138061e+02   2.4982919111e+01    0.3640159    0.2252594  76.55  0.001267792    2.350    0.574
       233  -8.3291     88.6082    168.8840   1.0802571342e+02   2.8625032122e+01    0.2602006    0.1603558 -80.67 0.0008980421    1.834    0.455
       234  -7.9227    211.4843    168.0111   8.0447290654e+01   5.4522415264e+00    0.1895909    0.1218456 -59.31 0.0008091143    2.485    0.598
       235  -9.1610    191.6161    166.7372   8.4139896060e+01   9.6001777052e+00    0.3568469    0.2519774 -31.14  0.000889002    1.474    0.321
       236  -8.9360    185.0294    166.7230   8.5504139421e+01   1.0931151524e+01    0.2887885    0.2227247 -75.13 0.0009820514    1.910    0.476
       237  -9.9479     95.0608    162.6598   1.0548712060e+02   2.9020338789e+01    0.9275103    0.5282081  84.96  0.003355032    2.861    0.651
       238  -8.7177     69.1812    166.2127   1.1228035460e+02   3.2102074913e+01    0.2429515    0.1664451 -78.15 0.0009403934    1.370    0.270
       239  -8.9949     20.4503    166.1085   1.2351789374e+02   3.7713044963e+01    0.3295482    0.1310244  60.16  0.001257965    2.658    0.624
       240  -7.8375     13.3230    167.6579   1.2519581868e+02   3.8005798291e+01    0.1272829   0.06760517  69.57 0.0007050657    1.728    0.421
       241  -8.2886    140.6645    166.3165   9.5243140784e+01   1.9937643768e+01    0.2385052    0.1434515  47.84 0.0007890122    1.602    0.376
       242  -9.6726    135.7796    163.8688   9.5909359566e+01   2.1413434094e+01    0.4140999       0.3203  70.49  0.000926239    1.471    0.320
       243  -8.4431    233.8970    165.0922   7.5666418886e+01   1.7083817414e+00    0.1959594    0.1780123 -39.18 0.0005216719    1.295    0.228
       244  -8.7232    159.5502    164.4279   9.0558352304e+01   1.6560624601e+01    0.3025887    0.2406573  75.64 0.0008077216    1.572    0.364
       245  -9.7984     33.5849    163.3971   1.2030832084e+02   3.7043491863e+01    0.5415549    0.2053579  57.99  0.002275993    3.033    0.670
       246  -8.1050    240.0461    164.3045   7.4416365223e+01   7.1849696583e-01    0.1852922    0.1651875   6.77 0.0005027339    1.080    0.074
       247  -8.6549    212.9581    163.6767   7.9242306914e+01   5.9034177264e+00    0.2604198    0.1976375 -39.88 0.0006104094    1.372    0.271
       248  -8.8684    246.0282    163.0100   7.3113911116e+01  -1.4513025668e-01    0.3003712    0.1787521 -38.27 0.0009726124    1.655    0.396
       249  -8.0165    242.2803    160.3096   7.3181154400e+01   9.3606876206e-01    0.2043567     0.157057 -23.51 0.0004445832    1.179    0.152
       250  -8.4025    245.2873    158.6687   7.2317281857e+01   6.5056855269e-01    0.2123884    0.1833932 -42.58 0.0005987547    1.353    0.261
       251  -9.9117    250.1575    157.8548   7.1326345084e+01  -8.7912628042e-02    0.3848846    0.1884972 -37.32 0.0008335614    1.911    0.477
       252  -9.0325    246.5639    155.5052   7.1423277471e+01   9.1016547094e-01    0.2492542    0.1785012 -27.85 0.0006294083    1.261    0.207
       253  -8.6153    204.8313    162.9093   8.0660917549e+01   7.6396856270e+00    0.2434892    0.1958968 -56.74 0.0005544712    1.549    0.355
       254  -8.2606     57.7045    163.5898   1.1467534544e+02   3.4229011009e+01     0.234749    0.1305398  29.18  0.001146278    2.196    0.545
       255  -9.4547      3.2652    162.4024   1.2697205982e+02   3.9989533635e+01    0.3567727    0.1490077  58.27  0.001845343    2.297    0.565
       256  -9.1512    177.6023    160.8528   8.5840623998e+01   1.3566943336e+01    0.3387215    0.2673333 -77.14  0.001024267    1.757    0.431
       257  -9.0008    151.5249    161.0151   9.1681042654e+01   1.8892355395e+01    0.3450107    0.2508013 -81.17  0.001011877    1.952    0.488
       258  -8.6324     60.6780    160.5451   1.1356592896e+02   3.4557311547e+01    0.3239783    0.1628719  65.84  0.001126683    2.497    0.600
       259  -8.6829    227.5964    159.2015   7.5539749196e+01   3.8298408917e+00    0.3126588    0.1888534 -51.53   0.00104686    2.204    0.546
       260  -8.5556    128.4728    159.4589   9.6789599265e+01   2.3787819951e+01    0.2614768    0.1421998 -64.70  0.000620999    2.333    0.571
       261  -9.6044    105.7324    158.1255   1.0208596041e+02   2.8261779215e+01    0.4363092     0.296847  80.68  0.001119624    1.869    0.465
       262  -8.3722    237.1793    159.1516   7.3818363047e+01   2.0455866719e+00    0.1782783    0.1603057 -46.05 0.0005277201    1.344    0.256
       263  -8.4728    196.7573    158.1061   8.1237060570e+01   1.0134405352e+01     0.213778    0.1989594 -62.36 0.0005791501    1.266    0.210
       264  -8.5012    188.1615    157.7049   8.2920450937e+01   1.1982013251e+01    0.2572867    0.1926181 -48.11 0.0006044782    1.448    0.309
       265  -9.0975    167.4144    157.2402   8.7294874070e+01   1.6397285685e+01    0.3076985    0.2563152 -75.01 0.0006134741    1.481    0.325
       266  -8.2743     79.2874    158.6003   1.0872063027e+02   3.2427163534e+01    0.1780917    0.1343379  28.81 0.0009469141    1.584    0.369
       267  -8.3799    217.9504    156.4770   7.6730752382e+01   6.1528419419e+00    0.2578583    0.1874382 -48.18 0.0006482973    1.572    0.364
       268  -9.1355    157.5674    156.2144   8.9294088635e+01   1.8654987099e+01    0.2838711    0.2296422  77.57 0.0007456819    1.522    0.343
       269  -9.3608    119.5915    155.4064   9.8161273640e+01   2.6377798472e+01    0.4421786    0.2870396 -87.89  0.001823758    2.321    0.569
       270  -9.3409     81.7043    154.9519   1.0754194754e+02   3.2922388919e+01    0.5028387    0.2761647  72.32   0.00153201    2.699    0.629
       271  -9.3306     49.4510    155.3175   1.1562607415e+02   3.7168671254e+01    0.3547643     0.200858  74.78  0.001683347    2.003    0.501
       272  -8.9721    242.7381    155.0339   7.1969050768e+01   1.6759676029e+00    0.2022559     0.195019 -40.83 0.0004506583    1.287    0.223
       273  -7.9741    204.8542    155.1664   7.8967930320e+01   9.0103048404e+00    0.2128274    0.1965136 -60.10 0.0006820738    1.288    0.223
       274  -8.6429    144.4417    154.7876   9.2040573430e+01   2.1652517054e+01    0.2858548    0.2267729  75.04 0.0007867938    1.500    0.333
       275  -9.7212    132.8474    153.0520   9.4454026882e+01   2.4356119406e+01    0.4830584     0.346916  77.94   0.00134463    1.846    0.458
       276  -9.1449    133.4901    148.5360   9.3356602297e+01   2.5232730280e+01    0.2690639    0.2513883  27.16 0.0008374916    1.139    0.122
       277  -9.2357     68.0220    153.7170   1.1079267994e+02   3.5186569285e+01    0.4704759    0.2606422  77.29  0.001396485    2.471    0.595
       278  -7.8585    232.8067    153.8250   7.3432816694e+01   3.7183379048e+00    0.1797766    0.1619207 -47.29 0.0005184798    1.313    0.238
       279  -9.3738     20.2887    152.4986   1.2232924069e+02   4.0816047529e+01    0.2497975    0.1405377  76.57  0.001069275    1.716    0.417
       280  -8.1720    182.4796    151.4851   8.2745489870e+01   1.4365248247e+01    0.2550693    0.1405934 -52.30 0.0006658745    2.166    0.538
       281  -8.8250     98.3559    150.9768   1.0264195306e+02   3.1189579122e+01    0.3538389    0.2250906 -88.56  0.001057241    2.135    0.532
       282  -9.6972     29.4725    150.7867   1.1996437668e+02   4.0364272925e+01     0.455119    0.2083051  72.99  0.001985484    2.760    0.638
       283  -9.1115      2.5322    150.5137   1.2626302975e+02   4.2688015177e+01    0.3283972    0.1143824 -78.43  0.001562932    2.255    0.557
       284  -9.7605    248.8929    149.4423   6.9723047807e+01   1.4300324344e+00     0.358097     0.189611 -34.39 0.0007952021    1.708    0.414
       285  -8.7195    247.0150    144.0110   6.8840801763e+01   2.6250488039e+00    0.2549269    0.1699471 -29.90 0.0005344324    1.348    0.258
       286 -10.0367    242.6380    150.0981   7.0911410488e+01   2.4727439123e+00    0.3602619     0.299231  43.26  0.002094319    1.346    0.257
       287  -9.1529    233.3695    147.6761   7.1974924887e+01   4.6170077059e+00    0.2661968    0.2117226 -39.64 0.0007326676    1.284    0.221
       288  -8.9460    189.4091    150.3094   8.1018500399e+01   1.3122509415e+01     0.319435    0.2386429 -55.56 0.0008312927    1.571    0.363
       289  -8.3911    162.4831    150.5074   8.6935618208e+01   1.8808941338e+01    0.2572602    0.1450995 -55.85 0.0007821041    2.131    0.531
       290  -8.2868    213.0697    149.8673   7.6188189110e+01   8.2758685054e+00    0.2077213    0.1948986 -56.90 0.0004674088    1.253    0.202
       291  -9.7303     39.4954    147.7717   1.1715158217e+02   4.0057711808e+01    0.5008413    0.2341108  69.99  0.001776041    2.920    0.658
       292  -8.3050    198.8501    149.1055   7.8808986012e+01   1.1356559010e+01    0.2174436     0.199711 -57.94 0.0004932628    1.246    0.198
       293 -10.1050     89.2874    146.4089   1.0414470681e+02   3.3763502508e+01    0.6855661    0.3789672  88.50  0.002435949    3.325    0.699
       294  -8.1549    228.6832    148.7006   7.3034864325e+01   5.3575256179e+00    0.1450908    0.1042843   5.97 0.0002518627    1.614    0.381
       295 -10.3572    149.1071    145.0826   8.8837287627e+01   2.2782644077e+01    0.6140943    0.4245014  89.51  0.001635279    2.357    0.576
       296  -8.9419     78.1924    147.2884   1.0717860370e+02   3.5266675912e+01    0.3378741    0.2073647  77.63 0.0009731034    2.131    0.531
       297 -10.3976     54.7112    144.0503   1.1277292195e+02   3.9212633267e+01    0.9155167    0.4468782  83.32  0.003381308    3.391    0.705
       298  -8.1529    223.3034    146.9987   7.3627633216e+01   6.7077595091e+00    0.1995105    0.1724537 -23.85 0.0003301796    1.086    0.080
       299 -10.0167    138.9218    144.7364   9.1211413908e+01   2.4976236715e+01    0.5087701    0.3107308 -67.63  0.001269563    2.249    0.555
       300  -9.2252     12.9564    145.7562   1.2343395568e+02   4.2978725310e+01    0.3817905    0.1671054  77.24  0.001528765    2.618    0.618
       301  -9.4153    240.3652    145.2402   7.0224738071e+01   3.6754451324e+00    0.2893538    0.1788548 -36.48 0.0006571492    1.507    0.336
       302  -7.9264    206.7704    146.3640   7.6611909780e+01   1.0199169419e+01    0.1931854    0.1801845 -37.62 0.0006123265    1.133    0.117
       303  -8.2731    175.6832    146.2301   8.3026804409e+01   1.6856143703e+01    0.2290524    0.1909838 -63.40 0.0006262467    1.393    0.282
       304  -9.9625    125.1553    142.9067   9.4227182771e+01   2.8154681660e+01    0.5413908    0.3615473  89.50  0.001648068    2.340    0.573
       305  -7.9094    194.1960    144.1853   7.8629409261e+01   1.3264445837e+01    0.2019202     0.178904 -71.06 0.0005481098    1.366    0.268
       306  -8.8628    165.4165    144.1040   8.4828310183e+01   1.9506467557e+01    0.2856979    0.2187514  56.19 0.0006882197    1.385    0.278
       307 -10.7597     68.7610    139.8071   1.0840585705e+02   3.8410535863e+01    0.9727971    0.4511957 -65.33  0.003302119    2.026    0.506
       308  -9.4212      2.6624    141.7581   1.2553322930e+02   4.4654935877e+01    0.3635738    0.1586663  77.35  0.001620864    2.420    0.587
       309  -7.5844    230.5044    142.5079   7.1318344848e+01   6.0348671011e+00    0.1423289    0.1294768 -15.10 0.0008104381    1.030    0.029
       310  -8.3805    181.9776    141.9378   8.0670739989e+01   1.6343308861e+01    0.2364774    0.1901464 -83.62 0.0006337265    1.697    0.411
       311  -8.3860    250.3541    140.9948   6.7630111686e+01   2.4825862466e+00    0.1975659    0.1577705 -27.49 0.0006480663    1.114    0.103
       312  -8.3126     40.4417    141.0545   1.1605846535e+02   4.1549780004e+01    0.2467256    0.1346333 -30.81   0.00102863    3.456    0.711
       313  -8.8906    242.6832    143.3193   6.9406463602e+01   3.5458203949e+00    0.4312834    0.1946472 -23.14  0.001624873    2.769    0.639
       314 -10.4247    106.8422    143.9960   9.9131692426e+01   3.1348104296e+01    0.8426496    0.5565862 -79.35  0.002332798    1.920    0.479
       315  -9.8623     23.5728    138.4349   1.2006794659e+02   4.3794567991e+01    0.4989092    0.2300069  67.75  0.001925972    2.726    0.633
       316  -8.5771    172.3703    138.4049   8.1939382853e+01   1.9158548705e+01    0.3241188    0.2311406 -84.37 0.0008109867    2.289    0.563
       317  -7.6377    218.5887    138.5244   7.2556916484e+01   9.1337542596e+00    0.1448942    0.1344177 -23.22 0.0001860541    1.056    0.053
       318  -8.2865    207.5155    138.1529   7.4565900796e+01   1.1531659409e+01    0.2276626    0.2052006 -79.28 0.0005923926    1.372    0.271
       319  -8.7335    197.5228    137.4211   7.6369594255e+01   1.3821954093e+01    0.3056812    0.2242343 -58.67 0.0008272732    1.674    0.403
       320  -8.9932    140.4261    136.7700   8.9050231031e+01   2.6428882174e+01    0.2150607    0.1473128 -37.21 0.0005251268    1.580    0.367
       321  -9.0552     39.3836    136.1868   1.1568494860e+02   4.2821166543e+01    0.3239654    0.1968336  69.35  0.001122009    1.830    0.453
       322  -8.5841    247.0146    130.3061   6.5769349787e+01   4.8109477952e+00    0.2352791    0.1696719 -39.15 0.0005746894    1.304    0.233
       323  -9.0209    248.5246    135.2854   6.6651842448e+01   3.7264834537e+00    0.3610229    0.1870033 -40.29 0.0007552061    1.810    0.448
       324  -9.0353    250.7301    130.1522   6.5146764169e+01   4.1251893354e+00    0.4787659    0.1229663 -33.08  0.001492292    3.734    0.732
       325  -9.0521    150.8013    136.2184   8.6402309455e+01   2.4337872265e+01    0.4071278     0.241891  23.54  0.001486777    2.580    0.612
       326  -7.6556    188.0064    135.9618   7.7979973368e+01   1.6189340956e+01    0.1843741    0.1724927 -25.75 0.0004002133    1.053    0.050
       327  -8.1150    162.6222    136.4033   8.3670760841e+01   2.1719540721e+01    0.2216653    0.1831918 -87.86 0.0005426026    1.516    0.341
       328  -8.1024    125.3214    136.3018   9.2738196084e+01   2.9630339429e+01    0.1515298    0.1232615  -6.26 0.0007027129    1.629    0.386
       329 -10.3924     83.4204    132.8761   1.0317763434e+02   3.7932267609e+01    0.5974545    0.3409666 -73.48  0.001212259    2.051    0.512
       330  -8.6380     57.3124    135.4142   1.1076550464e+02   4.0969094026e+01    0.2305916    0.1378596  25.85  0.001124319    2.094    0.523
       331  -7.9867    237.5588    133.7636   6.8108608906e+01   6.0940055960e+00    0.1990729    0.1223093 -43.90 0.0009334009    1.643    0.391
       332  -8.5846    179.3601    133.8772   7.9322333983e+01   1.8521180338e+01    0.2868507     0.226168 -64.38 0.0008300996    1.528    0.345
       333 -10.2607    132.5066    131.8266   8.9881434562e+01   2.9187517652e+01    0.5270818    0.3750193 -88.16  0.001114401    2.048    0.512
       334  -9.0739    112.7601    132.9936   9.5272122151e+01   3.2835514718e+01    0.4281627    0.2925268 -59.59  0.001397731    1.480    0.324
       335  -9.8769    143.0653    131.1593   8.7081330099e+01   2.7109101521e+01    0.5402192    0.2927961 -45.97  0.001823663    1.850    0.459
       336 -10.4975     98.1526    129.6243   9.8471813629e+01   3.6282993426e+01    0.9441602    0.3047701 -55.27  0.002493323    3.016    0.668
       337  -9.3819    168.3586    129.4874   8.0688989896e+01   2.1881321594e+01    0.3636276    0.2557421 -58.31 0.0007489043    1.652    0.395
       338  -9.7089     73.1089    129.3576   1.0535854452e+02   4.0324303771e+01      0.42149    0.2635004 -85.21  0.001313152    1.989    0.497
       339 -10.1062     12.9614    129.4010   1.2180039922e+02   4.6764214956e+01    0.4610176    0.2278518  76.39   0.00187841    2.293    0.564
       340  -7.9484    204.4266    130.2180   7.3277881143e+01   1.3656043652e+01    0.2125769    0.1374644 -47.39 0.0008641636    1.627    0.385
       341  -8.0682    192.8282    130.1294   7.5572837793e+01   1.6243552930e+01    0.2274688    0.2046593 -62.26 0.0005290368    1.239    0.193
       342  -9.6131    152.9586    128.2460   8.3969642890e+01   2.5586354230e+01    0.6808438     0.295325 -45.34   0.00210589    2.314    0.568
       343  -8.5880     25.7090    129.7385   1.1847853858e+02   4.5658802276e+01    0.2180907    0.1595852 -15.62  0.001281936    2.016    0.504
       344  -7.9127      1.6617    130.3053   1.2477878168e+02   4.7333088713e+01    0.1211421   0.07140604  69.99 0.0007040639    1.675    0.403
       345  -8.0243    211.5307    129.0280   7.1631261669e+01   1.2322812834e+01    0.2045174    0.1228503 -57.54 0.0005032413    2.318    0.569
       346 -10.7721     44.7588    123.4222   1.1232121961e+02   4.5319529268e+01     1.082279    0.5277396  79.16  0.003869771    3.891    0.743
       347 -10.3860     59.9424    125.0782   1.0828430759e+02   4.3139705445e+01    0.7186632    0.4121268  78.08  0.002673558    2.624    0.619
       348  -8.6365     59.4408    115.5119   1.0664338095e+02   4.5516820371e+01    0.3963455    0.2229419 -19.84  0.001442589    3.904    0.744
       349 -10.0283    118.0703    124.9290   9.2015359034e+01   3.3686573244e+01     0.641283    0.4596229 -65.26  0.001432705    1.531    0.347
       350  -8.1418    228.5438    125.7894   6.7789262955e+01   9.2681520634e+00    0.2041703    0.1268914 -45.56 0.0005663132    1.642    0.391
       351  -9.0283    179.2167    124.6618   7.7086728700e+01   2.0395086621e+01    0.3086179    0.2655955 -61.37  0.000689218    1.282    0.220
       352  -9.1128    134.1283    125.2231   8.7888738022e+01   3.0334555591e+01    0.3749636    0.1857032  35.28   0.00135286    2.370    0.578
       353 -10.0583     28.4620    122.5437   1.1677982894e+02   4.7125872901e+01    0.6637031    0.3110988  79.94  0.002653316    3.277    0.695
       354  -9.8360     26.5492    114.1977   1.1613303930e+02   4.9276079023e+01    0.4081672    0.2246227   3.72  0.001962875    3.003    0.667
       355  -8.0004    243.5548    124.4829   6.4988735911e+01   6.4304094754e+00    0.1412317    0.1251824 -26.80 3.672261e-05    1.028    0.028
       356  -8.9963    234.1710    124.2324   6.6465620635e+01   8.3669489524e+00    0.2523199    0.1529185   9.55 0.0009642431    2.895    0.655
       357  -7.5477    188.6458    124.2929   7.4996282922e+01   1.8313786270e+01    0.1560492    0.1245074 -84.22 0.0007030364    1.684    0.406
       358  -9.0633    158.7251    121.6534   8.0951287558e+01   2.5697871911e+01    0.3730325    0.2878686 -85.90  0.001009275    1.757    0.431
       359  -8.2663     84.4313    122.8403   1.0085596616e+02   4.0189318404e+01    0.2090173    0.1247278 -46.73 0.0006472957    1.661    0.398
       360  -9.5724     71.5027    120.1671   1.0402197001e+02   4.2776149787e+01    0.5059319    0.3033039  85.99  0.001759758    2.629    0.620
       361  -8.1784    194.9670    122.0091   7.3134086378e+01   1.7312165848e+01    0.2440364    0.1876257 -71.50 0.0005847123    1.721    0.419
       362  -8.7667    171.8825    121.6145   7.7927783487e+01   2.2693128951e+01    0.2993408    0.2229987 -49.17 0.0005591573    1.382    0.276
       363 -10.0833    131.2886    118.7875   8.7021467503e+01   3.2379901342e+01    0.6122492    0.4197963 -87.10  0.002174523    2.364    0.577
       364 -10.1740    141.5513    118.0234   8.4200651059e+01   3.0329514121e+01    0.6987855     0.363519 -49.37  0.001148809    1.965    0.491
       365  -9.8603      3.0324    117.2747   1.2313771705e+02   5.0244783104e+01    0.4793783    0.2075876  74.88  0.002143783    2.991    0.666
       366  -7.9690    231.4583    117.4892   6.5320156271e+01   1.0070726586e+01    0.1453532    0.1324562 -29.38 0.0008089951    1.023    0.023
       367  -7.8746    219.4641    116.5179   6.7143965464e+01   1.2821807078e+01    0.1485044    0.1384977 -27.05 6.589093e-05    1.010    0.010
       368  -8.4072    207.1254    116.0419   6.9274712133e+01   1.5660551780e+01    0.2297016    0.1951195   5.00 0.0004250212    1.305    0.234
       369  -8.1120    185.8367    116.0898   7.3502579928e+01   2.0555920012e+01    0.2358233    0.2064763 -68.24  0.000504001    1.286    0.222
       370 -10.3002    109.3435    113.2190   9.1549665227e+01   3.8097241695e+01    0.8693346     0.400081 -53.51  0.002516139    2.191    0.544
       371  -9.4727    249.4227    114.2357   6.1707173935e+01   6.9237742674e+00    0.4063749    0.2424177 -59.22  0.001763445    2.408    0.585
       372  -8.1250    192.9781    115.3493   7.1850296693e+01   1.9036851210e+01     0.209754    0.1977837  53.74 0.0004433293    1.104    0.094
       373 -10.1585     92.7596    112.7598   9.6182266659e+01   4.1221035792e+01    0.6419253    0.3607108 -69.24  0.001288025    2.341    0.573
       374  -8.9751     93.1749    104.9656   9.4140677031e+01   4.2977548592e+01    0.5163227    0.3185262  13.99  0.002011373    2.731    0.634
       375 -10.0138     78.9213    112.4288   1.0018565189e+02   4.3543912707e+01    0.6127386    0.3885617 -86.28  0.002022375    2.339    0.572
       376  -8.7960     78.2344    105.5292   9.8796428243e+01   4.5289548703e+01    0.2886211    0.2207888 -24.76 0.0009122158    1.567    0.362
       377  -7.9992    167.1983    114.2178   7.7068977777e+01   2.5289258872e+01    0.2183557    0.1866045 -72.22 0.0007116395    1.344    0.256
       378  -8.7214    174.7632    112.0272   7.4808022670e+01   2.3955117340e+01    0.3172639    0.2052201 -52.36 0.0008519855    1.692    0.409
       379 -10.1796    133.7041    109.4574   8.3964409308e+01   3.3932242501e+01    0.6956158    0.3390875 -52.59  0.002075882    2.248    0.555
       380 -10.7064    128.9446    101.4466   8.3033223144e+01   3.6721160729e+01    0.7093189    0.4307267 -36.31  0.002243606    1.732    0.423
       381  -9.6592    122.1099    112.6496   8.7886607445e+01   3.5683809067e+01    0.3545006    0.2894976 -74.79 0.0008006769    1.405    0.288
       382  -9.8895    119.0374    106.8589   8.7203842975e+01   3.7621942963e+01    0.3848023    0.3231075 -44.02  0.001495728    1.163    0.140
       383 -10.1059     14.2042    110.9554   1.1926045158e+02   5.0990408674e+01    0.4834701    0.2571517 -86.26    0.0022364    1.829    0.453
       384 -10.2441     66.3223    109.9858   1.0344284295e+02   4.5946472427e+01    0.5756774    0.3187805 -64.12   0.00187452    1.729    0.422
       385  -9.5775    248.4066    107.9495   6.0395889088e+01   8.1368763707e+00    0.3413971    0.2671789 -65.38  0.001672026    1.551    0.355
       386 -10.4838    249.4427    103.4683   5.9195648194e+01   8.6438619181e+00    0.4416397     0.343523 -55.62  0.002418472    1.374    0.272
       387  -8.5952    159.1720    111.7338   7.8263423632e+01   2.7673952189e+01     0.275918    0.2088749 -52.83 0.0005645694    1.384    0.277
       388  -8.0479    189.3778    108.2214   7.0729643032e+01   2.1238155510e+01    0.2251091    0.1395177 -47.56 0.0004608261    1.661    0.398
       389  -9.3289    139.7368    104.6735   8.1108236335e+01   3.3630989898e+01    0.3784768    0.2932049 -77.38 0.0009976026    1.663    0.399
       390 -10.6018     45.5513    102.3990   1.0831967304e+02   5.0279106132e+01    0.7385415    0.4149017  77.44  0.002947904    3.113    0.679
       391  -9.1246     45.5525     92.7702   1.0630827614e+02   5.2550101647e+01    0.4267668    0.2398967  -7.64  0.001771349    3.295    0.696
       392 -10.6832     22.8959    102.6576   1.1545819791e+02   5.2300635377e+01    0.7312889    0.3760676  76.67  0.002997671    2.959    0.662
       393  -8.6141    166.7197    104.2190   7.4497651967e+01   2.7428209141e+01    0.3335367    0.2362893 -59.55 0.0007272774    1.656    0.396
       394  -9.6152    150.5834    103.1016   7.7969702769e+01   3.1472952474e+01    0.4947385    0.3028347 -60.61  0.001190794    2.144    0.534
       395  -8.9002      6.8604    103.0295   1.2037440735e+02   5.3309884058e+01    0.2704303    0.1615323  69.76  0.001088387    1.940    0.485
       396 -10.7405    108.9216     98.8856   8.7893235246e+01   4.1445953779e+01    0.8411741    0.5085622  69.57   0.00122824    2.980    0.664
       397  -7.8031    175.6078    102.2485   7.2003269710e+01   2.5683821196e+01    0.2128172    0.1513084 -29.48 0.0004418792    1.479    0.324
       398  -8.2236    159.7612    101.3437   7.5298021978e+01   2.9668476927e+01     0.295156    0.1891598 -52.48 0.0007376223    1.701    0.412
       399  -9.4388     82.0968    100.0508   9.6260929513e+01   4.5971607647e+01     0.352818    0.2496563 -78.23 0.0007798513    1.803    0.445
       400 -10.1935     63.8517     95.8984   1.0101969252e+02   4.9618717703e+01    0.6119349    0.3804728 -84.54  0.001713138    2.491    0.599
       401  -8.7856     65.4402     87.3015   9.8334955329e+01   5.1389922943e+01    0.4867269    0.2833017   0.21  0.001861351    3.389    0.705
       402  -7.9306    153.4449    115.9267   8.0730550810e+01   2.8112946984e+01    0.2221172    0.1362845 -65.34 0.0006361108    2.398    0.583
       403  -9.4505     94.9488     97.0717   9.1534737025e+01   4.4481326767e+01    0.3716481    0.2701794 -66.81 0.0006879678    1.569    0.363
       404  -8.4309    152.2141     93.9185   7.4978235201e+01   3.2967862444e+01    0.3869545    0.2211073 -16.89  0.001258714    3.139    0.681
       405  -8.1573    164.8797     94.1458   7.2105007658e+01   2.9867311440e+01    0.2420963    0.2102422 -66.81 0.0004548047    1.261    0.207
       406  -9.3881    139.0405     92.1825   7.7736749543e+01   3.6415987025e+01    0.4558607    0.3009059 -59.53 0.0008672996    1.847    0.459
       407  -7.6064    188.5250     93.5214   6.6959249457e+01   2.4198603960e+01    0.1552401    0.1506203 -51.14 8.450397e-05    1.018    0.018
       408  -8.1872    176.3203     93.0721   6.9316503489e+01   2.7274414401e+01    0.2321509    0.1908951 -44.14 0.0006499651    1.203    0.169
       409 -10.7351    123.9970     90.6596   8.1277801141e+01   4.0110241357e+01    0.7677772    0.5562796 -19.06  0.002316371    1.707    0.414
       410  -9.5273      5.1808     92.1726   1.1940473330e+02   5.5905018980e+01    0.3389753    0.1797951  54.24  0.001436512    2.429    0.588
       411  -9.2540     42.9417    109.4739   1.1047303569e+02   4.8865454771e+01    0.3111383    0.1370201  25.70  0.001368957    2.793    0.642
       412  -8.0844    157.6832     91.5358   7.2999615434e+01   3.2126849221e+01    0.2690821    0.1446554 -39.47 0.0001905247    1.842    0.457
       413  -9.6368     34.9340     90.0367   1.0927495916e+02   5.4241928873e+01    0.4400395    0.2465529 -83.77  0.001482298    2.367    0.577
       414  -9.1972    107.9748     92.4953   8.6365369673e+01   4.3048377027e+01    0.5389434     0.290049  29.92  0.002049648    2.408    0.585
       415  -9.3184     22.9815     90.2849   1.1331732703e+02   5.5184232432e+01    0.2849722    0.2329004  11.17  0.001248115    1.524    0.344
       416  -7.9290    151.1482     89.2271   7.3868207920e+01   3.4158688432e+01    0.2182721    0.1841754 -68.12 0.0004455583    1.343    0.255
       417 -10.1287     86.4820     86.1246   9.1109462865e+01   4.8416722482e+01    0.6245873    0.4173108 -64.73  0.001993346    1.794    0.442
       418  -7.5207    188.2856     87.5858   6.5371914710e+01   2.5338708717e+01    0.1684422     0.116118 -64.57 0.0006075767    1.821    0.451
       419  -7.8150    164.1371     87.1767   7.0267932569e+01   3.1393413462e+01    0.2186276    0.1850122 -69.86 0.0004229618    1.333    0.250
       420 -10.0142     48.5361     83.9463   1.0324702587e+02   5.4264115291e+01    0.5861057      0.36586 -74.77  0.002133436    1.933    0.483
       421  -7.6435    179.3024     85.6456   6.6606290075e+01   2.7918626886e+01    0.1651614    0.1208837 -68.66 0.0007039106    1.707    0.414
       422  -9.7530    104.7079     83.1914   8.4577225733e+01   4.5700035233e+01    0.4834428    0.3094788 -63.74  0.001047357    2.100    0.524
       423  -8.3778    104.7930     77.3881   8.2748275400e+01   4.6893891438e+01     0.293888    0.1941061 -16.77  0.001002782    2.061    0.515
       424  -8.3199    157.9183     84.1208   7.0772812200e+01   3.3504937762e+01    0.2394346    0.2093873 -66.29 0.0004052155    1.247    0.198
       425  -8.9049    140.9032     82.5941   7.4395554655e+01   3.7908127224e+01    0.4108479    0.2203828 -47.33  0.001092674    1.956    0.489
       426  -9.6897      9.8959     81.0426   1.1608448488e+02   5.8174846433e+01    0.3685656     0.208564  66.23  0.001509777    2.565    0.610
       427  -9.7836     24.5060     80.5247   1.1089386434e+02   5.7309193988e+01    0.4478951    0.2632119 -85.74  0.001359681    2.177    0.541
       428  -8.0714    150.5010     80.9123   7.1538628848e+01   3.5929390548e+01    0.2336003     0.153551 -40.68 0.0006044739    1.512    0.339
       429  -9.3321    119.3535     80.2837   7.9415118453e+01   4.3266713368e+01    0.4040368    0.2631042 -49.96  0.001562265    1.607    0.378
       430  -8.9803     74.5202     80.2502   9.3330038930e+01   5.1648917138e+01    0.3405712    0.2336538 -69.13  0.001090338    1.853    0.460
       431  -8.4162    166.7809     79.5790   6.7460402984e+01   3.2153853001e+01    0.2778575    0.2123482 -35.61 0.0004450386    1.308    0.236
       432  -7.9882    184.2081     78.0935   6.3488500870e+01   2.8041303949e+01    0.2070181    0.1240164 -33.27 0.0006157775    1.679    0.404
       433  -7.7005    174.7126     78.3463   6.5438951560e+01   3.0385748684e+01    0.1627812    0.1199455 -67.25  0.000424289    1.653    0.395
       434  -9.8936     63.5278     73.8818   9.5256050653e+01   5.4640686879e+01    0.6690476    0.2927472 -61.44  0.002449465    3.069    0.674
       435  -8.9892     64.3956     63.7354   9.1799248346e+01   5.6661544975e+01    0.5403615    0.2937664 -16.84   0.00201978    3.354    0.702
       436  -9.4892    127.9996     75.4038   7.5498627258e+01   4.2309054105e+01    0.3791849    0.2800368 -59.70 0.0006416379    1.612    0.380
       437  -7.7108    157.2649     76.6483   6.8676277352e+01   3.5062653107e+01    0.1605576    0.1209433 -66.31 0.0004366953    1.619    0.382
       438  -8.6254    140.3720     75.5001   7.2331020767e+01   3.9398981759e+01     0.267123    0.2260922 -86.69 0.0007256018    1.429    0.300
       439  -9.5354    111.1380     74.0171   7.9780021449e+01   4.6276563774e+01    0.3225721    0.2415676  23.69 0.0002820777    1.518    0.341
       440  -9.0243    115.4514     72.8637   7.8155635390e+01   4.5587709403e+01     0.407516    0.2015195 -37.99  0.001235914    2.007    0.502
       441  -9.7924     82.6238     71.7446   8.8007050615e+01   5.2160242579e+01    0.8458791    0.3346798 -42.94   0.00320564    2.359    0.576
       442  -8.5808    250.0000     82.0121   5.4062039650e+01   1.1901635178e+01    0.2423386   0.07110831 -33.94 0.0008132727    3.018    0.669
       443  -8.3761    163.4689     73.1085   6.6234384968e+01   3.4149532616e+01    0.2372778    0.1529086 -36.85 0.0006085311    1.547    0.354
       444  -8.0936    151.1965     73.2383   6.9017178899e+01   3.7187534723e+01    0.2159501    0.1842967 -70.35 0.0007597539    1.333    0.250
       445  -9.2959    105.9025     71.6796   8.0573658800e+01   4.7821910316e+01    0.4100118    0.2066403 -48.28  0.001030676    2.086    0.521
       446  -9.6096     94.9495     69.9421   8.3393612275e+01   5.0319089502e+01    0.7610173    0.2686372 -46.76  0.002513555    2.851    0.649
       447  -8.4956     42.8550     72.7337   1.0241553536e+02   5.7398867998e+01    0.2489407    0.1662016 -83.47  0.001082725    2.181    0.541
       448  -7.9383    175.4780     72.5306   6.3579954375e+01   3.1213442435e+01    0.1527019    0.1520978  83.06 0.0001347417    1.019    0.019
       449  -9.4997     51.3605     69.5292   9.8384094748e+01   5.7146566375e+01    0.4315866    0.2282907 -65.37  0.001371167    2.376    0.579
       450  -9.2216     29.9717     70.0155   1.0651770663e+02   5.9222553271e+01    0.4393446    0.2088602 -18.15   0.00174541    3.772    0.735
       451  -8.9740     16.8426     70.3843   1.1152413112e+02   6.0133599384e+01    0.2605818     0.156561 -73.97 0.0009829547    1.654    0.396
       452  -7.6270    157.2790     69.7036   6.6540139182e+01   3.6306093607e+01    0.1541772    0.1212616 -70.97 0.0001821934    1.535    0.348
       453  -8.8611    146.9597     67.9270   6.8335050451e+01   3.9185525911e+01    0.3891219     0.209778 -40.64 0.0006937005    1.858    0.462
       454  -8.7122    138.4446     66.2309   6.9841669774e+01   4.1561551743e+01    0.2865516    0.2214526 -67.13 0.0006940739    1.618    0.382
       455  -8.8888    121.6909     66.1869   7.4197558308e+01   4.5481414277e+01    0.3334595    0.2359308 -58.73 0.0008089396    1.759    0.432
       456  -8.9752    110.1379     63.8805   7.6697567470e+01   4.8438428112e+01    0.3076166    0.2325379 -55.02 0.0007051195    1.530    0.346
       457  -8.7253     37.4858     64.3616   1.0215839122e+02   5.9765430503e+01    0.2525751    0.1897201  86.76 0.0008694995    1.967    0.492
       458  -7.7084    130.6805     64.3311   7.1179750007e+01   4.3748204836e+01    0.1558547    0.1220852 -74.38 0.0007048395    1.692    0.409
       459  -8.0027    158.1649     62.0954   6.3968872340e+01   3.7384845127e+01    0.2096053    0.1765735 -63.00 0.0003858965    1.303    0.232
       460  -9.6777     73.3708     59.6733   8.7194684262e+01   5.6120879247e+01     0.398295    0.2324552 -53.72  0.001351127    1.925    0.480
       461  -7.8610     89.2124     59.9138   8.1838702604e+01   5.3346383201e+01    0.1909615    0.1100962 -41.73 0.0008539312    1.660    0.398
       462  -9.5526     97.7270     60.5900   7.9331135730e+01   5.1593943528e+01    0.3986892    0.3138129 -41.06  0.001438597    1.259    0.206
       463  -7.4937    203.2757     67.2857   5.7094349617e+01   2.5067275405e+01    0.1428989    0.1169692  19.80 0.0002710605    1.510    0.338
       464  -9.9656     23.4990     56.6048   1.0556358497e+02   6.2639656182e+01    0.4293649    0.2736652 -89.17  0.002150227    2.688    0.628
       465  -9.5410      7.5303     57.1702   1.1219274411e+02   6.3561393150e+01    0.2854458    0.1806594  89.62  0.001013845    2.157    0.536
       466  -8.2043    130.8215     58.0333   6.9021928827e+01   4.4810608053e+01    0.2250453    0.2005569 -67.17 0.0004389143    1.287    0.223
       467  -9.2523    119.1214     55.7819   7.1331891914e+01   4.7908802486e+01    0.4059515    0.2318317 -46.64  0.001513293    1.941    0.485
       468  -9.4047     54.2423     55.4348   9.2866650229e+01   5.9719397218e+01    0.3418746    0.2180541 -60.20   0.00103551    1.891    0.471
       469  -7.9687    140.0242     56.3416   6.6187365219e+01   4.2870289938e+01    0.2087863    0.2000638  48.79 0.0004845624    1.037    0.035
       470  -8.9009     44.1770     55.6232   9.6893885444e+01   6.0892713493e+01       0.2435    0.1884449 -71.01 0.0007646587    1.672    0.402
       471  -8.4973    105.6989     53.1853   7.4239826932e+01   5.1293278942e+01    0.2332047    0.2019875  60.65 0.0006449872    1.331    0.249
       472  -8.2847     73.8573     52.7310   8.4554695758e+01   5.7369882988e+01    0.2319884    0.1385129  -6.22 0.0007436367    2.723    0.633
       473  -9.4509     92.3653     50.7538   7.7489340112e+01   5.4415288504e+01    0.3797948    0.2365928 -48.54  0.001086833    1.825    0.452
       474  -8.1335    144.7973     49.0804   6.2650139314e+01   4.2836650717e+01    0.1998991    0.1189313 -33.16 0.0004737652    1.714    0.417
       475  -8.2058    129.7108     49.0610   6.6196858230e+01   4.6539118003e+01    0.2068855    0.1914131 -18.48 0.0004435982    1.091    0.084
       476  -8.6743    120.8819     47.3992   6.7869080192e+01   4.8878034546e+01     0.266167    0.2076288 -18.72 0.0005623348    1.333    0.250
       477  -8.3016    112.0953     47.0205   7.0126768918e+01   5.0929239988e+01    0.2190925    0.1790178 -71.21 0.0005727358    1.651    0.394
       478  -9.0324     82.2097     46.4653   7.9259396527e+01   5.7056479949e+01    0.2840064    0.2188415 -48.97 0.0007514128    1.488    0.328
       479  -8.1843    156.3228     46.7287   5.9428905462e+01   4.0265878477e+01    0.1502791    0.1156969 -75.48 0.0002334907    1.572    0.364
       480  -8.5555     45.1030     44.7700   9.2796479380e+01   6.2918479497e+01    0.2095599    0.1578712 -50.36 0.0004888698    1.370    0.270
       481  -8.9064     16.5213     44.6901   1.0511065631e+02   6.5602328027e+01    0.2139592    0.1709827 -61.85 0.0007853196    1.314    0.239
       482  -8.8116    132.9261     43.4922   6.3452793410e+01   4.6608362685e+01     0.269462    0.2015489 -50.33 0.0007410606    1.515    0.340
       483  -8.9539     58.1215     42.6709   8.6710995331e+01   6.1611499548e+01    0.2752115     0.174964 -54.00 0.0009003401    1.936    0.483
       484  -8.6183     92.9175     42.6953   7.4240670596e+01   5.5655186546e+01    0.2446997    0.1871003 -12.53 0.0008448489    1.324    0.245
       485  -9.2297     69.7988     41.6835   8.1836500510e+01   6.0004605716e+01    0.3634618    0.2527286 -60.46  0.001162087    2.218    0.549
       486  -9.3485      5.2459     42.1271   1.0939156434e+02   6.6801926409e+01     0.301387    0.1823019 -76.94  0.001732174    2.067    0.516
       487  -8.6293    105.9959     41.4928   6.9791560224e+01   5.3128285519e+01    0.2559425    0.1923789 -45.97 0.0006145312    1.506    0.336
       488  -7.6327    140.4323     41.4961   6.1032783956e+01   4.5046475827e+01    0.1451853    0.1420948  55.77 0.0001881081    1.045    0.043
       489  -8.4634     36.8848     41.0649   9.4941717487e+01   6.4536395236e+01    0.1794303    0.1575455 -48.16 0.0005444339    1.293    0.227
       490  -8.5309     95.4367     38.0241   7.1608814130e+01   5.5876283576e+01    0.2755772    0.1972838 -48.71 0.0007321612    1.693    0.409
       491  -8.1576     80.8273     36.8479   7.5926146869e+01   5.8888351512e+01    0.1738746    0.1620228 -45.84  0.000401953    1.323    0.244
       492  -9.4829     26.0759     35.0839   9.7589859732e+01   6.6709007123e+01    0.3730373     0.199621 -52.59  0.001337603    1.737    0.424
       493  -7.7844    133.4811     36.4703   6.0828460477e+01   4.7466653618e+01     0.145645    0.1376176  38.98 0.0001278592    1.009    0.009
       494  -8.0651    126.0256     35.6875   6.2294020379e+01   4.9382843768e+01    0.2013921    0.1748144  48.13 0.0003115583    1.100    0.091
       495  -8.6949    111.8675     34.7594   6.5559933009e+01   5.2810466977e+01    0.2564474    0.1754865 -55.09 0.0004835663    1.962    0.490
       496  -8.6870    119.1693     33.0182   6.2989917812e+01   5.1367845289e+01     0.324542    0.1602283 -42.79  0.000902562    2.315    0.568
       497  -7.4905    104.3333     34.6446   6.7611892797e+01   5.4496014972e+01    0.1409148    0.1121326 -68.12 0.0007043991    1.792    0.442
       498  -7.7202     88.5348     34.5543   7.2404042682e+01   5.7776444303e+01    0.1370501    0.1239771   4.51 0.0001301189    1.038    0.036
       499  -8.8091     48.5668     33.5681   8.6991163946e+01   6.4504344906e+01    0.2197851    0.1989883 -26.17 0.0007189671    1.233    0.189
       500  -8.6972     60.6128     32.8004   8.1726839335e+01   6.2926319520e+01    0.2188209    0.1871035 -53.64 0.0006635835    1.572    0.364
       501  -8.0181    139.2318     31.9660   5.7965943366e+01   4.6634769731e+01    0.1899597    0.1214529 -27.76   0.00088004    1.643    0.391
       502  -8.7774     72.0636     31.3155   7.6732659337e+01   6.1298322345e+01    0.2108903    0.1796649 -48.59   0.00060048    1.497    0.332
       503  -9.0725     12.8536     30.1723   1.0208739760e+02   6.8669494121e+01    0.3076126    0.1536205 -60.99  0.001394087    2.183    0.542
       504  -8.3035    101.6500     29.5561   6.6351020638e+01   5.5776505177e+01    0.2162173    0.1615385 -47.87   0.00112425    1.631    0.387
       505  -7.8275     42.0000     30.0005   8.8352614757e+01   6.5936380528e+01    0.1972966   0.06154299 -43.67 0.0003505186    2.837    0.648
       506  -8.8872     81.4123     27.4977   7.1804990807e+01   6.0162328072e+01    0.2547602    0.2138792 -49.18 0.0007174355    1.532    0.347
       507  -9.0535      3.5323     27.6136   1.0580849953e+02   6.9720357217e+01    0.2380549    0.1694803 -77.23  0.001286443    1.974    0.494
       508  -8.7728     91.8387     26.2635   6.7912122680e+01   5.8275688657e+01    0.2716913     0.177497 -42.37 0.0008002602    1.781    0.438
       509  -7.8964     34.6308     23.2855   8.8820641701e+01   6.7911268573e+01    0.1023683   0.09825176  75.52  0.000701929    1.703    0.413
       510  -8.0487    104.4956     22.5382   6.2702489238e+01   5.6042645458e+01    0.1386238    0.1237797  24.78 6.433608e-05    1.006    0.006
       511  -9.0727     63.4819     21.1705   7.5465088313e+01   6.4214818133e+01    0.2778547    0.2072859 -42.43 0.0008451554    1.624    0.384
       512  -8.8699     48.2784     21.6991   8.1936682514e+01   6.6446499025e+01      0.22927    0.1881215 -29.59 0.0006621013    1.261    0.207
       513  -8.0040    120.6426     20.8238   5.7979187645e+01   5.2522313346e+01     0.195399    0.1220379 -36.42 0.0009398307    1.733    0.423
       514  -8.2451     19.4352     21.2894   9.5375319724e+01   6.9751542217e+01    0.1535502   0.09891929 -51.55 0.0009407796    1.636    0.389
       515  -8.4765    218.6464    247.9724   9.3501817768e+01  -7.2491980513e+00    0.2256905     0.135029 -39.17  0.001131847    2.133    0.531
       516  -8.3709     87.8464     17.8235   6.5508408044e+01   6.0141792716e+01    0.1692004    0.1534823 -37.18 0.0004165279    1.333    0.250
       517  -8.2510     38.6180     17.7593   8.4430909058e+01   6.8305972356e+01    0.2334873   0.09737362 -35.50  0.001133051    2.100    0.524
       518  -8.2146    112.7201     16.9628   5.8340256790e+01   5.4809876475e+01    0.1864511    0.1695969  -1.18 0.0003839512    1.122    0.109
       519  -8.2021     30.1613     16.1641   8.7718972400e+01   6.9537675115e+01    0.1521815    0.1276188 -34.79  0.000592371    1.368    0.269
       520  -8.0716      7.5244     15.5052   9.9187031913e+01   7.1653829023e+01    0.1816165   0.09815843 -58.67 6.614164e-05    2.202    0.546
       521  -8.0913    134.5692     14.6779   5.2730755585e+01   4.9781719025e+01    0.1821959    0.1286809 -36.79 0.0009370339    1.545    0.353
       522  -8.0540     97.1603     15.1564   6.1626472278e+01   5.8491420856e+01    0.1748332    0.1519618 -36.93 0.0004732879    1.344    0.256
       523  -9.0050    175.6504    247.7801   1.0119828092e+02  -5.8463717273e-01    0.2787616    0.2175054  79.62  0.001205636    2.034    0.508
       524  -8.5788    156.2050    248.4281   1.0485649864e+02   2.4239493975e+00    0.2133391    0.1412931  55.46  0.000895049    1.533    0.348
       525  -9.0099    132.3733    247.8999   1.0918769081e+02   6.2782970121e+00    0.2902907    0.1733977  68.41  0.000722153    2.223    0.550
       526  -8.4179    113.0949    248.6780   1.1280428163e+02   9.1287734872e+00    0.1896959    0.1433822  84.41 0.0009601294    1.467    0.318
       527  -9.2466    103.8978    246.9869   1.1430887771e+02   1.0783921926e+01    0.3845075    0.2009801 -87.29  0.001883565    3.103    0.678
       528  -8.9671    242.9943    246.7263   8.9119624906e+01  -1.0600091219e+01     0.303833    0.1423276 -27.92   0.00158313    2.288    0.563
       529  -9.9669    223.9116    244.2134   9.2004653836e+01  -7.5909825452e+00    0.4153365     0.217162 -42.25  0.002314549    2.609    0.617
