#   1 NUMBER                 Running object number                                     
#   2 MAG_AUTO               Kron-like elliptical aperture magnitude                    [mag]
#   3 X_IMAGE                Object position along x                                    [pixel]
#   4 Y_IMAGE                Object position along y                                    [pixel]
#   5 X_WORLD                Barycenter position along world x axis                     [deg]
#   6 Y_WORLD                Barycenter position along world y axis                     [deg]
#   7 A_WORLD                Profile RMS along major axis (world units)                 [deg]
#   8 B_WORLD                Profile RMS along minor axis (world units)                 [deg]
#   9 THETA_WORLD            Position angle (CCW/world-x)                               [deg]
#  10 FWHM_WORLD             FWHM assuming a gaussian core                              [deg]
#  11 ELONGATION             A_IMAGE/B_IMAGE                                           
#  12 ELLIPTICITY            1 - B_IMAGE/A_IMAGE                                       
         1 -15.2184    139.6875     71.3263   2.9060099878e+02   6.1381478260e+00     0.111576    0.0813029 -26.82   0.01202412    1.587    0.370
         2 -15.7379     34.3184     90.7259   2.9191895861e+02   6.5219496498e+00    0.1864353    0.1413671 -89.48   0.02054258    1.516    0.340
         3 -16.3101    138.8875    110.7266   2.9084511215e+02   5.6875587197e+00     0.199543    0.1457445  75.48   0.02125561    1.669    0.401
         4 -14.6740     71.3725     49.4474   2.9125003192e+02   6.7854892678e+00    0.1365108   0.08385004  33.29   0.01396029    1.619    0.382
         5 -12.7511    132.0669     54.8592   2.9058961179e+02   6.3724097224e+00   0.04901011   0.02544356  18.81  0.004399019    2.230    0.552
         6 -12.3106     12.6877    229.0246   2.9298569489e+02   5.0464865716e+00   0.03557577   0.02092935  46.84  0.003479117    1.832    0.454
         7 -11.6510    205.0178    229.0927   2.9079700090e+02   3.9369744087e+00   0.03133426   0.01832487  21.80  0.003059588    1.838    0.456
         8 -10.3487    167.9472    237.1113   2.9126618250e+02   4.0585299435e+00   0.01470027  0.008536163  31.55  0.001448541    1.712    0.416
         9 -10.1497    188.5321    222.4755   2.9094510511e+02   4.1087694840e+00  0.006481075  0.006359106 -73.51  0.000273013    1.014    0.014
        10 -11.6048    140.0679    216.8076   2.9146280294e+02   4.4542836497e+00   0.02109271   0.01089039 -47.59  0.001946829    1.938    0.484
        11 -10.1313     38.1814    219.0652   2.9263638938e+02   5.0152427532e+00    0.0106667  0.008726964 -35.28   0.00121993    1.280    0.219
        12 -10.8621    177.6070    216.4185   2.9103335762e+02   4.2419359061e+00   0.01791525   0.01541799   2.28  0.002132783    1.259    0.206
        13 -10.9853    106.4941    213.9788   2.9182821350e+02   4.6807192761e+00   0.02029948  0.009802956 -62.48  0.001821666    2.019    0.505
        14 -10.5464    108.4083    209.7728   2.9178145887e+02   4.7183279284e+00    0.0155079   0.01050106 -47.71  0.001641309    1.465    0.317
        15 -12.2509    151.1203    210.7108   2.9130079924e+02   4.4609617346e+00   0.04232164    0.0213898  43.58   0.00385302    2.081    0.520
        16 -11.7748    123.1510    207.6696   2.9160111163e+02   4.6576032038e+00   0.03543817   0.01035811 -45.49  0.002300828    4.000    0.750
        17 -11.7598     58.0265    209.8409   2.9235569141e+02   5.0078114623e+00   0.03087099   0.01902135  68.97  0.002848788    2.269    0.559
        18 -15.5900     72.4689    193.9652   2.9209703359e+02   5.1083245025e+00    0.1430218    0.1015911  47.49   0.01551993    1.484    0.326
        19 -11.3236    180.8533    199.5884   2.9089634726e+02   4.4177253423e+00   0.01850394   0.01324478  50.28  0.001998386    1.500    0.333
        20 -13.7357     95.2583    190.9209   2.9181933031e+02   5.0122111472e+00   0.07115086   0.05027305  84.12  0.007387866    1.759    0.431
        21 -10.7367     21.8502    206.8283   2.9275002770e+02   5.2506975344e+00   0.01543425   0.01095672  63.79   0.00161865    1.672    0.402
        22 -10.7001    220.2406    205.0031   2.9048063067e+02   4.1272961230e+00   0.01070102    0.0104546  -3.34    0.0013503    1.047    0.045
        23 -10.9471    180.8859    206.2276   2.9093546452e+02   4.3407897412e+00   0.02540212  0.009133832 -54.67  0.002024399    2.525    0.604
        24 -10.5969    191.7235    208.3624   2.9082488581e+02   4.2534480858e+00   0.01261617  0.008380909 -80.08  0.001270226    1.745    0.427
        25 -11.4468    176.1101    200.5929   2.9095628702e+02   4.4335358065e+00   0.01852604   0.01277626 -34.00  0.001938124    1.623    0.384
        26 -10.2700    152.4726    199.3896   2.9121812798e+02   4.5840532564e+00   0.01537726  0.009248453 -34.73  0.001464273    1.964    0.491
        27 -10.4289    189.0164    198.4936   2.9079696892e+02   4.3831745347e+00   0.01325854  0.009487872 -84.71  0.001395719    1.620    0.383
        28 -10.8709    113.5948    192.4362   2.9161946551e+02   4.8889254547e+00   0.02209244   0.01219804 -75.89  0.001994576    2.178    0.541
        29 -11.4991    193.6843    191.4678   2.9070206000e+02   4.4373810433e+00   0.02370425   0.01733879  16.88  0.002595721    1.477    0.323
        30  -9.4119    131.4801    193.4917   2.9142206069e+02   4.7734921407e+00  0.006494567     0.006361 -85.02 0.0003073042    1.026    0.025
        31 -11.2913    140.0748    188.6191   2.9129524032e+02   4.7802069122e+00   0.02220483   0.01335981 -71.08  0.002175148    1.784    0.439
        32 -12.2489     37.0721    189.5561   2.9247426851e+02   5.3630512588e+00     0.031106    0.0151204 -56.81  0.002844017    1.931    0.482
        33 -11.3471     42.9475    186.6944   2.9239034312e+02   5.3623685866e+00   0.01972079   0.01346982  13.10  0.002058113    1.661    0.398
        34 -13.1784      8.4127    187.6670   2.9278976140e+02   5.5495946120e+00   0.04276538   0.02818447   4.27  0.004276363    1.904    0.475
        35 -12.5628    206.6815    185.1584   2.9051666052e+02   4.4350935754e+00   0.04387248   0.02724003  -6.07  0.004042007    2.324    0.570
        36 -10.7553    122.6172    187.7015   2.9148858216e+02   4.8916153310e+00   0.01756497   0.01213274  63.83  0.001805956    1.753    0.429
        37 -10.6186    121.1756    181.7890   2.9146986621e+02   4.9683131885e+00   0.01545167   0.01287944 -23.63  0.001801393    1.309    0.236
        38 -10.5020    160.9859    183.7357   2.9102813750e+02   4.7158479715e+00   0.02498336  0.008910308 -54.59  0.001983415    2.544    0.607
        39 -12.1718    167.1993    179.4352   2.9093182606e+02   4.7296452405e+00   0.06653635   0.02167429 -66.09  0.004676098    3.402    0.706
        40 -10.6885    130.3387    184.2660   2.9138022975e+02   4.8867690448e+00   0.01861588   0.01164021  36.94  0.001906483    1.598    0.374
        41 -10.6761    103.3363    183.1590   2.9168121536e+02   5.0554034187e+00   0.01458878   0.01259401  51.67  0.001742424    1.205    0.170
        42 -12.8624     19.2224    178.1856   2.9261037504e+02   5.5972093854e+00   0.03295856   0.01572797 -61.93  0.002959307    2.027    0.507
        43 -12.2425    196.0002    174.1544   2.9057263680e+02   4.6240832034e+00    0.0234194   0.01199738 -65.27  0.002143928    1.976    0.494
        44 -10.5401    182.3622    175.0138   2.9073293578e+02   4.6930629266e+00   0.01617388   0.01152747  89.74  0.001688933    1.691    0.409
        45 -11.5382     99.7742    174.9983   2.9167332312e+02   5.1703361348e+00   0.02570729    0.0133828  51.89   0.00225563    2.344    0.573
        46 -11.1357    108.2743    171.4947   2.9155565634e+02   5.1618207321e+00   0.02834997   0.01716269  42.53  0.002844113    1.700    0.412
        47 -10.3136    116.5300    171.5295   2.9146180588e+02   5.1137741948e+00   0.01151328  0.006564606   9.76  0.001026325    2.298    0.565
        48 -11.6322     26.9224    169.3751   2.9247036553e+02   5.6548925700e+00   0.01803962   0.01515135 -26.84  0.002120063    1.280    0.219
        49 -10.5318    215.6342    168.6348   2.9031641048e+02   4.5742012049e+00   0.01346452   0.01189613  65.67  0.001621758    1.203    0.169
        50 -10.7402    141.6060    169.0393   2.9116136830e+02   4.9977604284e+00   0.01692169   0.01048354  38.09  0.001690568    1.618    0.382
        51 -11.7792     49.1442    166.4014   2.9219935637e+02   5.5614830455e+00   0.03297741   0.01381626 -57.74   0.00281581    2.212    0.548
        52 -12.0422    176.3553    163.6177   2.9073344832e+02   4.8595362916e+00   0.04047747   0.02223495 -41.82  0.003784032    1.977    0.494
        53 -10.9285    148.1232    166.8843   2.9107432780e+02   4.9850164352e+00   0.02027072   0.01302215  34.57  0.002106912    1.552    0.356
        54 -12.1360    151.0744    160.6182   2.9100342924e+02   5.0404035923e+00   0.03935367   0.03129149 -24.97  0.004479742    1.400    0.286
        55 -10.8231    125.9925    167.3195   2.9132897949e+02   5.1078303757e+00   0.01659622    0.0134592   6.18  0.001681815    1.360    0.265
        56  -9.8253     86.4963    168.4965   2.9178600805e+02   5.3221015230e+00  0.006504784  0.006353817  88.03 0.0008104371    1.034    0.033
        57 -12.1966     60.1290    161.8777   2.9204726826e+02   5.5505781841e+00   0.03617696   0.02936842  46.45  0.004214216    1.273    0.214
        58 -12.9012    199.7984    161.9873   2.9045694353e+02   4.7427083941e+00   0.03809364   0.03279281 -27.89  0.004554815    1.232    0.188
        59 -10.3265    162.4993    165.1303   2.9090019293e+02   4.9221898354e+00   0.01356805   0.01024712  63.60   0.00148211    1.516    0.340
        60 -10.8481     89.2925    163.6773   2.9172551025e+02   5.3617190752e+00   0.01887532   0.01339653  56.81  0.002006817    1.593    0.372
        61 -10.8925    209.5291    162.9615   2.9035204528e+02   4.6751101189e+00   0.01656563   0.01219503 -35.17  0.001806738    1.470    0.320
        62 -11.5890    102.4446    160.9960   2.9155968450e+02   5.3168724331e+00   0.02025149   0.01342933 -41.20  0.002103195    1.586    0.369
        63 -10.1523    221.3278    160.3043   2.9020200573e+02   4.6374746471e+00  0.006896359  0.004890936 -27.55  0.000381302    1.649    0.394
        64 -10.2420    113.5434    159.7960   2.9142607501e+02   5.2667016113e+00   0.01221396  0.009430739  26.92  0.001093873    1.321    0.243
        65 -11.0195     91.4344    156.8882   2.9166075384e+02   5.4278876425e+00   0.02290877   0.01601488  89.84  0.002365811    1.747    0.428
        66 -13.1728     20.0028    154.1637   2.9245908737e+02   5.8706407145e+00   0.03632193   0.03207396  78.70  0.004398898    1.212    0.175
        67 -12.5647     12.7860    145.7061   2.9249125273e+02   6.0099430991e+00   0.03324697   0.02527485  26.19  0.003756077    1.345    0.257
        68 -10.3708    145.6957    155.0803   2.9103172532e+02   5.1355157419e+00   0.01338034   0.01009808  56.96  0.001471735    1.464    0.317
        69 -12.1593    187.4909    153.9527   2.9054912923e+02   4.9068048248e+00   0.02679739   0.01677453  71.86  0.002488018    2.247    0.555
        70 -10.9631    232.7668    153.2042   2.9002958768e+02   4.6532173072e+00   0.01949535   0.01095342 -82.89  0.001695586    2.450    0.592
        71 -11.5985      2.9377    152.5544   2.9264420550e+02   5.9872776921e+00   0.02250346   0.01212937 -51.65  0.002148199    1.783    0.439
        72  -9.6757    219.3185    154.3381   2.9018929101e+02   4.7180446941e+00  0.007051724  0.004822923 -30.18 0.0007049245    1.706    0.414
        73 -11.3159    179.1313    153.1321   2.9063939543e+02   4.9646683339e+00   0.01712983  0.009467523 -58.91  0.001650931    1.728    0.421
        74 -10.8536    173.7567    154.0543   2.9070607403e+02   4.9851081215e+00   0.01650373  0.008979484  27.16  0.001567043    1.872    0.466
        75 -13.1258    116.2509    145.9971   2.9131314411e+02   5.4106315534e+00   0.04518866   0.03852276  81.85   0.00535516    1.280    0.219
        76 -12.8157    105.2922    144.6423   2.9142998596e+02   5.4895550060e+00   0.04183895   0.02981874 -64.71  0.004568749    1.389    0.280
        77 -10.7673    106.1952    137.3062   2.9137604967e+02   5.5691700946e+00   0.01551344   0.01358504  65.64  0.001862434    1.219    0.180
        78 -11.0580    126.4509    150.5188   2.9122381624e+02   5.2994467893e+00   0.01686672   0.01567477 -22.31  0.002096154    1.116    0.104
        79 -11.6436    200.3241    150.3214   2.9038144079e+02   4.8744718464e+00   0.01759428  0.009164287  50.10  0.001558431    2.255    0.557
        80 -10.2439     60.7739    150.7371   2.9197376357e+02   5.6757260186e+00   0.01381389  0.008613512  37.63  0.001406478    1.606    0.377
        81 -10.1094     84.0466    150.0216   2.9170416042e+02   5.5498996529e+00   0.01078667  0.007725896  67.01  0.001123703    1.680    0.405
        82 -10.4429    161.7225    147.8830   2.9080634091e+02   5.1260520587e+00    0.0160744   0.01211752  85.44  0.001744862    1.561    0.360
        83 -11.3195    138.6750    145.1010   2.9105229558e+02   5.2914598089e+00   0.03249741   0.01900449 -49.74  0.003221736    1.672    0.402
        84 -11.2159      3.5058    145.8488   2.9259797364e+02   6.0615888555e+00   0.01512258   0.01177136  73.84  0.001640418    1.487    0.328
        85 -10.4442    167.5886    145.1599   2.9072332059e+02   5.1235950055e+00   0.01319957   0.01188491 -87.90  0.001349322    1.157    0.136
        86 -11.1166    198.6327    143.4760   2.9035988240e+02   4.9633641061e+00   0.01597099   0.01113311  88.80  0.001636094    1.770    0.435
        87 -10.3853     53.6549    143.0921   2.9200954560e+02   5.8051408427e+00   0.01234559    0.0101512  13.01  0.001334642    1.300    0.231
        88 -10.2248     28.8089    140.1593   2.9227554715e+02   5.9820165518e+00   0.01054694  0.009013081  67.29  0.001128564    1.268    0.211
        89 -10.6421    204.4163    139.2071   2.9026861219e+02   4.9791887194e+00  0.009363792   0.00634887 -78.57 0.0009510898    1.666    0.400
        90 -13.6222    169.2262     96.2275   2.9041292024e+02   5.6795428874e+00   0.06365378   0.02820779 -56.60  0.005587024    2.101    0.524
        91 -14.4498    185.2664    111.7486   2.9032282599e+02   5.4073468738e+00   0.07914422   0.06411762 -29.05  0.009143931    1.337    0.252
        92 -10.6586    196.5314    132.6477   2.9031923367e+02   5.1006466695e+00   0.01353123    0.0108078 -40.85  0.001550167    1.279    0.218
        93 -10.5401     44.1376    131.8178   2.9205114013e+02   5.9903176813e+00   0.01549641   0.01389472  72.05    0.0013862    1.183    0.155
        94 -12.8194    121.3386    240.3549   2.9181569746e+02   4.2900464665e+00   0.04566628   0.01673948 -58.78  0.003668451    2.507    0.601
        95 -10.7566    117.0127    126.4759   2.9118827514e+02   5.6319273749e+00      0.01804   0.01276479 -64.72  0.001846438    1.400    0.286
        96 -10.3114    245.6359    129.1412   2.8973969110e+02   4.8565198305e+00   0.01377128  0.008129859  49.88  0.001320697    1.900    0.474
        97 -10.4579    233.0319    127.2142   2.8987151684e+02   4.9518722173e+00    0.0174157   0.01115536  72.36  0.001646733    2.144    0.534
        98 -11.3323     71.4948    134.0217   2.9175218017e+02   5.8072822758e+00   0.01960141    0.0192361 -24.35  0.002510914    1.032    0.031
        99 -10.4860    210.7603    124.8081   2.9011053233e+02   5.1087764365e+00    0.0124567   0.01111117  55.05  0.001509772    1.166    0.142
       100 -10.9095    198.6552    121.6144   2.9022925025e+02   5.2158127147e+00   0.01627879   0.01235489 -33.93  0.001805519    1.424    0.298
       101 -12.6476    100.2484    117.1526   2.9132390671e+02   5.8364987836e+00   0.03969191   0.02736803  10.02  0.004152497    1.686    0.407
       102 -10.2335    208.9756    119.5278   2.9009933577e+02   5.1801125007e+00   0.01441608  0.008591542  26.80  0.001429357    1.715    0.417
       103 -11.3068     65.9654    117.5598   2.9171736945e+02   6.0294996142e+00   0.02529749   0.01456871 -56.12  0.002501003    1.653    0.395
       104 -10.1847     88.2951    134.0654   2.9156085199e+02   5.7099215705e+00   0.01485817  0.009720625 -19.19  0.001439571    2.023    0.506
       105 -11.3963      7.0861    118.1339   2.9239269896e+02   6.3615897576e+00   0.02789755   0.01416365  36.88  0.002596592    1.944    0.486
       106 -11.0347     86.6678    117.3156   2.9147976040e+02   5.9129723353e+00   0.01444113   0.01180711 -72.71  0.001190206    1.248    0.199
       107 -10.9682    144.4411    235.7689   2.9152561115e+02   4.2097792948e+00   0.01174954   0.01038086 -83.39  0.001413262    1.176    0.150
       108 -11.9924    113.9551    112.9750   2.9114273457e+02   5.8056525984e+00      0.02298   0.01235936  45.47  0.002140183    1.997    0.499
       109 -11.4177      7.5435    111.0942   2.9234568262e+02   6.4403707908e+00   0.03088007   0.01582753  42.81  0.002841527    2.031    0.508
       110 -11.2787     85.2874    109.3775   2.9144825967e+02   6.0127055427e+00   0.02257469   0.01710237 -59.97  0.002543926    1.283    0.221
       111 -10.9328    219.8939    110.2491   2.8991970661e+02   5.2239839541e+00   0.01649065  0.007421271 -51.26   0.00143497    2.123    0.529
       112 -11.0552    106.4897    109.8283   2.9120912058e+02   5.8851356684e+00    0.0158861   0.01148042 -48.78  0.001311372    1.363    0.266
       113 -10.5019     52.7260    133.9139   2.9196561806e+02   5.9166402636e+00   0.01647027   0.01094386 -53.97  0.001736982    1.449    0.310
       114 -12.6819    210.1376     96.4361   2.8994826576e+02   5.4400720573e+00   0.03843163   0.02281241  39.12  0.003845727    1.694    0.410
       115 -11.5702    195.2965     92.9832   2.9009661124e+02   5.5659855836e+00   0.01963023   0.01453607 -84.16  0.002129314    1.530    0.346
       116 -10.4936     77.1569     94.9177   2.9145493756e+02   6.2267440546e+00   0.01590714   0.01050265 -52.36  0.001670445    1.465    0.317
       117 -11.7269     94.6575     87.9701   2.9121387307e+02   6.2060741955e+00   0.03113394   0.01853693 -60.86  0.003119609    1.625    0.385
       118 -11.8925    103.6773     85.4918   2.9109620142e+02   6.1826389193e+00   0.03498969   0.01410996 -58.64  0.002931207    2.303    0.566
       119 -14.5574    102.0174     71.7542   2.9103324105e+02   6.3509513136e+00    0.1055714   0.07212845  63.60    0.0108345    1.784    0.439
       120 -11.7552     81.4365     86.1598   2.9135394521e+02   6.3032826628e+00   0.03421516   0.02195347 -18.52  0.003276579    2.114    0.527
       121 -10.8785    114.8119    233.1847   2.9184745303e+02   4.4106137749e+00   0.01974956  0.007624724 -52.33  0.001609879    2.417    0.586
       122 -10.6024    202.8949     84.0191   2.8995656031e+02   5.6254488261e+00   0.01626188   0.01485836  77.13  0.002000335    1.150    0.130
       123 -11.0461    198.0130     79.7145   2.8998643736e+02   5.7034579634e+00   0.01914986   0.01121733  35.03   0.00190346    1.693    0.409
       124 -10.7179    187.0635     80.1727   2.9011387858e+02   5.7616403676e+00   0.01438313   0.01087176 -53.10  0.001255157    1.285    0.222
       125 -12.3804     63.8304    108.4541   2.9168756539e+02   6.1470798260e+00   0.04464973   0.02827294  27.08  0.004606869    1.609    0.379
       126 -13.8070    171.9169     63.6788   2.9018793470e+02   6.0398633354e+00   0.07957839   0.02518513  40.64  0.005819281    3.189    0.686
       127 -11.7970     62.0231     72.9040   2.9149657468e+02   6.5683995894e+00   0.01793299   0.01322751  33.73  0.001993079    1.363    0.266
       128 -11.1974     58.6131     68.2157   2.9150758101e+02   6.6422232898e+00   0.01556656    0.0113554 -56.27  0.001718098    1.324    0.245
       129 -10.0190     75.7127     73.8033   2.9134565674e+02   6.4790855503e+00   0.01206547  0.007966152 -57.42  0.001261747    1.456    0.313
       130 -11.9319    201.0097     65.6649   2.8986836645e+02   5.8482800263e+00     0.024475   0.01155243 -73.65  0.001989765    2.669    0.625
       131 -11.7786     73.0847    231.2223   2.9231085882e+02   4.6737640915e+00   0.02973304   0.01237326 -66.08  0.002420783    2.519    0.603
       132 -12.0601    124.8716     50.5490   2.9064595944e+02   6.4637973156e+00   0.01801467   0.01319308 -56.96  0.001994851    1.320    0.243
       133 -12.1667      7.6750     48.2398   2.9197050993e+02   7.1661027602e+00   0.02950118   0.01965478   5.06  0.002979704    1.854    0.461
       134 -11.6952    200.4813     50.4548   2.8978346605e+02   6.0268976541e+00   0.03531735  0.008169213 -59.39  0.002329349    3.710    0.730
       135 -11.9094    249.6625     47.7393   2.8920740660e+02   5.7726376765e+00   0.03370751     0.010605 -66.51   0.00228175    3.670    0.728
       136 -10.4853    120.6375     47.7294   2.9067743382e+02   6.5208389889e+00   0.01201336   0.01001639 -30.28  0.001068913    1.276    0.216
       137 -12.6320    187.2476    131.6044   2.9041869342e+02   5.1664660936e+00   0.03571109   0.02499706   6.32   0.00374416    1.699    0.412
       138 -10.8243    111.9390    130.6620   2.9127103334e+02   5.6128309169e+00   0.01876968   0.01474514 -73.59  0.001879424    1.316    0.240
       139 -10.5022    114.2231     59.2265   2.9081924472e+02   6.4251474256e+00   0.01416255   0.01270615 -58.70  0.001729677    1.089    0.081
       140 -12.3114    125.1521     41.9035   2.9059113515e+02   6.5619978077e+00   0.02781796   0.02264999  76.16  0.003198694    1.385    0.278
