#   1 NUMBER                 Running object number                                     
#   2 MAG_AUTO               Kron-like elliptical aperture magnitude                    [mag]
#   3 X_IMAGE                Object position along x                                    [pixel]
#   4 Y_IMAGE                Object position along y                                    [pixel]
#   5 X_WORLD                Barycenter position along world x axis                     [deg]
#   6 Y_WORLD                Barycenter position along world y axis                     [deg]
#   7 A_WORLD                Profile RMS along major axis (world units)                 [deg]
#   8 B_WORLD                Profile RMS along minor axis (world units)                 [deg]
#   9 THETA_WORLD            Position angle (CCW/world-x)                               [deg]
#  10 FWHM_WORLD             FWHM assuming a gaussian core                              [deg]
#  11 ELONGATION             A_IMAGE/B_IMAGE                                           
#  12 ELLIPTICITY            1 - B_IMAGE/A_IMAGE                                       
         1 -13.4984    170.1183     55.4184   6.1772200525e+01   3.5303047228e+01     2.465154     1.508541  18.29  0.006833616    2.632    0.620
         2 -13.1106    184.7527     40.1152   5.4403851582e+01   3.3732289060e+01     1.035355    0.7593132 -42.31   0.00285188    1.315    0.240
         3 -12.8885    189.9690     33.8928   5.1703130127e+01   3.3192294259e+01    0.7397129    0.5790434 -39.43  0.001366963    1.221    0.181
         4 -13.9779    207.4282      9.5112   4.2418625382e+01   3.1494577575e+01     1.488827      1.15097  12.16   0.00622002    1.630    0.387
         5 -12.0572    191.6199     14.9884   4.5654837996e+01   3.4977797077e+01    0.8028945    0.3715522  60.54  0.003373563    2.059    0.514
         6 -11.6632    239.1823      2.1541   3.7965839714e+01   2.4563691305e+01     1.205384    0.1846747  75.65  0.003257428    6.740    0.852
         7 -10.1398     14.6837    201.2877   1.2736977602e+02   3.1055527361e+01    0.1171468   0.08643473  43.12 0.0005801888    1.481    0.325
         8 -13.4076    246.7388    239.6335   8.9761002958e+01  -7.4365793217e+00     1.442416    0.5967022 -25.35  0.008253627    2.614    0.617
         9 -10.9421    192.9815    194.9171   9.1631185228e+01   6.0673675794e+00    0.8264846    0.4347655 -60.18  0.002929129    5.302    0.811
        10 -19.1888     25.1094    101.7326   1.1606849212e+02   5.2214705190e+01     17.95241     1.452528 -69.41   0.03505638   11.030    0.909
        11 -11.7267    150.8122    196.1139   9.9922702174e+01   1.3183118832e+01    0.3979019    0.2930626  60.53  0.001979519    1.471    0.320
        12  -9.8155     81.6456    195.0707   1.1382943005e+02   2.4380704323e+01    0.2923563    0.1804345  40.17  0.001682665    1.551    0.355
        13 -11.5514     65.3855    195.3898   1.1716301432e+02   2.6518960607e+01    0.3184329    0.2183909 -47.57  0.001194085    2.050    0.512
        14  -9.6326    156.4355    190.7043   9.7949440922e+01   1.3124804162e+01    0.1692726    0.1244878 -30.75 0.0009459735    1.632    0.387
        15 -11.0457     54.3369    210.5659   1.2060120590e+02   2.4976668382e+01    0.1865666     0.129486  59.71 0.0005419477    1.132    0.117
        16 -11.4911     69.6555    208.7574   1.1754475300e+02   2.3382489511e+01    0.2050527    0.1623309  74.17 0.0003201552    1.071    0.066
        17  -9.1632     65.7651    187.1856   1.1628411110e+02   2.8123862517e+01    0.1380443    0.1285726  71.00 0.0002007353    1.257    0.204
        18 -10.3562     73.9409    207.2754   1.1658399321e+02   2.3093048267e+01    0.3088534    0.2364706 -48.01  0.002023434    1.832    0.454
        19 -10.5549    153.1971    184.0622   9.7506252532e+01   1.4851154173e+01    0.2447132    0.1903337 -76.79  0.001322955    1.693    0.409
        20 -13.1233     11.4239    206.6112   1.2821441646e+02   3.0350454147e+01    0.3199169    0.2232714  47.43  0.001868375    1.400    0.286
        21 -10.0101    189.2112    178.3780   8.9360080851e+01   9.2605338899e+00    0.3500605    0.2827402  70.69  0.001264047    1.727    0.421
        22  -9.7975    187.9774    173.4719   8.8665154950e+01   1.0276693562e+01    0.3476424    0.2328373 -57.12  0.001720266    2.090    0.522
        23 -10.1517     90.8845    174.4711   1.0937328149e+02   2.7221732690e+01    0.3858228    0.1973818 -87.45  0.001535375    3.189    0.686
        24 -12.1122     75.3198    248.8275   1.1969148104e+02   1.5799259648e+01     0.297866    0.1430931 -61.03  0.001866678    2.550    0.608
        25  -9.5549    240.4639    169.4611   7.8468062198e+01   1.4800605073e+00    0.1294459     0.106598   2.60 3.604455e-05    1.007    0.007
        26  -9.4426    187.0021    165.8046   8.7350781780e+01   1.1726471827e+01    0.3192013    0.1881024 -48.97  0.001119939    2.012    0.503
        27 -10.9835      6.1616    206.6154   1.2914402734e+02   3.0837125182e+01    0.1522631    0.1295122  54.49 0.0007269171    1.417    0.294
        28  -9.4780      1.3789    163.1899   1.2795081306e+02   3.9976634441e+01    0.1514827   0.08273286 -81.27 0.0009429999    1.446    0.308
        29 -11.3379     71.8671    244.8425   1.1998980586e+02   1.6861237533e+01    0.1933585    0.1461314 -80.63 0.0009508657    1.464    0.317
        30 -11.0201     93.8829    157.6161   1.0623242088e+02   3.0392600439e+01    0.2538713    0.2244707 -69.42 0.0004567633    1.145    0.126
        31 -11.9154     99.3048    151.0652   1.0386266155e+02   3.0969465626e+01    0.5681751    0.4590252 -24.80  0.003053844    1.716    0.417
        32  -9.9718    188.0004    153.2989   8.4568252529e+01   1.3663313721e+01    0.2048798    0.1856138  28.19  0.001176905    1.057    0.054
        33 -10.9592    133.8345    145.5959   9.4608352231e+01   2.5949489009e+01      1.18506    0.2952613 -54.61  0.002912839    6.047    0.835
        34 -10.1785    113.6376    151.6270   1.0052873057e+02   2.8394805107e+01    0.3878294     0.253689  72.10  0.001779321    1.967    0.492
        35  -9.6555    174.7016    148.9313   8.6316892145e+01   1.7118164904e+01    0.2717997    0.2170614 -82.22  0.001140628    1.766    0.434
        36 -10.1533    144.0808    146.7668   9.2496953187e+01   2.3704246439e+01     0.461639    0.1854025 -57.55  0.001477692    3.668    0.727
        37  -9.2820     92.1931    146.8340   1.0487934677e+02   3.3078148766e+01    0.1845812    0.1662023 -34.23  0.001070757    1.367    0.268
        38  -9.2164    115.0672    143.5914   9.8673350883e+01   2.9899982066e+01    0.3091652    0.1797037 -74.74  0.001239633    2.479    0.597
        39 -11.3110    109.4774    137.9655   9.8943366860e+01   3.2160658767e+01    0.6394663    0.3513883 -39.16  0.002651363    2.291    0.564
        40  -9.0108    128.0399    139.3058   9.4673786495e+01   2.8410038088e+01    0.2121758    0.1815277  50.35  0.001133244    1.153    0.133
        41 -11.7710     98.1498    136.9537   1.0160468393e+02   3.4359013651e+01    0.2829976    0.2704607 -64.14  0.000458123    1.122    0.108
        42 -10.9813    105.9686    130.7861   9.8374534234e+01   3.4417416225e+01    0.3960036    0.3240487 -72.38  0.001215798    1.217    0.178
        43 -10.6050    135.8099    127.2414   9.0131618320e+01   2.9469334262e+01    0.8452484    0.1578411 -50.20   0.00185087    6.663    0.850
        44 -10.2557    116.1006    128.8354   9.5371086278e+01   3.3000297581e+01    0.3272884    0.2766034 -13.84 0.0006675289    1.516    0.340
        45  -9.7744    160.5376    128.1594   8.4623730403e+01   2.4072361998e+01    0.3351339    0.2583043 -59.35  0.001439668    1.463    0.316
        46 -10.5220    104.0169    124.5009   9.7550055474e+01   3.6210284008e+01    0.2804236    0.2514485 -14.05 0.0006854423    1.370    0.270
        47  -9.6393    120.4676    123.5093   9.3065848859e+01   3.3357153058e+01    0.2646419    0.1350377 -39.86 0.0008766563    2.212    0.548
        48  -9.1589    152.8658    119.4777   8.4228301337e+01   2.7490775144e+01    0.2989688     0.198014 -24.78 0.0007248842    1.872    0.466
        49  -9.4709    110.9856    118.0774   9.4262174449e+01   3.6404679211e+01    0.2172024    0.2091079 -72.32 0.0002833958    1.028    0.027
        50  -9.7670    231.1316    113.8076   6.7612885161e+01   1.1347786767e+01    0.2366627    0.2126967 -21.55 0.0007519875    1.043    0.041
        51  -9.5649    167.5538    112.6914   7.9209020024e+01   2.5577764064e+01    0.3670225    0.2583825 -76.36  0.001451942    2.193    0.544
        52 -10.2167    134.5139    105.0940   8.4894922356e+01   3.4509232429e+01    0.5148938    0.1490284 -43.98  0.001509049    3.358    0.702
        53 -11.0308    119.2031    110.6904   9.0294945842e+01   3.6477099828e+01     0.568156    0.3613089  70.47  0.002267144    2.344    0.573
        54  -9.6621    205.3863    110.1882   7.1066581963e+01   1.7467231400e+01    0.3232151    0.2086952  39.82  0.001330646    1.648    0.393
        55  -9.9172     73.3023    102.9966   1.0144481235e+02   4.6342169746e+01    0.2075055     0.168725 -60.21 0.0005109009    1.099    0.090
        56  -9.8667    189.4593     89.2367   6.8368749736e+01   2.4786456375e+01    0.3919333    0.2714694 -52.72  0.001606448    1.581    0.368
        57  -8.8538     73.2895     73.4049   9.3642912261e+01   5.3248750059e+01    0.1817701     0.136508  50.57 0.0009349505    1.552    0.356
        58 -17.5970     42.2089    243.0158   1.2479703495e+02   2.0705161035e+01     6.795869      4.33322  31.80   0.04778973    1.979    0.495
        59  -9.6263     61.8344    219.7448   1.1991304767e+02   2.2367662578e+01     0.212078    0.1485929 -77.09  0.001483531    1.469    0.319
        60 -11.9256     58.9401    215.7166   1.2013694823e+02   2.3458129646e+01    0.2298666    0.1572315  64.69 0.0004960617    1.149    0.130
        61  -8.7486     96.4474     63.5069   8.2777386828e+01   5.1260994447e+01    0.1495239    0.1375325 -32.23  0.000808278    1.006    0.006
        62 -10.8615     61.4466    205.1804   1.1881576388e+02   2.5115914471e+01    0.3259517    0.2069901 -45.95  0.001883897    2.467    0.595
        63  -9.4976     87.7287    203.1064   1.1346442284e+02   2.1970348650e+01    0.2420293    0.1843956 -69.92  0.001095304    1.405    0.288
