#   1 NUMBER                 Running object number                                     
#   2 MAG_AUTO               Kron-like elliptical aperture magnitude                    [mag]
#   3 X_IMAGE                Object position along x                                    [pixel]
#   4 Y_IMAGE                Object position along y                                    [pixel]
#   5 X_WORLD                Barycenter position along world x axis                     [deg]
#   6 Y_WORLD                Barycenter position along world y axis                     [deg]
#   7 A_WORLD                Profile RMS along major axis (world units)                 [deg]
#   8 B_WORLD                Profile RMS along minor axis (world units)                 [deg]
#   9 THETA_WORLD            Position angle (CCW/world-x)                               [deg]
#  10 FWHM_WORLD             FWHM assuming a gaussian core                              [deg]
#  11 ELONGATION             A_IMAGE/B_IMAGE                                           
#  12 ELLIPTICITY            1 - B_IMAGE/A_IMAGE                                       
         1 -11.6030      2.0511     20.2701   9.5232662751e+01   7.6323610668e+01    0.3762786    0.2337624 -74.21 0.0009601447    1.538    0.350
         2 -10.7303     34.9378     23.0958   7.0447664022e+01   7.2142998076e+01    0.4122114    0.2651132 -12.15  0.001290402    2.408    0.585
         3  -9.9314     15.2392      8.9571   7.6893679991e+01   7.7673207588e+01    0.3794347    0.2340578   8.66   0.00167259    2.036    0.509
         4  -9.6211      9.2954      9.6428   8.3151034189e+01   7.8162230675e+01    0.1762107     0.139567  67.97  0.001045021    1.698    0.411
         5 -11.4403     13.9511     15.4787   8.2165747835e+01   7.6471766373e+01    0.4833082    0.2905068 -85.34  0.001300211    2.896    0.655
         6 -10.7245    229.2917     19.3706   2.5671710072e+01   2.4988319174e+01    0.3459763    0.1952407 -10.26  0.001183559    2.214    0.548
         7 -11.4329    125.1270     17.1630   3.5366546088e+01   5.1544543412e+01    0.2781739    0.2471668  55.99 0.0003067133    1.160    0.138
         8 -11.6388    235.0808     14.7238   2.4204175886e+01   2.4242734616e+01    0.2590515     0.216034  65.77 0.0007191015    1.455    0.312
         9 -10.9534    203.0909     16.0245   2.6500800011e+01   3.1202262225e+01    0.3278364      0.16997 -41.29   0.00113119    1.595    0.373
        10 -11.1379     85.5142     12.0041   4.1285420682e+01   6.2849177822e+01    0.3976197    0.2622366   4.73  0.001584401    2.003    0.501
        11 -11.5544    192.1283     11.0266   2.5858324086e+01   3.4349959002e+01    0.4861733    0.2579171 -39.77 0.0006956077    1.594    0.373
        12 -11.3867    207.8752     12.8873   2.5316954640e+01   3.0399067334e+01     0.275758    0.2200182 -48.71 0.0003846038    1.048    0.046
        13 -10.4755    177.0464     13.4761   2.7785648984e+01   3.7902282421e+01    0.3764151    0.2076684 -76.16  0.001690555    1.897    0.473
        14 -11.6085    125.9737     10.9570   3.2646818386e+01   5.1976951892e+01    0.3853462    0.2627726 -75.65 0.0003143451    1.517    0.341
        15 -10.3618     29.2621      1.3648   5.8916350541e+01   7.6904062489e+01    0.3076653    0.1200599  48.05  0.001284558    2.653    0.623
        16 -11.0129     34.6016     12.1121   6.3636046545e+01   7.4238989278e+01    0.3293413    0.2537146  56.20  0.001190235    1.532    0.347
        17 -11.7834     29.6650      7.8813   6.3980639404e+01   7.5800471114e+01    0.4530004    0.3766682 -13.02  0.001323284    1.203    0.169
        18 -13.1322    116.6983      8.5022   3.3015350395e+01   5.4795375800e+01    0.3452778    0.2998197 -66.28 0.0006238116    1.123    0.110
        19 -10.3427    182.4431      9.9815   2.6263223295e+01   3.6872519785e+01    0.2646683    0.1689533 -73.57 0.0006501128    1.511    0.338
        20 -10.5765     56.1236      9.4388   4.9906146633e+01   7.0326297301e+01    0.2858453    0.2013402 -17.07 0.0009459741    1.545    0.353
        21 -10.7616     45.4079      9.8145   5.5429986398e+01   7.2565746398e+01    0.2348686    0.2151786  30.18 0.0003335487    1.064    0.060
        22 -10.0043     21.7094      9.5984   7.1567400348e+01   7.6716692678e+01    0.2592447    0.1521246  18.26  0.001252348    2.158    0.537
        23 -10.4837      3.4349      7.1505   8.7869717343e+01   7.9181067436e+01    0.4103383    0.1943814 -46.68  0.002070899    1.818    0.450
        24 -10.1459    149.7600      7.6294   2.8394233853e+01   4.5737254445e+01    0.2917688    0.1398078  25.76 0.0009616451    3.917    0.745
        25  -9.7398    241.3603      6.9691   2.2049038231e+01   2.3704754424e+01    0.1650891    0.1269805 -40.84  0.001092677    1.063    0.059
        26  -9.3844    165.6636      7.6513   2.6890877635e+01   4.1453209438e+01    0.1462631    0.1017031  39.19 0.0007047179    1.782    0.439
        27  -9.9366     60.3839     15.8620   5.2208768703e+01   6.8466805126e+01    0.3188437    0.2041575  25.49  0.001440207    2.022    0.505
        28  -9.8721     38.7868      4.7552   5.5412605621e+01   7.4625523007e+01    0.1992771     0.169757   1.35 0.0005844356    1.182    0.154
        29 -10.6101    123.7676      6.9975   3.1294858666e+01   5.2979125966e+01    0.3387139    0.1528433 -30.15  0.001013554    2.136    0.532
        30 -10.5072    104.8150      3.9985   3.2904069366e+01   5.8501333584e+01    0.2478046    0.2120916  50.91  0.000744175    1.176    0.149
        31  -9.5507     43.5664      4.1665   5.2213223240e+01   7.3742439429e+01    0.1797587     0.124992 -13.71 0.0004537931    1.582    0.368
        32 -12.0349     18.9712      2.5217   6.8418970313e+01   7.8383621273e+01    0.5737016    0.2446563  33.56   0.00226022    2.519    0.603
        33 -10.0386     59.8166      3.0118   4.3958934865e+01   7.0262560190e+01    0.2423382    0.1897079  57.95 0.0005687312    1.233    0.189
        34  -9.9263     53.6969      3.0707   4.6476165223e+01   7.1674995657e+01    0.1972268    0.1765957 -54.96 0.0006412111    1.253    0.202
        35 -10.4961    162.3168      2.5814   2.5468821351e+01   4.2810225128e+01     0.282467    0.1291111  86.84  0.001151129    2.184    0.542
        36 -10.8697    123.0382      1.9493   2.9231486785e+01   5.3637704281e+01    0.2461862    0.1931127  82.50 0.0003353442    1.182    0.154
        37 -10.8623    116.0308      1.3828   2.9921475973e+01   5.5632982164e+01    0.5733949    0.1407138  76.90  0.001610961    4.209    0.762
        38  -9.3152     81.0078      1.4853   3.6482243439e+01   6.5123650743e+01    0.1908698    0.1128334 -74.44 0.0004667315    2.217    0.549
        39 -11.0280      3.2054    206.2887   1.1136953366e+02   3.1681535160e+01    0.2357838    0.1231757  73.53  0.001455077    1.649    0.394
        40 -10.2979    110.0103    250.5809   9.1654101100e+01   1.2320797611e+01    0.1726131   0.07839607  34.14 0.0005117608    1.574    0.365
        41 -10.9634     28.9356    250.5036   1.0731978093e+02   2.1517666436e+01    0.2810538   0.07493369  30.73  0.001363498    2.730    0.634
        42 -11.8144     18.4739    248.5304   1.0927063377e+02   2.2845682158e+01    0.2527927    0.2302004 -10.26  0.001903945    1.742    0.426
        43 -11.9213      2.8365    246.5779   1.1221493509e+02   2.4585526974e+01    0.6956647     0.228332  46.39  0.003918953    1.762    0.433
        44 -13.0431     11.0288    243.2257   1.1057743406e+02   2.4399083704e+01     0.543987    0.3250607  73.34  0.004005616    1.545    0.353
        45 -10.9088      4.1660    201.1528   1.1103378818e+02   3.2597804824e+01    0.1615696    0.1362595  57.87 0.0006609255    1.190    0.160
        46  -9.9692     22.3107    199.5153   1.0679671126e+02   3.1249717147e+01    0.2971199   0.09429699  89.23  0.001251101    3.612    0.723
        47  -9.3065     14.6062    192.8795   1.0834977680e+02   3.3323989746e+01    0.1565186   0.08525665  70.00 0.0002946476    1.579    0.367
        48 -10.2855      6.3107    191.8452   1.1028986673e+02   3.4277386695e+01    0.1899697    0.1067469  63.84 0.0009184248    1.404    0.288
        49  -9.6607      1.2451    191.0633   1.1146924591e+02   3.4864231610e+01    0.1632733   0.07619786  77.30 0.0008984503    1.885    0.470
        50  -9.2927     18.4288    182.5278   1.0698986425e+02   3.5122651147e+01    0.1214891   0.09614668  58.56 5.332165e-05    1.042    0.040
        51  -8.9156     14.0000    181.9690   1.0807670993e+02   3.5653834269e+01    0.1822945   0.06180888 -83.39 0.0007998048    2.924    0.658
        52  -9.0481     22.6584    179.7047   1.0578317998e+02   3.5318046816e+01    0.1087427   0.09398104 -31.67 0.0003778862    1.660    0.398
        53  -9.7132      6.6869    168.3150   1.0943948040e+02   3.9262961547e+01    0.1357519   0.06470434  55.83            0    1.640    0.390
        54  -9.2579      1.6402    158.2866   1.1046222888e+02   4.1923385275e+01    0.1380619   0.06398498  53.46 0.0007022701    1.683    0.406
        55 -10.8943      5.7142    154.0189   1.0916296483e+02   4.2590988582e+01    0.3424228   0.09881757  39.76   0.00149026    2.456    0.593
        56 -10.1337     16.9830    150.0000   1.0569417623e+02   4.2584908437e+01    0.1981142   0.06776834  24.25 0.0005914099    2.907    0.656
        57 -10.6018      6.0666    145.4678   1.0869831493e+02   4.4573750857e+01    0.1806796    0.1138549  29.84 0.0005302152    1.564    0.360
        58  -9.5621     29.0019    143.0214   1.0156499071e+02   4.3104715698e+01    0.1592554    0.1325493  66.05 0.0003087411    1.001    0.001
        59 -10.2278     52.9738    141.8038   9.4058922289e+01   4.0592830135e+01    0.2355631    0.1781543  73.28  0.001287201    1.241    0.194
        60  -9.5676    235.9738    138.4675   5.2294522531e+01   9.2739883742e+00    0.1592351    0.1118665  39.23 0.0007902216    1.537    0.349
        61  -9.8060     96.1358    133.8969   7.9981003661e+01   3.5733979464e+01     0.224754    0.1898763  72.14 0.0007339674    1.192    0.161
        62  -9.5961    213.3409    133.7193   5.4634243383e+01   1.3577985521e+01    0.1147102   0.09932105 -67.48 0.0003015546    1.627    0.386
        63  -9.7182     61.8964    130.6596   8.9722236311e+01   4.2079730285e+01    0.2022917     0.164164  50.32 0.0003764271    1.133    0.117
        64  -9.6671     45.0008    129.9693   9.5087134789e+01   4.4522111696e+01    0.2247365    0.1386271  63.43 0.0003003656    1.592    0.372
        65 -11.0840     40.9292    128.2620   9.6217994811e+01   4.5442808537e+01    0.3047596    0.1647629 -61.11  0.001415515    1.857    0.462
        66 -12.1967     28.4896    127.9815   1.0034585792e+02   4.6881456844e+01    0.2543271    0.2142064  59.31  0.001519315    1.069    0.064
        67 -12.1239     10.2816    121.4982   1.0601329194e+02   5.0134705223e+01    0.4570446      0.30409  69.16 0.0004296514    1.307    0.235
        68  -9.2963    226.3459    124.6899   5.0829525532e+01   1.2580019388e+01    0.1178124   0.09348054 -58.11 0.0007045158    1.705    0.414
        69 -10.6854     69.0589    116.6372   8.4975218600e+01   4.4454133431e+01    0.2692603    0.2093816 -73.20  0.000510511    1.279    0.218
        70 -10.8611      1.8561    113.9340   1.0851972670e+02   5.2627005801e+01    0.2321507    0.1487405  85.90 0.0006537652    1.342    0.255
        71 -10.9836     24.9268    111.6818   9.9870635315e+01   5.1396575853e+01    0.1909969    0.1643495  60.01 0.0005484237    1.088    0.080
        72 -11.7219     13.3831    107.7372   1.0380813963e+02   5.3412172483e+01    0.4991268    0.1653232 -72.28  0.001960283    2.586    0.613
        73 -10.5046     16.9152    104.8772   1.0217545391e+02   5.3871870177e+01    0.1930807    0.1675394 -58.49  0.001158535    1.254    0.202
        74 -10.8549      4.7027    108.2472   1.0712932164e+02   5.3893436500e+01      0.39723    0.1923857   3.37  0.001759052    2.859    0.650
        75  -9.2454     44.9449    104.9581   9.1390276317e+01   5.0908707625e+01    0.1701614     0.153899  78.47  0.000386548    1.012    0.011
        76  -9.7171     39.3256    105.3239   9.3582249799e+01   5.1507405390e+01    0.1431545    0.1049175 -38.08 0.0007048495    1.689    0.408
        77 -10.2654      1.4180    104.2114   1.0811868910e+02   5.5126312188e+01    0.2455045    0.1061793 -77.25 0.0009032188    2.007    0.502
        78 -10.5816    247.0140    101.6886   4.3318814365e+01   1.2023800164e+01     0.161349    0.1417852 -10.90 0.0005739806    1.102    0.092
        79  -9.3179    187.2862    102.3290   5.1761658734e+01   2.3197306748e+01    0.1394132      0.10595   6.35  0.000303657    1.613    0.380
        80  -9.6425     61.2819     99.3825   8.4176857070e+01   5.0013585357e+01    0.1514606    0.1116592 -34.61 0.0007008263    1.727    0.421
        81 -11.6065    197.1238     97.7823   4.9055627861e+01   2.1850500363e+01    0.2220121    0.1968921 -26.23 0.0002677472    1.045    0.043
        82 -10.9353      7.8066     97.4203   1.0508911041e+02   5.6481835521e+01    0.2656323    0.1693493 -26.37  0.001343986    2.085    0.520
        83 -12.3901     20.3116     92.6349   9.9360536959e+01   5.6782582698e+01    0.6163687    0.3962835 -37.17  0.003052827    1.916    0.478
        84 -10.8687      7.0699     90.7868   1.0479826766e+02   5.8252673136e+01    0.2844782    0.1969959 -63.71 0.0005791736    1.379    0.275
        85 -10.2278    132.8939     95.9131   6.1153301391e+01   3.6437496840e+01    0.2214436    0.2087914   7.36 0.0004636202    1.185    0.156
        86  -9.9958      3.3065     95.6324   1.0678446696e+02   5.7223060142e+01    0.1470089   0.07887883  60.81 0.0001361279    1.751    0.429
        87 -11.3988    125.0987     93.0913   6.2322311324e+01   3.8787208326e+01    0.2469132    0.2368979  70.45 -0.001320134    1.019    0.019
        88 -10.1557     43.7078     92.7224   8.9609425180e+01   5.4239037757e+01    0.2947164    0.1563832 -52.52  0.001271219    1.906    0.475
        89  -9.3828    160.7583     92.6526   5.4117187671e+01   3.0643695457e+01    0.1440824    0.1150124  -1.15 0.0002364505    1.570    0.363
        90  -9.8980     92.2502     92.3441   7.1624734182e+01   4.6113590962e+01    0.2227976    0.1372829  51.95 0.0009419176    1.636    0.389
        91 -11.7557     58.0465     91.2560   8.3564905318e+01   5.2576702747e+01    0.3433384    0.2927656 -34.68 0.0009037544    1.382    0.276
        92  -9.6238     83.3498     90.4681   7.4070088018e+01   4.8327742862e+01    0.1972242     0.149577  28.88 0.0009169995    1.532    0.347
        93  -9.7520     29.8858     91.6489   9.5157887292e+01   5.6130384675e+01    0.1892058    0.1683946  59.92 0.0005152759    1.103    0.093
        94 -10.1690      2.8390     83.9175   1.0602858462e+02   6.0284160185e+01    0.2373292    0.1710045 -87.77   0.00103851    1.203    0.168
        95  -9.7224     11.7530     87.9906   1.0247774865e+02   5.8670294473e+01    0.2481805    0.1676526 -86.95  0.001172364    1.321    0.243
        96 -12.4199      8.0547     82.9196   1.0356540524e+02   6.0240891053e+01    0.5593246    0.3730908 -62.78  0.002320232    1.401    0.286
        97 -10.3263     17.6993     86.0398   9.9600454038e+01   5.8730565683e+01    0.3436266    0.2071228  76.41  0.001131208    1.682    0.405
        98 -11.3536     10.9803     93.1592   1.0336986691e+02   5.7374870902e+01    0.2979856    0.2290328  42.06 0.0004021241    1.311    0.237
        99 -10.0494     65.4350     80.9920   7.8020146151e+01   5.3926743513e+01    0.3296555    0.2345444 -12.67  0.001393064    2.313    0.568
       100 -10.2281     42.9523     80.9138   8.7387645252e+01   5.7389886304e+01    0.2052469    0.1915752  82.45            0    1.030    0.029
       101 -10.7742     21.8720     76.1753   9.6115120415e+01   6.0957574420e+01    0.4224375    0.2154904  57.55  0.001373241    2.215    0.549
       102  -9.6021    250.4743     80.5256   3.8358623556e+01   1.3974826489e+01    0.1217065   0.09850343 -28.32 0.0002012087    1.009    0.009
       103  -9.3531     89.3102     80.6576   6.9198425770e+01   4.9407785089e+01    0.1596016    0.1488548  87.25 0.0002541654    1.039    0.037
       104  -9.4204     86.3353     78.6600   6.9595153861e+01   5.0483547883e+01    0.3288046    0.1871105  61.80  0.001253016    2.232    0.552
       105  -9.4163    124.4935     79.0203   5.8316644030e+01   4.1765090402e+01     0.205319    0.1295738 -66.57 0.0004010102    2.123    0.529
       106  -8.7553     80.5113     79.5474   7.1917960781e+01   5.1461160435e+01    0.1543623    0.1445642  84.51 5.818409e-05    1.027    0.026
       107 -11.3870     48.7311     78.5311   8.4279711878e+01   5.7201920278e+01    0.4953907    0.3261366 -22.98 0.0006491517    2.339    0.572
       108 -11.0820     56.3355     75.5866   8.0213817361e+01   5.6782259386e+01    0.5812902    0.2757744  40.27  0.001144424    2.103    0.525
       109 -10.2285    177.0737     76.3288   4.6674200255e+01   2.9571350201e+01    0.2449454    0.2042934 -19.38 0.0009086347    1.269    0.212
       110 -10.7153     16.4999     76.8914   9.8813697056e+01   6.1221731157e+01    0.2343539    0.1726293  58.35  0.001216043    1.361    0.265
       111  -9.0962    240.3464     76.3293   3.8435445832e+01   1.6283021455e+01    0.1244691   0.08981604  10.81 0.0007049958    1.756    0.431
       112  -9.7887     68.8661     74.1574   7.4647357115e+01   5.4966927687e+01    0.2353463    0.1920476  74.53 0.0007195688    1.328    0.247
       113  -9.9143     42.8857     74.1061   8.5753622344e+01   5.9140495291e+01    0.2353105    0.1848824  66.99  0.001221696    1.342    0.255
       114 -10.6456     34.8157     73.3512   8.9335183354e+01   6.0350921831e+01    0.3404963    0.2243321  45.76 0.0007231645    1.559    0.359
       115  -9.6144    181.5670     70.8967   4.4448065019e+01   2.9355331493e+01     0.222655     0.134913 -30.99  0.001018749    1.588    0.370
       116  -9.1938    117.9217     71.1402   5.7506258573e+01   4.4902875150e+01    0.2028069    0.1742992  34.61 0.0003439517    1.301    0.232
       117  -9.6077    105.8292     71.6781   6.1077927273e+01   4.7683888328e+01    0.2229563    0.1406771  60.33 0.0006388101    1.686    0.407
       118  -9.6577     93.2280     71.6565   6.5005047844e+01   5.0565169988e+01    0.3355154    0.1380804  55.09  0.001092242    2.829    0.647
       119  -9.5006    158.0783     70.0277   4.8174642036e+01   3.5154846242e+01     0.234498    0.1802934  23.32  0.001106308    1.676    0.403
       120  -8.8802    129.3594     70.3227   5.4348928954e+01   4.2247683550e+01    0.1608222      0.12335  19.75 0.0007043671    1.773    0.436
       121 -10.0836    100.2551     70.0071   6.2202444276e+01   4.9327172760e+01    0.2130085    0.1888783 -56.20  0.001078172    1.120    0.107
       122 -10.7401     12.9628     70.2453   9.9517071889e+01   6.3218927984e+01    0.1760826    0.1669292  87.58  0.001106646    1.078    0.072
       123 -12.8125     80.6120     67.2214   6.7878930808e+01   5.4258839299e+01     0.332021    0.3256837  81.17 0.0004129734    1.049    0.047
       124  -9.3971     46.1375     69.2646   8.2941626747e+01   5.9909533675e+01    0.3412585    0.1796802  35.06  0.001467008    1.952    0.488
       125 -12.3478      7.1131     63.8234   1.0159543520e+02   6.5260631416e+01    0.5872695    0.3411598 -61.71  0.002086526    1.523    0.343
       126 -10.3793      9.9573     59.0768   9.9247980386e+01   6.6308846438e+01     0.413872    0.1782002 -72.62   0.00180753    2.017    0.504
       127 -10.1648     59.0680     66.4891   7.6267237929e+01   5.8546187416e+01    0.3048975    0.2127203 -59.25 0.0009145214    1.400    0.286
       128 -10.8463     51.8021     65.9204   7.9326541165e+01   5.9881755174e+01    0.3176078    0.2257503 -50.31 0.0008052163    1.380    0.275
       129 -10.7320     39.9875     65.3011   8.4748301061e+01   6.1751081400e+01    0.2547558    0.2303656  64.87 0.0001819531    1.127    0.113
       130  -9.8615     38.9785     61.3174   8.4087430209e+01   6.2878176443e+01    0.2351778    0.1771236 -63.25 0.0007050297    1.247    0.198
       131 -10.0321    104.6812     64.0194   5.8779295573e+01   4.9510427923e+01    0.2175918    0.1963549 -46.54 0.0003973483    1.124    0.111
       132 -13.8164     20.5115     58.4080   9.3164718498e+01   6.5667344940e+01    0.5356613    0.3738478 -49.56 0.0009264214    1.386    0.279
       133 -10.0930     62.6373     62.2806   7.3299935596e+01   5.8906702010e+01    0.3036444    0.1399944 -56.93  0.001142552    2.244    0.554
       134  -9.2948     33.9457     62.7854   8.7079541915e+01   6.3146386656e+01    0.1752544    0.1161144  26.91 0.0008539532    1.642    0.391
       135 -10.4929    153.9594     60.8742   4.6112904752e+01   3.7678009480e+01    0.2183915    0.2048217 -63.58 0.0004211945    1.012    0.012
       136  -9.1034    169.2906     60.3208   4.3313294007e+01   3.3914311367e+01    0.1448568    0.1152256  19.33 0.0001720369    1.605    0.377
       137 -10.5814    145.7222     58.9977   4.7073890322e+01   4.0086407612e+01    0.3139346    0.2182336  61.50 0.0008033896    1.440    0.305
       138  -9.8831     90.7500     59.0102   6.1335514255e+01   5.3793211520e+01    0.2273565    0.1991742 -86.37 0.0001985785    1.206    0.171
       139 -12.6584     86.3395     54.0396   6.0926425990e+01   5.5810474483e+01    0.4508148    0.3989661 -25.64 0.0005551383    1.257    0.204
       140 -10.0544     57.9265     59.0124   7.4215954484e+01   6.0508516421e+01    0.2137605    0.2120651  57.92 0.0003453856    1.062    0.058
       141 -10.0682     49.0558     59.0497   7.8370224073e+01   6.1973936761e+01    0.2299332    0.2128729 -81.83  0.001295049    1.066    0.062
       142  -9.3471    177.5890     58.5184   4.1508181962e+01   3.2140893515e+01    0.1456166    0.1321142 -51.23 2.792049e-05    1.020    0.019
       143 -10.5569     71.8699     56.4151   6.7289871330e+01   5.8443659812e+01    0.2687077     0.227191 -57.56 0.0005006339    1.174    0.148
       144 -10.1718     32.9024     55.9045   8.5634713020e+01   6.4990189890e+01    0.2481917    0.1715095 -54.47  0.001108613    1.347    0.258
       145  -9.4555    127.8456     54.8479   4.9442077535e+01   4.5400162456e+01    0.2130636    0.1743402 -72.25 0.0002493816    1.289    0.224
       146 -13.5413    114.4287     53.1683   5.2097710947e+01   4.9144145306e+01    0.4121882    0.3648886  65.86 0.0007571541    1.107    0.096
       147 -12.3850    106.2020     50.5247   5.3306137468e+01   5.1700559017e+01    0.4098296    0.3392881 -61.13 0.0003227865    1.243    0.196
       148 -11.8902     38.4845     49.0266   8.0267173774e+01   6.5928695842e+01    0.5453621    0.2509297 -47.61   0.00224938    2.111    0.526
       149 -12.0516     66.8124     52.4686   6.7827540965e+01   6.0316765354e+01    0.4896667    0.2594876  41.24  0.001443877    1.955    0.488
       150  -9.6885    149.2385     52.4427   4.4243997808e+01   4.0221011927e+01    0.2056981      0.14455  82.66 0.0006831658    1.573    0.364
       151  -9.9792      4.2726     50.9367   1.0116139211e+02   6.8713899185e+01    0.3664139     0.126141 -69.95  0.001498546    2.358    0.576
       152 -10.7338     14.0072     49.3972   9.4817736635e+01   6.8485640652e+01    0.3862802    0.2398365 -67.67  0.002005258    1.428    0.300
       153 -11.0150      9.0097     47.2871   9.7467635037e+01   6.9364466844e+01    0.3303681    0.2524096 -51.38  0.001934668    1.222    0.182
       154  -9.5838    232.2956     50.3355   3.3074700563e+01   2.0956521506e+01    0.1218344   0.09456717  10.29 0.0003031379    1.647    0.393
       155 -10.7439    137.7533     47.2777   4.4645962727e+01   4.4035837685e+01    0.5454705    0.3994578 -62.31  0.002042005    1.441    0.306
       156 -10.9557    119.7517     48.5202   4.9017751328e+01   4.8573940921e+01    0.4605998    0.2565243 -64.69  0.001598848    2.610    0.617
       157  -9.4406    189.4489     49.4356   3.7282631709e+01   3.0533166825e+01     0.141394     0.126959 -52.23 4.715789e-05    1.006    0.006
       158 -11.0517     74.9566     48.1468   6.2719373345e+01   5.9531389818e+01    0.3583309    0.2599071  70.17  0.001132702    1.655    0.396
       159 -10.1583    155.2928     46.6408   4.1272795016e+01   3.9512023488e+01    0.3003702    0.2599952  14.50  0.001073741    1.408    0.290
       160  -9.2076    146.7414     47.6317   4.3076434719e+01   4.1608912627e+01    0.1498559    0.1188875  16.43  0.000697421    1.642    0.391
       161 -10.4757     68.7778     46.3712   6.4459474030e+01   6.1203325605e+01    0.2461552    0.2207288  41.54 0.0004710354    1.144    0.126
       162  -9.8108     54.0842     46.9522   7.1348025170e+01   6.3919265058e+01    0.2378774    0.1800376 -11.55  0.001132858    1.805    0.446
       163 -11.0040     79.1591     45.4145   5.9943349701e+01   5.9144029139e+01    0.2602285    0.2423413 -63.29 0.0002748283    1.075    0.070
       164  -8.8278     31.4246     43.8915   8.2414478039e+01   6.8080230168e+01    0.5001287    0.1687612 -41.60   0.00157643    3.966    0.748
       165 -10.1130     25.9249     44.5522   8.5997455526e+01   6.8572008448e+01    0.3120845     0.252873 -80.35  0.001764777    1.278    0.217
       166 -11.1142     16.4848     42.4424   9.1343742191e+01   7.0011574389e+01    0.4864205    0.2753614 -57.80  0.001518649    1.546    0.353
       167 -10.5486     21.4575     37.6390   8.6417327560e+01   7.0701329476e+01    0.2549438    0.2225533  48.21  0.001536696    1.256    0.204
       168  -9.9038     93.2390     44.0624   5.4526533511e+01   5.6081083524e+01    0.3208767    0.1787662  33.41  0.001175373    2.585    0.613
       169 -10.8260    184.2943     40.8326   3.5401073905e+01   3.2908250159e+01    0.3702239    0.2552693 -57.74  0.001286365    1.410    0.291
       170 -11.4589     37.0224     40.5198   7.7752373025e+01   6.8108180207e+01    0.3265347    0.2815772 -67.17 0.0003743014    1.175    0.149
       171 -10.3082    140.2282     40.1414   4.1627415322e+01   4.4444080629e+01    0.4156459    0.2238555 -58.55  0.001604022    2.202    0.546
       172 -10.8515      6.0878     40.1445   9.7771367970e+01   7.1321309257e+01    0.4479697    0.2361906 -51.65   0.00224092    1.686    0.407
       173 -10.0674    170.8848     40.1468   3.6870824661e+01   3.6370683138e+01    0.2142553    0.1753387 -64.33  0.001134052    1.168    0.144
       174 -10.6191    133.7271     39.8711   4.2746070230e+01   4.6227305402e+01    0.2522406    0.2112976  76.71 0.0002915112    1.168    0.143
       175  -9.6938     44.5689     40.1842   7.3331315866e+01   6.7026830672e+01     0.226834    0.1641746  30.97  0.000630818    1.484    0.326
       176 -12.8479    121.8831     37.3872   4.4220663827e+01   4.9773987787e+01    0.4801943    0.3548076 -56.05   0.00189201    1.390    0.281
       177  -9.3088     51.9888     38.7842   6.8778343060e+01   6.6048076380e+01     0.179082    0.1159983  41.25 0.0002730582    1.586    0.370
       178 -11.1885      3.0282     34.4107   9.8591214124e+01   7.2895208328e+01    0.4183596     0.335057 -28.05  0.002593717    1.299    0.230
       179 -10.6696    206.1078     32.4712   3.0788026804e+01   2.8705368220e+01      0.31365    0.1652729 -41.77 0.0003673215    1.597    0.374
       180  -9.5236     90.2417     34.0243   5.1009746534e+01   5.8543063704e+01    0.2144563    0.1487838 -19.80 0.0005140475    1.730    0.422
       181 -10.3923     92.5261     31.4771   4.9128378710e+01   5.8375672233e+01    0.2725435    0.1529793 -29.09 0.0006407715    1.925    0.480
       182 -10.0751     49.8293     33.4786   6.7319610388e+01   6.7528868734e+01    0.2434842    0.1903943 -46.55 0.0002532563    1.249    0.200
       183  -9.7797     40.7394     34.5830   7.2903214527e+01   6.8854494771e+01    0.2342289    0.1365593  32.86 0.0006912696    1.846    0.458
       184 -10.6336     28.3019     33.3624   8.0086953168e+01   7.0904689883e+01    0.2445631     0.174126 -34.68 0.0008340479    1.461    0.316
       185 -10.1075    187.7268     31.6056   3.2292853470e+01   3.3197849205e+01    0.3297563     0.193889 -13.89  0.001476218    2.052    0.513
       186 -11.7767    135.9700     29.3085   3.8368689140e+01   4.7083759571e+01    0.4224613    0.2722875 -47.45 0.0003865941    1.521    0.343
       187  -9.5396     55.5090     33.5435   6.4468253254e+01   6.6444054367e+01    0.1405341    0.1372586 -15.38 7.001439e-05    1.023    0.023
       188  -9.1240    241.7554     32.7194   2.8119227372e+01   2.1041271635e+01    0.1072172     0.089623   0.23 -0.000275831    1.454    0.312
       189  -9.3412    177.9795     32.2254   3.3532333940e+01   3.5563792014e+01    0.1801621    0.1154875  75.19 0.0004383311    1.593    0.372
       190 -11.0141    144.3302     31.1450   3.7679575595e+01   4.4571909157e+01    0.3426794      0.23698 -38.41 0.0007952046    1.395    0.283
       191 -12.3351      9.8559     29.4985   9.1898617223e+01   7.3658066400e+01    0.4842831    0.2446919  41.23  0.002310511    2.248    0.555
       192 -10.2903      2.7893     26.4051   9.6596329167e+01   7.4839422370e+01    0.2308004    0.1803312  50.49 0.0008962991    1.461    0.315
       193 -11.3671      5.4861     20.5153   9.2214671673e+01   7.6061276831e+01     0.406736    0.2099323 -25.85  0.001937034    2.269    0.559
       194 -10.0272    192.3322    248.3254   7.6778619843e+01   2.5081259999e+00    0.1066786   0.06140159   9.76 0.0004731938    1.709    0.415
       195  -9.9432    128.7979     31.0769   4.0334877375e+01   4.8803467662e+01     0.304882    0.2154001  84.84  0.001412674    1.480    0.324
       196  -9.9229     44.0346     30.9620   6.9201036889e+01   6.9063834488e+01    0.2109909    0.1980675 -10.65 0.0007317991    1.082    0.075
       197 -11.7385     38.7928     30.6567   7.2117560229e+01   6.9992919718e+01    0.2438194    0.2295949 -18.06 0.0002859372    1.057    0.054
       198  -9.2889    152.7451     29.7450   3.5920991888e+01   4.2480198512e+01    0.2364469    0.1199986  88.29 0.0008824152    2.428    0.588
       199  -9.0654     54.6270     29.3354   6.2711625795e+01   6.7421293428e+01    0.1477759    0.1131459 -87.30 0.0007023568    1.851    0.460
       200 -10.1956     69.7060     18.2603   4.9891130419e+01   6.5969005764e+01    0.3831862    0.2079849  71.43  0.001525781    2.443    0.591
       201 -10.5842     69.4840     25.6997   5.4132960379e+01   6.4876660556e+01    0.5434194    0.3040664 -25.65  0.002283088    2.115    0.527
       202  -9.9314     74.1743     21.4036   5.0019717100e+01   6.4444961536e+01    0.2814694    0.2073594  77.18  0.001371459    1.574    0.365
       203 -10.8512     76.2735     17.4807   4.7114081112e+01   6.4494164521e+01    0.4051147      0.26758  56.69  0.001442573    1.453    0.312
       204  -9.4431     94.3114     27.2967   4.6640288725e+01   5.8551729003e+01    0.2123692    0.1462136  46.80 0.0003517928    1.477    0.323
       205 -10.4475     91.1395     26.8592   4.7339902792e+01   5.9430144759e+01    0.2612645    0.2346174 -69.15  0.000307509    1.150    0.131
       206 -10.0476     80.9975     26.7306   5.0463291743e+01   6.1985377755e+01    0.2634587    0.1969715 -59.67 0.0007278587    1.515    0.340
       207 -10.1416    216.9252     25.6824   2.8103321730e+01   2.7009977642e+01    0.1789822     0.149813 -61.27 0.0003742884    1.096    0.088
       208  -9.8780     46.1733     26.1787   6.5419613093e+01   6.9626190078e+01    0.1818584    0.1629485 -79.74 0.0003587425    1.306    0.234
       209  -9.9314    131.8771     25.1790   3.7470369181e+01   4.8730281679e+01    0.2266292    0.1858366 -63.13 0.0003243096    1.194    0.162
       210  -9.8488     59.1660     24.7346   5.8008068220e+01   6.7315837674e+01    0.2841941    0.1519707 -50.78  0.001185649    2.163    0.538
       211 -10.0274    191.4872     24.5279   2.9852454771e+01   3.3086973199e+01    0.1390196    0.1225357 -55.77 0.0001648261    1.017    0.017
       212 -10.2171     39.4770     15.0390   6.2516360653e+01   7.2868660127e+01     0.200709    0.1279847 -40.49 0.0005627288    1.535    0.349
       213  -9.9628    188.6581    248.3202   7.7380131997e+01   2.9391900055e+00   0.09417773   0.06983874  42.92 0.0005979755    1.720    0.419
       214  -9.7645    102.7846     22.7205   4.2283220180e+01   5.6961891964e+01     0.268416    0.1765272  62.29  0.001027666    1.447    0.309
       215  -9.9708    109.0174     22.1094   4.0579107639e+01   5.5365550603e+01    0.2197444    0.2020267  73.60 0.0003986101    1.041    0.039
       216  -9.2867    229.9837    247.2974   7.0807964572e+01  -1.5918899595e+00    0.1158143     0.064415  25.95 0.0005923605    1.359    0.264
       217  -9.5577     21.9392     21.4460   7.8808463156e+01   7.4305118624e+01    0.2553428      0.17849  -7.76  0.000955885    1.770    0.435
       218  -9.4378    224.5997    247.2500   7.1600047097e+01  -1.0136773316e+00    0.1252292   0.07422838 -10.59 0.0008766239    1.600    0.375
       219 -11.3187     15.3453     20.6193   8.3692579844e+01   7.5216447656e+01     0.487632    0.2886106  29.02   0.00256458    1.788    0.441
       220 -10.0471    171.1522    246.6852   8.0136922094e+01   5.2149769247e+00    0.2011084    0.1101047  21.07 0.0009695147    1.580    0.367
       221  -9.3786     26.9092     21.3542   7.5008593991e+01   7.3681552630e+01    0.1734135    0.1216323  14.57 0.0003011639    1.663    0.399
       222  -9.8365    115.9789    246.6645   9.0174733005e+01   1.2112051913e+01    0.1558805    0.1082474  34.25 0.0006273091    1.044    0.042
       223  -9.4646    132.0041     20.2865   3.5519649288e+01   4.9286901328e+01    0.2052921    0.1841285  74.52 0.0004378009    1.084    0.077
       224  -9.1268    119.6805     19.2544   3.7194645496e+01   5.2804548155e+01    0.1527409    0.1068127 -69.18 0.0002136248    1.537    0.349
       225  -9.8927    154.3341     17.8112   3.1529571926e+01   4.3452588136e+01    0.2410019    0.1844072 -81.25 0.0004745985    1.257    0.205
       226  -9.4812     51.9676    244.5367   1.0256199397e+02   2.0055598278e+01    0.1396582   0.08632923  10.17 0.0008089446    2.496    0.599
       227  -9.3981     88.8050     18.6524   4.3904340887e+01   6.1173215732e+01    0.1942566    0.1354321  74.59 0.0002183877    1.501    0.334
       228 -10.7904    238.2339     16.9715   2.4577895581e+01   2.3373248945e+01    0.2225365    0.1476234 -38.30 0.0002858381    1.191    0.160
       229 -10.1141     39.4676    242.9614   1.0497252596e+02   2.1649071841e+01     0.238049   0.06586958  61.58 0.0009838399    4.202    0.762
       230 -10.0938     35.6148    240.0011   1.0561800004e+02   2.2533869028e+01     0.190738    0.1151611  40.04 0.0004859528    1.187    0.157
       231 -10.6766     82.9662     15.9634   4.4163604568e+01   6.3019452640e+01    0.2572224    0.1939151 -43.64 0.0003251052    1.373    0.271
       232  -9.6154     61.1848    240.6571   1.0050380652e+02   1.9640774451e+01    0.1534481     0.084467  26.91 0.0004336584    1.686    0.407
       233 -10.8308     30.2195    240.8410   1.0672957342e+02   2.2946443593e+01    0.2707213   0.06918091  27.23 0.0009981022    3.735    0.732
       234  -9.6027    159.7255     15.6905   3.0184714421e+01   4.2228698594e+01    0.1385982    0.1085338  35.47 0.0002626421    1.552    0.356
       235 -12.1448      7.3636    239.5343   1.1121320751e+02   2.5342613474e+01    0.4544159    0.2773438 -33.16  0.002586519    3.847    0.740
       236  -9.8437    146.6066    244.2134   8.4214506811e+01   8.5635858565e+00    0.1296685   0.09620907 -20.98  0.000950303    1.681    0.405
       237 -10.2927    174.1594    235.8119   7.8317611331e+01   6.0782188401e+00    0.1480477    0.1013027  13.04 0.0004007282    1.303    0.232
       238 -11.1195     24.9381    235.7896   1.0761092810e+02   2.4317273432e+01    0.2197495   0.09262372  44.76 0.0007519176    1.553    0.356
       239 -12.0097      4.1217    232.9114   1.1172471809e+02   2.6753268101e+01    0.3135587    0.1887245  46.61  0.001193761    1.120    0.107
       240  -9.3713    204.2867    235.2971   7.3199857467e+01   2.4288901056e+00    0.1038164   0.06227902   8.62 0.0002692227    1.550    0.355
       241 -11.1953      3.1142    241.1368   1.1207097077e+02   2.5452629300e+01    0.2889527    0.1886787  52.49  0.002233453    1.052    0.049
       242  -9.4233    249.4996    233.4312   6.6165350179e+01  -2.4378933188e+00   0.09786038   0.06589749   8.03 0.0001426061    1.012    0.012
       243  -9.9738     30.4946     15.9810   6.9125048376e+01   7.4217841078e+01    0.1894738    0.1763745  12.22 0.0004629268    1.079    0.074
       244  -9.9732     32.2254    233.3776   1.0603628606e+02   2.3993587228e+01    0.1597013   0.06839759  40.38 0.0004125811    1.565    0.361
       245  -9.8559    244.6658    229.8435   6.6347994501e+01  -1.6173050622e+00    0.2202855   0.05064356  32.01  0.001014564    3.853    0.740
       246  -9.7736    209.9111    229.4924   7.1524543188e+01   2.3540089401e+00    0.1530246   0.08059549  31.01 0.0006401822    1.522    0.343
       247  -9.0042    205.4597    229.4704   7.2234224449e+01   2.8920067194e+00    0.1059695   0.07769569  15.29 0.0002333501    1.015    0.014
       248 -10.9388    140.0841    227.8569   8.3611894413e+01   1.1555206584e+01    0.2326313    0.1737822 -71.58  0.001555915    2.139    0.533
       249  -9.2654     47.7041    229.6974   1.0265273678e+02   2.2971562413e+01   0.09557004   0.08368313   6.04 0.0001507416    1.578    0.366
       250  -9.6210    193.8145    201.7930   7.0195693259e+01   7.5630283059e+00    0.1432152    0.1230234  28.52 0.0006909063    1.284    0.221
       251 -11.8952      2.3169    224.8259   1.1193885344e+02   2.8325670032e+01    0.3742122    0.1398821  59.46  0.001169664    1.947    0.486
       252  -9.7533    223.4300    226.5251   6.9008946219e+01   1.0584189922e+00    0.1034058   0.07430896  10.42  8.02982e-05    1.009    0.009
       253 -10.4543     12.5121    226.5081   1.0987215621e+02   2.7114009114e+01    0.1116582   0.07792284  50.61 -3.971827e-05    1.013    0.013
       254 -10.0546     26.6174    223.7833   1.0682635194e+02   2.6238610308e+01    0.1464131   0.08325845  70.85 0.0004967465    1.614    0.380
       255  -9.2614    167.4431    221.4516   7.7687730068e+01   8.7051446845e+00    0.1134477   0.08796205  24.83 0.0002157994    1.031    0.031
       256 -11.1972      8.2934    219.0255   1.1056510216e+02   2.8844777929e+01    0.2643279    0.1461654 -59.55  0.001368328    2.559    0.609
       257  -9.1200     85.6924    215.2459   9.3465173230e+01   2.0860890948e+01    0.1214884   0.07044797  51.09 0.0001483156    1.502    0.334
       258  -9.6787     29.9784    214.5076   1.0571328551e+02   2.7588710783e+01    0.1688232   0.09049188  34.04 0.0004069802    1.507    0.337
       259  -9.3992    205.4747    211.9948   6.9765482542e+01   4.7920547164e+00    0.1484955   0.09741922 -24.21  0.001019973    1.560    0.359
       260  -9.1605    229.6873    209.3332   6.5561537951e+01   2.0439699449e+00   0.08695716   0.08198954  12.55 0.0007044923    1.681    0.405
       261  -9.5829     20.2533    209.4469   1.0766459255e+02   2.9516487614e+01     0.169428   0.07203732  42.09   0.00093626    1.634    0.388
