#   1 NUMBER                 Running object number                                     
#   2 MAG_AUTO               Kron-like elliptical aperture magnitude                    [mag]
#   3 X_IMAGE                Object position along x                                    [pixel]
#   4 Y_IMAGE                Object position along y                                    [pixel]
#   5 X_WORLD                Barycenter position along world x axis                     [deg]
#   6 Y_WORLD                Barycenter position along world y axis                     [deg]
#   7 A_WORLD                Profile RMS along major axis (world units)                 [deg]
#   8 B_WORLD                Profile RMS along minor axis (world units)                 [deg]
#   9 THETA_WORLD            Position angle (CCW/world-x)                               [deg]
#  10 FWHM_WORLD             FWHM assuming a gaussian core                              [deg]
#  11 ELONGATION             A_IMAGE/B_IMAGE                                           
#  12 ELLIPTICITY            1 - B_IMAGE/A_IMAGE                                       
         1 -12.6744     74.5807     50.1417   8.4993203997e+01   5.7727770541e+01     1.266803    0.7516132 -51.94  0.005996721    1.939    0.484
         2 -12.1413    124.7698     27.8259   6.1489010139e+01   5.0808245524e+01    0.7868988     0.593838  32.15  0.002749051    1.323    0.244
         3 -13.0185    116.9184     41.8917   6.8753317207e+01   5.0708411198e+01     1.196364    0.8006881  71.46  0.005405388    2.013    0.503
         4 -10.1558     60.2359     22.0799   7.8713939432e+01   6.4626183302e+01    0.7926755     0.223812 -34.12  0.002952351    3.343    0.701
         5 -12.1937     60.4965     45.6633   8.8473592143e+01   6.0717947248e+01     1.016345    0.5039155 -42.99  0.004841619    1.808    0.447
         6 -10.3669     80.3630     40.0375   7.9076380093e+01   5.8484769857e+01     1.281045    0.7274565 -11.63  0.005341128    2.598    0.615
         7 -10.9236    178.3726     21.4266   4.9497762143e+01   3.7893626534e+01    0.6501948    0.3743839  30.33  0.002719159    2.415    0.586
         8 -11.5054    182.7144     25.5154   5.0122393244e+01   3.6283522782e+01    0.6430507    0.3652943  47.78  0.002869372    1.834    0.455
         9 -10.0982     22.0284      4.6466   8.7332830060e+01   7.2103775333e+01    0.3552767     0.153872 -45.22  0.001341577    2.537    0.606
        10 -11.8611     19.8891     22.5211   9.6823042001e+01   6.9486523888e+01    0.7446246    0.3781767 -45.96  0.003040196    1.617    0.382
        11 -11.5157     14.0408     23.5396   1.0011428492e+02   6.9780098619e+01    0.5140468    0.4860425 -64.41  0.002398766    1.501    0.334
        12 -12.7485     17.6171     13.7600   9.4137373703e+01   7.1146712808e+01    0.5131495    0.4555199   3.25 0.0008486479    1.361    0.265
        13 -11.8425     22.8581     10.8792   9.0076217852e+01   7.1103771292e+01    0.4110424    0.2639681  13.48  0.002125679    1.590    0.371
        14 -12.1539    105.9786     20.1051   6.3062206146e+01   5.6089031668e+01    0.5463704     0.403696 -41.48 0.0003975602    1.546    0.353
        15 -12.3400    105.5734     33.0920   6.8443060827e+01   5.4514218135e+01    0.9692497    0.5195981   8.41  0.002900485    3.792    0.736
        16 -11.6997    154.7018     25.0430   5.4408492064e+01   4.3649538157e+01     1.424897     0.685065  64.47  0.005869992    1.979    0.495
        17 -11.2284    165.1836     17.6123   5.0235377383e+01   4.1760743981e+01    0.4779499    0.2908074  37.71  0.001528563    1.860    0.462
        18 -11.7320    138.1224     21.9326   5.6430060409e+01   4.8232431975e+01     1.356265    0.4472053  50.34   0.00485222    2.666    0.625
        19 -10.9682    145.6466     16.8855   5.3212056809e+01   4.6882290546e+01    0.4634666    0.3925912 -71.58 8.320094e-05    1.319    0.242
        20 -12.2644    132.4856     15.0689   5.5029943268e+01   5.0378081992e+01     1.302708    0.5960881  74.45  0.001833265    2.863    0.651
        21  -9.6468    141.4548     12.3233   5.2345097737e+01   4.8410681407e+01    0.2336305    0.2158233  22.43 0.0007127155    1.114    0.102
        22 -12.5416    163.8866     27.9364   5.3784382626e+01   4.0918900076e+01    0.6308421    0.3944036  38.36 0.0004988698    1.783    0.439
        23 -10.8209    214.6338     23.3541   4.5538995394e+01   2.8344576578e+01    0.4639288    0.3699946  -0.01  0.002522187    1.634    0.388
        24 -10.7101     87.1232      7.5538   6.2777162289e+01   6.1480599825e+01    0.5515831    0.3314579  52.36  0.002260485    1.608    0.378
        25 -11.3072     91.0507     20.7129   6.7502478494e+01   5.9208095585e+01    0.6189706    0.4230462 -19.36  0.002588425    1.440    0.306
        26 -11.5088     85.9513     14.1376   6.6127737493e+01   6.1017565038e+01    0.6063222    0.3526641 -14.65  0.002199451    1.786    0.440
        27  -9.5395     50.5119      6.4478   7.4966909917e+01   6.8194283768e+01    0.3867542    0.1126491  44.52  0.001566212    3.568    0.720
        28 -12.3930     48.6736     13.0198   7.9081329386e+01   6.7630322231e+01    0.7314078    0.3180656  37.29  0.003625273    2.345    0.573
        29 -11.6460     36.4779     19.1903   8.7452704113e+01   6.8338028078e+01    0.6020523    0.3474052 -39.03  0.002514204    1.540    0.351
        30 -10.8786     32.4939     12.4221   8.6079665334e+01   6.9828488656e+01    0.2175505    0.1916794  27.97 0.0005399206    1.513    0.339
        31 -10.3021     62.6191      8.1318   7.1094734833e+01   6.6037686272e+01    0.6376911    0.2406147 -20.90   0.00262863    2.995    0.666
        32 -10.6554     65.7240     10.3854   7.1075662638e+01   6.5241716153e+01    0.3407026    0.2017439  40.87  0.001568462    1.625    0.385
        33 -11.9588     68.3686     18.1736   7.3844697742e+01   6.3818009601e+01    0.5098923    0.4663678  25.92  0.002610008    1.248    0.199
        34 -10.4534    120.2060     19.5017   5.9337805103e+01   5.2881788734e+01    0.4569423    0.2316756 -26.37  0.001703453    2.031    0.508
        35 -12.1388    238.7641     15.8695   4.1326155602e+01   2.3378104661e+01    0.8430419    0.4581532  72.41  0.002998785    1.798    0.444
        36 -11.8026    233.8577      7.0287   3.9627668743e+01   2.5513414609e+01     0.882643    0.4046645  85.72  0.003951798    2.282    0.562
        37 -11.8973    246.9469      7.0525   3.8628922143e+01   2.2484484841e+01     0.709271     0.474151 -14.12  0.003305958    1.994    0.498
        38 -11.0043    242.1339      3.7879   3.8236857755e+01   2.3933722584e+01    0.4076495    0.1991275  70.92  0.002031693    1.958    0.489
        39 -10.9884    218.8404      3.1585   3.9925098233e+01   2.9526305947e+01    0.3405777    0.3044192 -36.58  0.001334387    1.235    0.190
        40 -11.1676    223.6664      1.8838   3.9207025213e+01   2.8482973579e+01    0.5898519    0.2447053  81.03  0.002523089    2.394    0.582
        41 -11.4615    192.4765      7.4738   4.3630312665e+01   3.5715980214e+01    0.6639276    0.4163051  10.53  0.003033011    2.421    0.587
        42  -9.7307    191.5631     16.6560   4.6352260430e+01   3.4991697464e+01    0.3136163    0.2644853   5.92  0.001750116    1.456    0.313
        43 -10.0645    226.0170     15.4434   4.2358446495e+01   2.6460289793e+01    0.3850129     0.173279 -35.03  0.001690102    2.040    0.510
        44 -12.4260    104.6170     12.7648   6.0348214263e+01   5.7199998810e+01    0.5208924    0.4918233 -37.07  0.001633778    1.237    0.192
        45  -8.9448     94.2757     12.3867   6.2924051174e+01   5.9491734193e+01     0.225437    0.1361461  39.42 0.0003705057    1.516    0.340
        46 -11.5400    211.8462      9.8987   4.2288895300e+01   3.0556130878e+01    0.4525496    0.3133068   8.17 0.0007370936    2.141    0.533
        47  -9.0413      4.1277     11.6093   1.0036827594e+02   7.2535833256e+01    0.2630967     0.116726 -40.26  0.001547214    1.646    0.393
        48  -9.7505    169.1180      9.6512   4.7136234739e+01   4.1551629249e+01    0.3711446     0.171456  46.55  0.001534007    2.238    0.553
        49  -9.0282    163.2193     10.0085   4.8074639152e+01   4.3049035869e+01    0.2501075    0.1887255 -25.76 0.0006488672    1.439    0.305
        50  -9.8599    163.3646      5.0508   4.6460356429e+01   4.3476571394e+01    0.3695081     0.249747   7.78  0.001841254    1.895    0.472
        51  -9.3440    157.4652      2.5185   4.6451917280e+01   4.5222177541e+01    0.2515613    0.2010927  50.20  0.001425691    1.190    0.160
        52  -9.2379    161.0255      1.0000   4.5474034338e+01   4.4435736192e+01    0.3288278    0.1325785  69.21  0.001307682    2.194    0.544
        53  -9.7219    153.9986      7.4815   4.8603940038e+01   4.5670942942e+01    0.7877328    0.2214921  69.86  0.002515152    3.556    0.719
        54 -11.4373     40.7545      5.7466   7.8806956610e+01   6.9694566856e+01     0.463207    0.2256277 -14.97  0.002253678    2.410    0.585
        55  -9.3553      1.2004      7.4524   1.0017011741e+02   7.3413383788e+01    0.1810775   0.06577075 -49.27 0.0005776305    2.151    0.535
        56 -10.4999    183.4662      5.0118   4.3934615552e+01   3.8275972972e+01    0.3691323     0.266687 -43.21  0.001359871    1.414    0.293
        57  -9.2812     78.4870      7.4939   6.5356048839e+01   6.3210201990e+01    0.2256443    0.1593589  50.77 0.0007226781    1.467    0.318
        58 -10.6767     76.7482      3.6037   6.4032506500e+01   6.3937412200e+01    0.3766701    0.2317356   4.33  0.001551234    1.706    0.414
        59 -10.6525     72.9782      2.7618   6.4820945218e+01   6.4740366126e+01    0.4828339    0.2285207  29.72  0.002257636    2.223    0.550
        60 -10.6834    175.9638      5.2313   4.4889650160e+01   4.0196161250e+01    0.5063187    0.2570468  80.88  0.002029862    2.013    0.503
        61 -10.8382    105.3569      1.7640   5.5507944985e+01   5.8061719018e+01    0.4833682    0.3274428 -81.40  0.001687773    2.308    0.567
        62 -10.6651    113.4117      3.2508   5.4347352638e+01   5.6081241381e+01    0.5511671    0.3233475  64.89  0.001971272    1.674    0.403
        63  -9.5795    109.6757      1.6952   5.4513636122e+01   5.7079426530e+01     0.249043    0.1606105  48.33 0.0006331385    1.345    0.256
        64  -9.0380    202.7835      5.6300   4.2046141501e+01   3.3272994501e+01    0.1996974    0.1157515  88.95 0.0009477947    1.723    0.420
        65 -10.4956    142.2833      3.2988   4.8996374939e+01   4.9028739778e+01    0.3987245    0.2707661  59.37  0.001406664    1.296    0.228
        66 -11.7596    133.4972      2.7833   5.0285037920e+01   5.1271720767e+01    0.4680309    0.2797925  62.40  0.001421742    1.486    0.327
        67  -9.6017    207.7185      2.9884   4.0870891777e+01   3.2294234448e+01    0.2740329    0.1847405  81.68 0.0007589114    1.356    0.263
        68  -9.4654    204.4794      1.5465   4.0791876210e+01   3.3246366901e+01    0.2179629    0.1742254  59.74  0.000571898    1.285    0.221
        69 -11.0803      3.0749      1.7992   9.6396368284e+01   7.4188103757e+01    0.3718405    0.1679853  10.30  0.002119667    2.604    0.616
        70  -9.9536     13.3430      1.7790   9.0498779577e+01   7.3360642513e+01    0.2418841    0.1368691  11.96  0.001531133    1.846    0.458
        71  -9.5176    122.3712      1.1866   5.1712000671e+01   5.4124476766e+01    0.4152477   0.07414549  62.22  0.001251771    4.141    0.759
        72 -10.4653     82.1984      1.3282   6.1292323763e+01   6.3072389930e+01    0.1977108    0.1053506  51.28 0.0003267682    1.726    0.421
        73  -8.6732    151.9394      1.0000   4.6730449040e+01   4.6767675051e+01    0.2247415   0.07078861  68.88  0.000555694    2.842    0.648
        74  -9.6824    214.5544    151.0545   7.8314650058e+01   7.9085578788e+00    0.2645002     0.207116  63.41  0.001023775    1.602    0.376
        75 -10.6606     32.8818    144.3517   1.1948083488e+02   4.1732128877e+01    0.2742486    0.2524369  62.60  0.001086202    1.262    0.207
        76  -9.9472    133.0467    140.1681   9.3474072708e+01   2.7363148034e+01    0.3381481    0.2860565  38.28 0.0009822854    1.225    0.184
        77 -12.0808     23.8637    136.3333   1.2078540901e+02   4.4438855217e+01    0.7556559    0.3905782  48.15  0.003054043    2.033    0.508
        78 -12.3992     29.8878    132.9826   1.1885546934e+02   4.4668937556e+01    0.3901447    0.2765743 -88.08 0.0003210477    1.224    0.183
        79  -9.7691     79.3671    136.7839   1.0647447521e+02   3.7743840023e+01    0.3404866    0.1980402 -59.39  0.001459714    1.578    0.366
        80  -9.4942     82.3282    135.3166   1.0542488456e+02   3.7641085455e+01    0.2498332    0.2015824 -16.98 0.0009532265    1.753    0.430
        81 -10.1320     47.3533    135.9905   1.1474034588e+02   4.2152166038e+01    0.4293159    0.1599922 -63.24  0.001408666    2.218    0.549
        82 -10.1495     40.2221    137.6324   1.1680682122e+02   4.2546752149e+01    0.2362781    0.1586301  83.51  0.001336368    1.451    0.311
        83  -9.3277    192.1944    136.2071   7.9264138651e+01   1.5355074278e+01    0.2076311    0.1812654 -66.84 0.0007789971    1.334    0.251
        84  -9.3699     86.6941    135.8662   1.0437786685e+02   3.6827549521e+01    0.2336822    0.1694498 -45.43  0.001188135    1.479    0.324
        85  -9.0700    216.6128    135.2308   7.4305528531e+01   1.0214162503e+01    0.2032349    0.1344157 -24.32 0.0004838482    1.576    0.366
        86 -10.7164     92.8306    129.5562   1.0149870097e+02   3.7317924736e+01    0.4162946    0.2597047 -66.07  0.001854312    1.631    0.387
        87  -9.5845    107.6363    146.0194   1.0096505096e+02   3.0906773651e+01    0.2342898    0.1905176  60.95 0.0004617112    1.223    0.182
        88  -9.5275     68.3024    134.6795   1.0902417874e+02   3.9837457799e+01    0.1412998   0.09740982  78.41  0.000702713    1.629    0.386
        89 -10.1013     74.3285    132.7429   1.0707705410e+02   3.9448079389e+01    0.2792175    0.2331183 -21.84  0.001547342    1.595    0.373
        90  -9.6127     62.8075    131.7654   1.0999181948e+02   4.1269591960e+01    0.4031686    0.1404575 -57.12  0.001582671    2.454    0.593
        91  -9.4671    103.9165    130.8366   9.8823979861e+01   3.5094245576e+01    0.2087482    0.1995636 -14.25 0.0003721582    1.215    0.177
        92 -10.2303     82.2022    125.5454   1.0356225534e+02   3.9981725745e+01    0.3715799    0.2562635 -22.61  0.000980049    2.269    0.559
        93  -9.0903    224.0003    126.9779   7.1021727930e+01   1.0062008374e+01    0.2244011     0.172862 -61.85 0.0005360231    1.636    0.389
        94  -9.5518     22.9507    126.9366   1.1990512696e+02   4.6701140168e+01    0.1810733    0.1423253 -81.93  0.001191178    1.025    0.025
        95 -10.0919     18.6356    124.6178   1.2075676482e+02   4.7596751975e+01    0.4038592    0.1369604 -66.76  0.001838658    2.202    0.546
        96 -10.8213     56.0883    123.6162   1.1042645050e+02   4.4066098370e+01    0.4891816    0.3857472   3.06   0.00226092    1.794    0.443
        97  -9.4808     49.9907    122.8357   1.1198783050e+02   4.4976142716e+01    0.2572612     0.188386  -8.03  0.001158934    2.105    0.525
        98 -10.6679     45.6833    120.5161   1.1280533993e+02   4.6011666148e+01    0.5107161    0.2689012 -88.67  0.001957816    2.488    0.598
        99 -10.5878     42.0771     93.9807   1.0897486692e+02   5.2652347784e+01    0.4875697    0.3267259 -86.80   0.00258992    1.759    0.431
       100 -12.7062     33.4856     93.4676   1.1162664577e+02   5.3604672460e+01     1.869692     1.149341 -72.56   0.01022503    1.498    0.333
       101 -11.8247      9.5018     97.4168   1.1977333128e+02   5.4531284835e+01     1.196384    0.5370555 -86.00  0.005609412    2.455    0.593
       102 -11.9743      7.1447     88.8379   1.1923673514e+02   5.6625686519e+01    0.7655416    0.5388988   7.63  0.003969277    1.907    0.476
       103 -10.8945     17.2460    100.8729   1.1794922633e+02   5.3212689819e+01    0.3866405    0.2952655  26.89 0.0005884765    1.649    0.393
       104 -11.8632      2.4152    112.1340   1.2365457732e+02   5.1605195246e+01     1.304762    0.4568909 -80.85  0.005548126    2.574    0.611
       105 -11.6596      3.7470    105.7017   1.2254341039e+02   5.2990919919e+01    0.4217428    0.3332727 -83.19  0.001873128    1.092    0.084
       106 -11.7669     22.3468     94.9899   1.1543768707e+02   5.4190026293e+01    0.5055081    0.3548583   0.23  0.001713127    1.960    0.490
       107 -12.3005     18.2943     90.3151   1.1592161208e+02   5.5565911857e+01    0.3351417    0.2406375 -60.96 0.0003839144    1.101    0.092
       108 -12.1520     18.7357    106.1928   1.1829594107e+02   5.1870609598e+01    0.2632907    0.2143352 -62.42 0.0002645089    1.121    0.108
       109 -12.1349     43.6113     85.2994   1.0656727452e+02   5.4491651814e+01    0.5464929    0.3988789  11.75  0.002065067    1.730    0.422
       110 -10.8580     37.3746     85.8751   1.0878820498e+02   5.4988024144e+01    0.2493917    0.2424666 -84.06 0.0008479069    1.186    0.157
       111 -11.8174     22.5754    113.9722   1.1830404739e+02   4.9758103210e+01     0.893811    0.3570772  12.98  0.003584326    4.657    0.785
       112 -12.6011     25.3092    107.5773   1.1658049112e+02   5.1027504380e+01    0.7130857    0.4442319 -36.42  0.002885811    1.936    0.483
       113 -11.7825    104.3603    122.1543   9.6785082489e+01   3.7038233960e+01    0.4394218    0.4204791  30.93  0.001060012    1.154    0.133
       114  -9.6733     67.2846    124.2387   1.0742836435e+02   4.2467948667e+01    0.3054775    0.2012313  11.43  0.001425774    2.420    0.587
       115 -10.6423     33.0869    119.2512   1.1612471280e+02   4.7594830990e+01    0.3031565     0.263461 -85.93  0.001504021    1.094    0.086
       116  -9.0998    221.4749    120.4823   6.9901092859e+01   1.1723970548e+01    0.1474113    0.1380854 -25.44 0.0004762654    1.023    0.023
       117  -9.3021    148.5974    119.7016   8.4841982742e+01   2.8516643013e+01    0.2421839    0.1914544  -2.65 0.0006951235    1.680    0.405
       118  -8.5698     94.2948    123.3116   9.9778658640e+01   3.8543283900e+01    0.1428747    0.1134054 -25.62 0.0003071883    1.594    0.373
       119  -9.5162    185.3704    118.8154   7.6385274107e+01   2.0234851678e+01     0.224428     0.146004 -28.44 0.0008972451    1.672    0.402
       120 -10.3339    113.2816    115.9526   9.2907229618e+01   3.6787142058e+01    0.3172959    0.2176889  38.89 0.0002333153    1.551    0.355
       121 -10.4701    107.7627    111.9707   9.3425228123e+01   3.8759704043e+01    0.4882541    0.3462442 -78.74  0.001604097    1.832    0.454
       122 -10.9152    102.6104    108.6502   9.4028918170e+01   4.0485761222e+01    0.6333248    0.5213375  -5.95  0.003176742    1.566    0.362
       123  -9.7492     66.9863    110.5075   1.0478359803e+02   4.5780460074e+01    0.2997293      0.21715  40.81  0.001611008    1.526    0.345
       124  -9.2662    126.8390    113.6899   8.8747715636e+01   3.4555577590e+01    0.2387282    0.1975045  22.53 0.0007239694    1.414    0.293
       125 -11.1346    170.5816    110.3410   7.7334599899e+01   2.5378489110e+01    0.5095007    0.4502411  26.06  0.001851234    1.213    0.175
       126  -9.3987     67.6627    114.3147   1.0537788533e+02   4.4783345834e+01    0.3364455    0.2324894  80.15  0.001658282    1.818    0.450
       127  -9.8303     48.7689    112.2085   1.1047997571e+02   4.7644333664e+01    0.2456617    0.1825429  35.81  0.001388308    1.554    0.357
       128 -11.3098     79.8468    108.2766   1.0049969196e+02   4.4435612314e+01    0.6815535    0.4245189  39.02  0.002579865    1.749    0.428
       129 -10.1743     90.6969    104.1662   9.6323748869e+01   4.3632895717e+01     0.470325    0.3260602  21.90  0.002204315    1.870    0.465
       130 -10.5149     85.8918    103.7163   9.7626582952e+01   4.4539179505e+01    0.4735177    0.3081598 -16.93   0.00119319    2.621    0.618
       131 -10.0416    120.6004    109.0613   8.9194522372e+01   3.6882049717e+01    0.3908637    0.2819408 -18.63  0.001700556    1.908    0.476
       132  -9.5618     58.5172    108.2821   1.0683549538e+02   4.7417562635e+01    0.2500207     0.122797 -65.55 0.0006619806    1.925    0.481
       133 -10.4681    157.6445    106.3407   7.9182583876e+01   2.9243027357e+01    0.4324579    0.3108371 -14.18   0.00149196    1.862    0.463
       134 -10.6354    143.3088    106.0141   8.2529807521e+01   3.2625598031e+01    0.3446608    0.3227951 -67.92   0.00162079    1.094    0.086
       135 -11.8959    145.4009    100.6243   8.0526607587e+01   3.3278213930e+01    0.5831409    0.5617865  52.73  0.002310934    1.052    0.049
       136  -9.3137     45.6606    105.9132   1.1023119887e+02   4.9478336866e+01    0.1826328    0.1415928 -66.45 0.0007005388    1.091    0.083
       137 -10.9752     89.8381     89.3338   9.2646239024e+01   4.7145522634e+01    0.7804163    0.3498497 -38.25  0.002896068    2.512    0.602
       138 -10.3701     58.5807    101.9473   1.0548284181e+02   4.8904986262e+01     0.542582    0.3398209 -34.46  0.002650284    1.915    0.478
       139 -10.1346     57.4820     97.9778   1.0494940645e+02   4.9972314011e+01    0.3018591    0.2605947   5.91  0.001599857    1.410    0.291
       140 -10.0648     81.3601     97.7559   9.7494428448e+01   4.6646484260e+01    0.2255623    0.1914836  53.76 0.0004306626    1.302    0.232
       141  -9.9239     77.2062     97.0870   9.8597128859e+01   4.7447373958e+01    0.3164481    0.2781228  21.36 0.0008565567    1.301    0.232
       142 -10.3560     64.6744     99.3802   1.0302522326e+02   4.8714416101e+01     0.261551    0.2319309  -0.34 0.0006346281    1.348    0.258
       143 -10.5541     68.6894     95.4667   1.0084196359e+02   4.9071437932e+01    0.3927126    0.3351755  26.50  0.001815424    1.343    0.256
       144 -10.9963     82.0176     92.7258   9.5983167936e+01   4.7690030903e+01    0.5221773    0.3916165  60.49  0.002122957    1.620    0.383
       145 -10.6596     76.7939     92.9889   9.7677005677e+01   4.8450006310e+01    0.3582571    0.2977116 -18.61 0.0006892311    1.386    0.278
       146  -9.1435     82.2291    102.7425   9.8476784988e+01   4.5355861109e+01    0.1934287     0.156781 -34.13 0.0004430913    1.317    0.241
       147  -9.3688     47.7673     90.9645   1.0648242161e+02   5.2743140409e+01    0.2584209    0.1753123 -56.59 0.0009831951    1.237    0.192
       148 -10.3479     52.0359     98.4027   1.0675096159e+02   5.0528885479e+01    0.6732388    0.1729752 -51.39  0.002347017    3.145    0.682
       149 -10.1317     51.0000     91.9405   1.0565288244e+02   5.2152069965e+01    0.3962099    0.1579411 -57.32  0.001677914    2.087    0.521
       150  -9.2919    120.8307    101.1827   8.7019497882e+01   3.8578937961e+01    0.2143455    0.1862572  -9.22 0.0006670635    1.336    0.251
       151  -9.9788    210.8392     97.5637   6.5990623481e+01   1.8139632842e+01    0.3725181    0.3119549  20.57  0.001883672    1.367    0.269
       152 -10.2668    117.5826     93.2040   8.5661502672e+01   4.0989574884e+01    0.5049929    0.3287783  35.11  0.001482325    1.712    0.416
       153 -10.3706    120.7999     89.4236   8.3673271130e+01   4.1115990052e+01    0.5375239    0.2753129  37.78   0.00205598    2.206    0.547
       154 -11.0717    120.8414     84.9449   8.2320585711e+01   4.2041638793e+01    0.4372176     0.322725  55.55  0.001673557    1.472    0.321
       155 -10.2478    126.0185     93.4963   8.3454276778e+01   3.9131179735e+01    0.3763607    0.3267047  46.65  0.001120889    1.183    0.155
       156 -10.2483    122.5057     93.5526   8.4415095492e+01   3.9876287766e+01    0.3455602    0.2420251 -42.87  0.001028686    1.387    0.279
       157  -9.4999    160.5639     93.8546   7.5026027865e+01   3.1053712481e+01    0.3793206    0.2245648  68.27  0.001411049    2.312    0.567
       158 -10.6293    152.6137     91.5165   7.6189758563e+01   3.3431929639e+01     0.653953    0.4441571  62.59  0.002711392    1.663    0.398
       159 -12.2200    102.0884     90.0313   8.9166430114e+01   4.4766641072e+01     0.561824    0.4652528 -32.55 0.0003862712    1.219    0.180
       160 -10.1367    105.0494     76.3836   8.4164131436e+01   4.7078901524e+01    0.4490581    0.3921834 -38.50  0.002404086    1.090    0.083
       161 -11.2100    113.5184     84.4672   8.4217099555e+01   4.3687511602e+01    0.6969564    0.3837308 -33.89  0.002272596    1.988    0.497
       162 -11.0948    109.2231     80.6755   8.4286268907e+01   4.5357049936e+01     0.429669    0.3591382 -13.97  0.001309846    1.326    0.246
       163  -9.7944     66.9248     88.4745   9.9644312371e+01   5.0920784278e+01    0.2733855    0.1968161 -30.43  0.001141859    1.534    0.348
       164  -9.2015    200.2593     87.9714   6.5312609527e+01   2.2365490059e+01    0.2211345    0.2009218 -38.09 0.0005943422    1.064    0.060
       165 -10.4619    183.3800     85.3713   6.7766730293e+01   2.7013713220e+01    0.7980363    0.2904075 -45.60  0.002518555    2.937    0.659
       166 -10.2059     94.2182     76.7701   8.7568867944e+01   4.9074200554e+01    0.5233628    0.3079612  37.03  0.001635997    1.844    0.458
       167 -10.1299    142.8604    249.1685   1.0896151289e+02   5.0331558967e+00    0.1862279    0.1354205  55.39   0.00109755    1.221    0.181
       168 -10.3869     98.9434     61.7403   8.1146929201e+01   5.1165589658e+01    0.5841693    0.3016047 -23.04  0.001917544    2.873    0.652
       169 -10.6093     67.3085     81.8168   9.7739380101e+01   5.2362766353e+01     1.053792    0.4022637 -53.93   0.00409514    2.386    0.581
       170 -11.7736     85.7742     73.6781   8.9268095791e+01   5.1223571196e+01    0.7074789    0.6641177 -23.75  0.003813368    1.037    0.036
       171 -10.8135     79.3743     67.6886   8.9452191968e+01   5.3538400156e+01    0.6037496    0.5499241  50.05  0.002957948    1.269    0.212
       172 -11.1304     78.9934     83.1149   9.4286188923e+01   5.0321466524e+01    0.7822965    0.5291833 -64.29  0.002435759    1.666    0.400
       173 -11.1606     72.8807     78.6908   9.5005861060e+01   5.2236976467e+01    0.6756234    0.3743914 -35.15  0.002999269    1.957    0.489
       174 -11.1034     91.3779     62.4659   8.3769432175e+01   5.2473179447e+01    0.4808873    0.3999108  67.90  0.001954932    1.557    0.358
       175 -11.7999     89.2557     57.6891   8.2780117398e+01   5.3771694742e+01    0.7563368    0.6306803   1.47  0.003048322    1.259    0.206
       176 -10.5401    165.6050     83.3583   7.0855936370e+01   3.1823829647e+01    0.4536904    0.3496263 -63.57  0.001409241    1.496    0.331
       177 -11.2721    142.9914     84.0644   7.6293326430e+01   3.7197006141e+01    0.4183272    0.3610356  38.85 0.0008530899    1.190    0.160
       178  -9.8369    128.7308     65.1175   7.3870342625e+01   4.4128131088e+01    0.4056794    0.2694218 -34.73  0.001832988    1.497    0.332
       179 -10.4489    127.7085     83.0352   7.9884666855e+01   4.0924222839e+01    0.4039931    0.2911924 -43.44  0.001872414    1.359    0.264
       180 -10.0166    127.0478     77.0190   7.8185374867e+01   4.2269296510e+01    0.3424657    0.2820574 -68.23  0.001012563    1.432    0.301
       181 -11.1374    123.7856     68.3734   7.6258381895e+01   4.4660345521e+01    0.4037226    0.3824507 -63.75  0.001195593    1.138    0.122
       182 -10.5400    119.9762     68.7709   7.7423886374e+01   4.5436025904e+01    0.3084045     0.277158 -14.40 0.0006006797    1.127    0.113
       183  -9.8045     60.1582     83.2524   1.0050813757e+02   5.3011993524e+01    0.2746322    0.2174002 -62.72 0.0008182717    1.218    0.179
       184 -10.7350     46.8812     74.4141   1.0274190213e+02   5.6580951989e+01    0.3333925    0.1789444 -50.62  0.001672361    1.542    0.352
       185 -13.1527     52.5950     73.6157   1.0050540855e+02   5.6094975634e+01    0.5268356    0.2976961 -57.35  0.001155042    1.615    0.381
       186 -10.7963     58.0996     77.8248   9.9749923653e+01   5.4486954917e+01    0.3443173    0.2463978 -61.61 0.0004271733    1.367    0.269
       187 -10.0916    123.7542     72.7795   7.7709527800e+01   4.3831741971e+01    0.4837545    0.3198488  73.65  0.001953668    2.308    0.567
       188 -10.2106    232.9079     77.8595   5.7408181089e+01   1.6232733536e+01    0.3958987    0.2086742 -33.16  0.001286639    1.764    0.433
       189 -11.8759     14.1281     74.5984   1.1442592879e+02   5.9395005836e+01    0.5367591    0.3541178 -60.43  0.002503041    1.164    0.141
       190  -9.5440      8.9725     76.2619   1.1653780399e+02   5.9341651952e+01    0.1635129    0.1243965 -58.99 0.0002250597    1.038    0.036
       191 -10.3535     14.0588     67.3065   1.1294562335e+02   6.1004724067e+01    0.3388398    0.2129165  13.58  0.002076793    2.014    0.503
       192  -9.2681    170.2329     77.8516   6.8243098196e+01   3.1671108454e+01    0.2403607    0.2147957 -72.41 0.0006989829    1.198    0.165
       193 -10.6001     53.3833     49.5400   9.2629272315e+01   6.0962085251e+01    0.4406319    0.3361142  83.05  0.002292774    2.439    0.590
       194 -10.6355     22.4060     36.8046   1.0107339830e+02   6.6682030838e+01    0.5027761    0.3633432  64.36  0.002577369    2.585    0.613
       195 -10.7055     34.2885     42.2942   9.7811357342e+01   6.4547002880e+01    0.7425128    0.3701906 -27.44  0.003580216    2.287    0.563
       196 -12.7079     43.2163     46.4045   9.5553666060e+01   6.2802044477e+01    0.7793382    0.6588354 -67.01  0.001663135    1.509    0.337
       197 -11.7369      2.0134     71.4213   1.1809607871e+02   6.0784137930e+01    0.6071433    0.1408667 -65.84   0.00249869    2.895    0.655
       198 -12.4867      6.5390     62.0908   1.1464327127e+02   6.2578232736e+01    0.7041665    0.4065912 -32.21  0.003117459    1.786    0.440
       199 -12.0619     21.1618     46.8608   1.0488164193e+02   6.4812732773e+01    0.4636853    0.3885584 -34.09 0.0009394419    1.101    0.091
       200 -11.0851     19.7814     55.1518   1.0781061785e+02   6.3214088257e+01     0.344549    0.3037658   5.11  0.001071064    1.346    0.257
       201 -11.5292     33.0479     58.8107   1.0357569600e+02   6.1347764572e+01    0.5244092    0.3032852  -4.64 0.0003133525    2.479    0.597
       202 -11.7430     27.3661     54.2292   1.0450429826e+02   6.2806660671e+01    0.8673353    0.5169231 -27.55  0.004354425    1.766    0.434
       203 -11.3462     41.0466     56.9870   9.9914630904e+01   6.0931318506e+01    0.4503645    0.3404258  64.03  0.002013482    2.018    0.504
       204 -11.4478     50.9516     61.1585   9.7434939397e+01   5.8945965923e+01    0.2937294    0.2896028  67.45 0.0004643715    1.253    0.202
       205 -11.5547     46.0762     58.1919   9.8349234543e+01   6.0130211971e+01    0.6076066    0.2787292 -42.00  0.001703885    1.899    0.473
       206  -9.6023    139.0197     77.4338   7.5235302813e+01   3.9422545386e+01    0.2374528    0.1523599  49.80 0.0003423903    1.572    0.364
       207  -9.8594    192.6472     65.6602   6.0412662322e+01   2.8035421204e+01     0.291561    0.2486337 -73.12 0.0007271479    1.239    0.193
       208 -12.0788    186.5592     70.5416   6.2903182095e+01   2.8788855880e+01    0.9643381    0.6576874 -36.14  0.003230725    1.438    0.305
       209 -10.0595    184.4602     61.9252   6.0758760784e+01   3.0736065442e+01    0.3265126    0.2637304 -44.52 0.0008218338    1.222    0.181
       210  -9.4553    241.9940     75.2646   5.5511363046e+01   1.4567934746e+01    0.1888409     0.180335 -59.36 0.0001741338    1.071    0.066
       211  -9.2526    137.9323     93.2308   8.0278112342e+01   3.6527451472e+01    0.2718989     0.184984  18.69  0.001082091    2.152    0.535
       212 -11.4990     40.8626     71.0126   1.0399725907e+02   5.7970786303e+01    0.5353657    0.2542563 -49.59  0.002594261    1.708    0.415
       213 -11.3163     32.5634     72.0736   1.0727375722e+02   5.8536261511e+01    0.4643779    0.2939425  27.17    0.0022463    1.887    0.470
       214  -9.3299    151.4345     73.5302   7.1039649875e+01   3.7150995253e+01    0.2912427    0.1357865  43.02  0.001032148    2.321    0.569
       215  -9.7882    162.2105     70.7673   6.7791800379e+01   3.4953871117e+01    0.3218825    0.2667853 -72.76  0.001055722    1.382    0.276
       216  -9.2148     20.1512     71.5654   1.1164694787e+02   5.9654642208e+01    0.1550138    0.1079023 -16.30 0.0009409476    1.735    0.424
       217  -9.9667    172.4831     68.5011   6.4982866439e+01   3.2732374137e+01     0.348972    0.2892164  15.75   0.00124555    1.429    0.300
       218 -10.1279    171.5691     65.5413   6.4265858243e+01   3.3464548635e+01    0.4507673    0.4191059 -15.35  0.002368216    1.132    0.117
       219  -9.4245    114.6533     69.7186   7.9220406832e+01   4.6414151313e+01     0.274471    0.1821149  34.61  0.001232676    1.645    0.392
       220 -11.4710    219.7242     66.4885   5.6359149409e+01   2.1132654788e+01    0.6418313    0.3756564  64.21   0.00220119    1.807    0.447
       221  -9.0885    208.2656     68.5730   5.8654916936e+01   2.3625938280e+01    0.2118745    0.1371652  49.23 0.0009498059    1.633    0.388
       222  -8.4681    111.6097     67.2764   7.9274215226e+01   4.7529588878e+01    0.1496227    0.1199513 -89.60 0.0006996272    1.733    0.423
       223 -10.9351     58.9606     63.6391   9.5266940374e+01   5.7414455496e+01    0.6466612    0.3796355 -58.70   0.00314018    1.839    0.456
       224  -9.3055     53.2870     66.0597   9.8075659373e+01   5.7635650353e+01    0.2915125    0.2027598  55.78  0.001536223    2.024    0.506
       225 -10.3879     25.9270     65.3889   1.0807002776e+02   6.0562984867e+01    0.2148573    0.1634831 -51.05 0.0003185536    1.043    0.042
       226 -10.5647     21.2428     65.3995   1.0983483262e+02   6.0923554913e+01    0.2757345    0.2143217 -83.25 0.0008241865    1.471    0.320
       227 -11.3607    234.2183     61.2397   5.3021224430e+01   1.8464029195e+01    0.6112562    0.4691305  84.96   0.00324449    1.420    0.296
       228  -9.1907    201.0331     64.2391   5.8609963197e+01   2.6128723226e+01    0.3494975       0.1552  57.20  0.001271262    2.229    0.551
       229  -9.3557    197.7132     62.3355   5.8612920937e+01   2.7271284622e+01    0.2792397    0.1531482  68.72 0.0008863831    2.026    0.506
       230 -10.0826    106.1837     63.8804   7.9703335432e+01   4.9304958833e+01    0.2648401    0.2495265   2.84  0.001481488    1.043    0.041
       231 -10.5427    105.3284     57.9230   7.7879911047e+01   5.0579112984e+01    0.4165306    0.3682597 -57.68  0.002268613    1.289    0.224
       232 -10.4943    159.3256     61.9133   6.5637938154e+01   3.7199127373e+01    0.5027165    0.2836941  42.14  0.002019751    1.914    0.478
       233  -8.9952    213.3241    248.3523   9.6429481129e+01  -5.9848092160e+00    0.1207479   0.07413369  14.23 4.556624e-05    1.758    0.431
       234 -11.3628    113.6470     49.5109   7.2459940762e+01   5.0244274708e+01    0.7087122    0.3734857  34.34  0.002317419    2.237    0.553
       235  -9.6695    175.1417    246.8430   1.0290983860e+02   1.9334909595e-01    0.1844713    0.1414872  48.83  0.001246163    1.229    0.187
       236 -12.5541    119.8775     38.1301   6.6574338727e+01   5.0580738001e+01     0.744193    0.5622532  82.80  0.002193735    1.794    0.443
       237  -9.6079    147.2010     60.8887   6.7968254230e+01   4.0421113066e+01    0.3608526    0.1986169  53.41  0.001229726    1.788    0.441
       238  -9.5030    132.0005     45.5052   6.6274415477e+01   4.6619528603e+01    0.3562364    0.1949806  44.98  0.000974196    1.802    0.445
       239 -11.0793    140.1650     43.5290   6.3688720961e+01   4.4912873761e+01    0.8729893    0.4506153  32.57  0.002441452    2.631    0.620
       240 -10.7838    136.5054     56.4813   6.9007258304e+01   4.3784074368e+01     0.800494    0.5111916  21.71  0.002978188    2.196    0.545
       241 -10.3995    134.4597     50.2677   6.7360776963e+01   4.5287309174e+01     0.463142    0.3451767 -87.26  0.002115958    1.864    0.464
       242 -11.6388    145.9796     47.3387   6.3717332031e+01   4.2893359108e+01    0.9077665    0.4525009 -20.95  0.003378604    2.518    0.603
       243 -10.4134    146.3602     43.1762   6.2216005438e+01   4.3412141441e+01    0.2867582    0.2749432  46.34 0.0003965819    1.009    0.009
       244  -9.0771    161.8064     47.8478   6.0627748757e+01   3.8776297838e+01    0.3151803    0.2128606 -56.24 0.0006429233    1.707    0.414
       245  -9.7867    162.5687     43.8714   5.9195634998e+01   3.9157440955e+01    0.3858428    0.2586949  62.36  0.001782515    1.460    0.315
       246 -11.3820    155.9706     41.9740   5.9845162123e+01   4.1132131204e+01    0.4633053      0.38952 -45.42 0.0009331614    1.234    0.190
       247 -11.3007    153.0865     36.0541   5.8426657739e+01   4.2686661769e+01    0.3271864    0.2847638 -56.31  0.000411205    1.229    0.187
       248 -11.1685    157.2749     55.2401   6.3930937044e+01   3.8806614699e+01     0.666317    0.5160288  72.05  0.003211519    1.392    0.282
       249 -10.9309    155.6420     49.9580   6.2547524409e+01   4.0045062170e+01    0.4509342    0.3412092  -6.31 0.0008008414    1.583    0.368
       250  -8.5525    219.6671     57.2928   5.3930599874e+01   2.2538754061e+01    0.1532544    0.1043574 -66.12 0.0006105113    1.635    0.388
       251 -10.3105    187.9873     55.7678   5.8330497630e+01   3.0786652402e+01    0.2702049    0.2534077  51.37 0.0004657919    1.101    0.092
       252 -10.0845     67.0343     54.7364   8.9356231733e+01   5.8052847633e+01     0.334111    0.1868537 -50.35 0.0008190182    1.798    0.444
       253  -9.2104      2.0565     56.4353   1.1516466177e+02   6.4013042865e+01    0.1377245    0.1113399  -0.42 0.0003481787    1.525    0.344
       254  -9.6047    234.4268     45.1607   4.8939694849e+01   2.0706737669e+01    0.3133137    0.1824838 -65.38  0.001198947    1.955    0.488
       255  -9.8594    248.9793     52.9910   4.9226413585e+01   1.6266642381e+01    0.3068327    0.1663378 -62.11  0.001118105    2.142    0.533
       256  -9.8119    244.8627     51.1319   4.9234450602e+01   1.7456150206e+01    0.2372333    0.2012687  77.44 0.0006414013    1.238    0.192
       257  -9.3769    238.1727     54.4097   5.0815622659e+01   1.8532992831e+01    0.2427285    0.1849083 -62.26  0.001304327    1.282    0.220
       258 -10.8532    240.2043     50.1983   4.9532759567e+01   1.8656332437e+01    0.4050858    0.3514228 -42.47  0.001368123    1.090    0.083
       259  -9.5604     66.2345     28.2683   7.9199417402e+01   6.2753592851e+01    0.3002741    0.1730285  23.19  0.001476651    1.991    0.498
       260  -9.9720     68.3557     32.8697   8.0390170430e+01   6.1695908388e+01    0.4606397    0.3139515  37.87  0.002378504    1.537    0.349
       261  -9.4641    199.0239    244.5343   9.8358968760e+01  -3.3158003354e+00    0.1888779   0.09361931  40.30  0.001035028    1.608    0.378
       262 -11.1896    127.5596    242.5697   1.1096028168e+02   8.4544353890e+00    0.3270187    0.2175213 -77.72   0.00199806    1.973    0.493
       263 -11.7174     60.5156     36.1509   8.4723632374e+01   6.2386872902e+01    0.3806673    0.2320003 -33.61  0.001052768    1.465    0.317
       264 -11.5840     56.8345     31.0498   8.4033181542e+01   6.3770698994e+01    0.3591377    0.2740944  15.84  0.001460409    1.306    0.235
       265 -11.5123     48.7025     30.5011   8.7114463317e+01   6.4989991251e+01    0.6005126    0.2704375  27.71  0.002214559    2.579    0.612
       266  -9.7761    211.0738     53.0559   5.3989649823e+01   2.5294401403e+01    0.3259296    0.2118514  71.93  0.001089957    1.616    0.381
       267  -9.8063    204.0493     52.4344   5.4834917529e+01   2.7160061047e+01    0.5558364    0.1800125  58.92  0.001880598    2.913    0.657
       268 -11.1016    201.7218     46.9287   5.3630554172e+01   2.8548384577e+01    0.6734999    0.4812477 -51.07  0.003312087    1.383    0.277
       269 -10.0644    176.8341     43.6100   5.6557287166e+01   3.5475924610e+01     0.441724     0.250286  56.26   0.00190421    1.687    0.407
       270 -10.1280     90.8411     47.4551   7.8501555823e+01   5.5304443749e+01    0.2825628    0.2271215 -32.07 0.0005865509    1.186    0.157
       271  -9.6227      2.3030     48.7818   1.1332736382e+02   6.5600823633e+01    0.2190671    0.1933752 -15.13  0.001696071    1.324    0.245
       272  -9.3108      2.7729     44.9717   1.1218723096e+02   6.6358702779e+01    0.2127279    0.1269059 -26.08 0.0009859595    1.713    0.416
       273  -8.8452      6.0115     42.6905   1.1018701558e+02   6.6650892638e+01    0.2461115    0.2226513 -83.95  0.001875134    1.401    0.286
       274  -9.0375      4.3162     39.6621   1.1009315839e+02   6.7348066710e+01    0.1263014     0.114452  36.40 0.0007514569    1.498    0.332
       275 -10.2739     14.2016     46.1971   1.0764078383e+02   6.5446417273e+01    0.4151317    0.1612998 -30.41  0.001818443    3.179    0.685
       276 -10.0177     17.8544     41.7610   1.0473371695e+02   6.6077682227e+01    0.3823254    0.1966474 -24.68  0.002030916    2.183    0.542
       277 -10.8121    174.1157     47.9419   5.8368535161e+01   3.5564010410e+01    0.5590423    0.4295492  86.34  0.002436146    1.444    0.307
       278  -9.6660    193.9179     46.2859   5.4607680159e+01   3.0648388391e+01    0.4625095    0.2268287 -88.95  0.001395722    4.121    0.757
       279 -11.2818     95.8725     41.7788   7.4728766938e+01   5.5251660710e+01    0.8654492    0.4059301  56.33   0.00324385    2.748    0.636
       280 -11.0631    189.0995     40.8720   5.3759517058e+01   3.2653274544e+01    0.5859478     0.247003 -27.25  0.001697427    2.542    0.607
       281  -9.1574    163.8066    243.5946   1.0451545137e+02   2.4694882284e+00    0.1745724   0.09103794  48.54 0.0007119611    1.655    0.396
       282 -10.9407     77.4404     34.2114   7.7701470869e+01   5.9934334709e+01    0.4059515    0.2622204  43.54 0.0009337862    1.632    0.387
       283 -10.2884     81.6847     31.6495   7.5178733958e+01   5.9551888914e+01    0.4194813    0.3340506 -49.13  0.002278255    1.553    0.356
       284 -10.4303    232.2238     39.7911   4.7837962056e+01   2.1956437284e+01    0.4702491    0.2536066 -73.07  0.001631145    2.407    0.585
       285  -8.9368    217.6880     39.2999   4.9409925283e+01   2.5565880225e+01    0.1502207   0.09861518 -64.07 0.0003226217    1.605    0.377
       286 -11.3867    176.2366     35.8864   5.4271032897e+01   3.6683151538e+01    0.7022527    0.5119245 -81.03  0.002410002    1.568    0.362
       287  -9.6329     68.0600    240.4815   1.2134805325e+02   1.7537549140e+01    0.1670887   0.09011835  44.75  0.001022366    1.565    0.361
       288 -10.7651    176.8274     29.7825   5.2291270901e+01   3.7306955936e+01    0.4462182    0.2493473  56.20  0.001478489    1.682    0.405
       289  -8.4901    221.3201    239.6797   9.3746482351e+01  -6.2006236678e+00    0.1042093   0.08833509  54.72 0.0007043576    1.667    0.400
       290  -9.6732    132.9548     36.7897   6.2923404479e+01   4.7648568101e+01    0.3648121    0.2350616 -60.88  0.001567625    2.175    0.540
       291  -9.6833    206.8160     37.0134   5.0163823492e+01   2.8604493959e+01    0.2456224    0.2031749  73.85 0.0006968777    1.180    0.153
       292 -11.1174    138.6134     33.0578   6.0331061565e+01   4.6751420409e+01    0.5235106    0.4727822 -89.69  0.001643479    1.224    0.183
       293  -9.2354     94.3998     36.0951   7.2927098963e+01   5.6425702806e+01    0.2511012     0.187066  68.98   0.00126602    1.879    0.468
       294  -9.7086      6.0594     36.0281   1.0824717720e+02   6.7968635286e+01    0.5356507    0.2474453  16.61  0.003038655    2.602    0.616
       295 -10.8421    149.4248    238.0986   1.0643052444e+02   5.6225020507e+00    0.3268488    0.1981713  34.79  0.001877114    1.521    0.343
       296  -8.3323      6.7000     30.6674   1.0625507899e+02   6.8962757663e+01    0.6039194    0.2917368 -13.73  0.003229192    2.617    0.618
       297 -11.7201     26.2789     28.0805   9.6036365282e+01   6.7940336776e+01    0.4569381    0.4012508   9.40   0.00250053    1.321    0.243
       298  -9.8414    167.5971    237.7719   1.0305110297e+02   2.6770627755e+00    0.1435283    0.1183409 -66.47 0.0009497402    1.628    0.386
       299 -10.8662    198.3673    232.6187   9.6706013028e+01  -1.6863899054e+00    0.3538183    0.3064945  22.19  0.002482283    1.100    0.091
       300  -9.4722     23.7384    231.7341   1.2827401387e+02   2.4442918950e+01    0.1526909   0.08464307  65.67  0.001041248    1.335    0.251
       301  -9.7925    247.4731    231.1245   8.7934941420e+01  -9.1362765975e+00    0.1572098    0.1025596 -21.43 0.0006845371    1.548    0.354
       302 -11.4307    240.2112     31.8192   4.5027727886e+01   2.1108815826e+01    0.5782475    0.4349598 -31.21  0.003263066    1.349    0.259
       303 -10.0123    148.4521     32.9817   5.8285103841e+01   4.4277161127e+01    0.4569833    0.2661297 -15.80  0.001325408    2.063    0.515
       304 -10.4012    242.5358    231.0294   8.8744071428e+01  -8.4029330341e+00     0.236829    0.1360793  50.59  0.001278633    2.448    0.592
       305  -9.0411    108.0000    230.0439   1.1317901537e+02   1.3595254304e+01    0.1692414   0.06795083 -60.54 0.0007342051    2.883    0.653
       306 -12.2004    114.9768     24.8364   6.2682501336e+01   5.3482674848e+01     0.667639    0.3120202  53.56  0.001704836    1.987    0.497
       307  -9.8259     15.0536    233.6402   1.2978235376e+02   2.5013108226e+01    0.2002996    0.1198848  87.78  0.001044204    1.337    0.252
       308 -10.2057    157.1041     20.4779   5.2463048922e+01   4.3548564014e+01    0.5248135    0.2518348  62.73  0.002204789    1.896    0.473
       309  -9.9710    234.3402    222.9474   8.8783281909e+01  -6.2196400512e+00    0.1688811    0.1331529   7.35 0.0007011299    1.090    0.083
       310  -9.2248      9.8302    217.8060   1.2987198971e+02   2.8441952950e+01    0.1537774   0.08631574  71.35 0.0005142034    1.317    0.241
       311 -10.3764    165.4562    212.5349   9.9778742856e+01   6.9190034710e+00    0.2774874    0.1827606  58.49  0.001056759    1.694    0.410
       312  -9.6426    153.0627    207.8372   1.0149958990e+02   9.9211293950e+00    0.2078938    0.1646465  60.46 0.0009327047    1.277    0.217
       313  -9.6396     61.0106    206.9665   1.1982471962e+02   2.4736901631e+01    0.1853233    0.1402646  71.18 0.0004769144    1.043    0.041
       314  -9.8573    238.6495    204.6598   8.4811599757e+01  -4.6070883034e+00    0.2510085    0.1454228 -35.62    0.0013777    1.862    0.463
       315 -10.9092    198.2413     29.0311   4.9045367083e+01   3.1822145546e+01    0.4785078    0.4171282 -33.95  0.001899653    1.198    0.166
       316  -9.7094    199.7714     24.9851   4.7710448696e+01   3.1920117560e+01    0.2778017    0.2162082 -23.53  0.000717627    1.414    0.293
       317  -9.0861    216.6231     32.1998   4.7654624663e+01   2.6757627959e+01    0.1822596    0.1346741 -17.83 0.0004343879    1.582    0.368
       318  -9.5932    221.7038     29.6516   4.6411944560e+01   2.5820913047e+01    0.2760458    0.1871843 -24.58 0.0008470876    1.609    0.379
       319 -10.4955    189.2759     27.9805   4.9939190183e+01   3.4274706785e+01    0.4479166    0.3021832  -1.48  0.001845073    2.038    0.509
       320  -9.2890     35.8543     31.3140   9.2986135407e+01   6.6399341688e+01    0.1659775     0.152918  41.69  0.001155219    1.519    0.342
       321 -10.3712    230.5733     27.2733   4.4871302922e+01   2.3959699125e+01    0.4461712    0.2018673 -36.64  0.001726455    1.981    0.495
       322  -9.4880     99.6393     30.3110   6.9011704025e+01   5.6172641698e+01    0.2732556    0.1992136  75.03  0.001344707    2.000    0.500
       323  -9.9174     98.1960     26.8332   6.7997328869e+01   5.6944682154e+01    0.2585653     0.222046 -12.26 0.0007233825    1.124    0.110
       324  -9.1839     41.1410     28.3643   8.9436088266e+01   6.6299878301e+01    0.3649079    0.1208664 -34.66  0.001440956    3.059    0.673
       325  -9.8813    250.5688     26.6835   4.2843628960e+01   1.9379747315e+01    0.2550251    0.1145426 -32.88 0.0005855135    2.032    0.508
       326 -10.1560      4.3177    204.7378   1.3016317528e+02   3.1467686861e+01    0.2090385    0.1088425 -76.23  0.001371141    1.652    0.395
       327  -9.9851     86.0618     23.9419   7.0445542675e+01   5.9795411583e+01    0.1958903    0.1687309   8.98  0.001182356    1.028    0.027
       328 -10.6933    245.6442    200.8870   8.2913764339e+01  -5.2433673707e+00     0.217199    0.1463401  23.83 0.0006917508    1.318    0.242
       329  -8.9253    207.4658    201.4697   8.9844264975e+01   1.1373045182e+00    0.1324005    0.1119038  19.97 0.0001679996    1.026    0.025
       330 -10.1337     81.1782     19.2987   6.9960624755e+01   6.1338312835e+01    0.3661193    0.2005736  43.41  0.001136309    1.744    0.427
       331  -8.5243      1.3112    200.3031   1.3046826132e+02   3.2607108217e+01   0.09371565   0.07171694 -66.63 0.0004325711    1.610    0.379
       332  -9.0877     55.5276     24.8913   8.1858038352e+01   6.4928599223e+01     0.184715    0.1102437 -34.21 0.0003036778    1.513    0.339
       333  -9.8973    161.5236     23.4744   5.2721051177e+01   4.2062160903e+01     0.238731    0.2296933  66.84  8.31844e-06    1.028    0.027
       334 -10.4960    242.3952     22.2714   4.2530895789e+01   2.1781484378e+01    0.2671953    0.1975002  81.97 0.0006397794    1.326    0.246
       335 -10.4287    234.4530    196.8655   8.4095470018e+01  -2.8762797064e+00     0.416419    0.2686259  18.84  0.001681796    1.538    0.350
       336 -10.4058     47.1335     19.3508   8.2798045275e+01   6.6952740002e+01    0.3072578    0.2618354  -9.58  0.001440939    1.110    0.099
       337  -8.7108     83.6167    196.1488   1.1415356461e+02   2.3779019168e+01    0.1609358    0.1111353 -59.14 0.0004738059    1.584    0.369
       338 -12.0497      4.8054    184.4711   1.2896490265e+02   3.5496326830e+01    0.5693243    0.3799284  73.69  0.003185361    1.145    0.126
       339  -8.9478    250.5122    192.4703   8.0497910767e+01  -4.9299239791e+00    0.1271548    0.1030908   5.16 0.0002097084    1.008    0.008
       340  -9.4318    223.0558     22.4556   4.4417469457e+01   2.6367514153e+01    0.2260891    0.1646834 -64.48 0.0006286212    1.295    0.228
       341  -9.1256    221.0864     19.1717   4.3776645358e+01   2.7236429935e+01    0.1830004    0.1584017 -78.33   0.00108588    1.035    0.034
       342  -9.8564    169.7827    191.4032   9.5399816901e+01   9.7255240387e+00    0.3558301    0.1837471  32.98  0.001002309    2.074    0.518
       343  -9.9937    239.8993    184.6420   8.0785838547e+01  -2.1030897421e+00    0.2175269     0.160425 -11.80 0.0005960954    1.280    0.218
       344 -10.0909    250.2278    179.6544   7.8031954656e+01  -3.1573845378e+00    0.3484171    0.1578642 -25.00  0.001565518    2.297    0.565
       345  -9.7672     74.5065     19.5386   7.2304962869e+01   6.2552262236e+01     0.248041    0.1806083  12.02 0.0008126276    1.337    0.252
       346 -11.5574    120.8094     57.5480   7.3377600659e+01   4.7284635714e+01     1.267073    0.7938759  53.21  0.005694127    1.655    0.396
       347  -9.7783    213.5049    180.5130   8.4733820103e+01   3.2508211608e+00    0.1383924    0.1201482  12.61 0.0006051442    1.038    0.037
       348  -9.5290     27.9272    176.3298   1.2377480180e+02   3.5043379921e+01    0.2343784    0.1466996 -74.40  0.001463461    1.374    0.272
       349 -10.0248     51.9578    173.5760   1.1835885286e+02   3.2949919408e+01    0.3717917     0.165374 -85.38  0.001610789    2.623    0.619
       350  -9.0438    230.4446    175.4850   8.0614083298e+01   9.0059012413e-01    0.1354019    0.1169632   4.52 7.705013e-05    1.013    0.013
       351  -8.8877    224.6637    175.6749   8.1695366154e+01   1.9305591075e+00    0.1438763   0.09709954   8.57 0.0007051339    1.718    0.418
       352  -8.8469     57.4756    174.9737   1.1729978742e+02   3.1949318265e+01    0.1818334    0.1098792 -73.72 0.0004791288    1.493    0.330
       353  -9.8993    247.1186    174.0093   7.7414101513e+01  -1.8369283934e+00    0.3988715    0.1511032  31.44  0.001463589    3.470    0.712
       354  -8.4072      1.4734     20.5605   1.0534017278e+02   7.1133339041e+01    0.1138832   0.07949989 -37.17 0.0001818309    1.054    0.052
       355  -9.9882    211.3710     18.8243   4.4691199399e+01   2.9691277326e+01    0.2315685     0.199837  67.62 0.0002655057    1.175    0.149
       356  -9.7517     39.4280    173.7331   1.2110312585e+02   3.4381934568e+01     0.212352    0.1312947 -68.44  0.000834925    1.469    0.319
       357  -9.2355    194.5916     18.8037   4.6598308470e+01   3.3970956768e+01    0.2172348    0.1820293  80.35 0.0004905969    1.109    0.098
       358 -10.3363     35.4869    170.4516   1.2163908664e+02   3.5538094336e+01    0.4040571    0.1834286  84.55  0.001858557    2.486    0.598
       359 -11.6759      9.6820    166.6571   1.2681831737e+02   3.8850201941e+01    0.5380146    0.3085254 -75.57  0.002370929    1.407    0.289
       360  -9.5096    205.2256     17.3790   4.4970497689e+01   3.1407343571e+01    0.1980931    0.1225415  86.76 0.0006115122    1.641    0.391
       361 -10.5047    186.1559     15.2368   4.6607728736e+01   3.6546960700e+01    0.2835584    0.2248697  67.68 0.0003771506    1.175    0.149
       362  -9.0047    174.2638     15.8012   4.8345119374e+01   3.9584806252e+01    0.1934443    0.1509326  45.67 0.0005822754    1.320    0.242
       363 -10.6607     13.9505    158.8139   1.2529582102e+02   4.0203533114e+01    0.3601927    0.1750063 -78.03  0.001400571    1.632    0.387
       364  -8.9446    197.7788    167.9987   8.5219355729e+01   8.3766684054e+00    0.1835425    0.1156164 -37.55 0.0007058461    1.640    0.390
       365  -9.5250    219.8447     12.5615   4.2210132746e+01   2.8287804488e+01    0.3357688    0.1268973  76.17  0.001310429    2.673    0.626
       366 -10.0698    188.6048    165.0442   8.6444775429e+01   1.0756560139e+01    0.4912765    0.2411229 -27.41  0.001826266    2.840    0.648
       367 -10.1318     18.7340    165.0202   1.2477299699e+02   3.8407540550e+01    0.2473069    0.2247227 -41.85  0.001575342    1.577    0.366
       368  -9.8899    205.1044    163.0180   8.2733677126e+01   7.7699134261e+00    0.2692264    0.2187452  23.63 0.0006330151    1.207    0.171
       369  -9.5001    208.4513    160.4863   8.1544532859e+01   7.5314491101e+00    0.2400396    0.1819167 -22.67 0.0009736259    1.346    0.257
       370  -9.5581     40.2614    162.9725   1.1982369126e+02   3.6690274051e+01    0.3831825    0.1340277 -76.51  0.001567068    2.832    0.647
       371 -10.2624     28.1925    162.6191   1.2249408127e+02   3.8035985745e+01     0.361063    0.1422954 -71.53  0.001759236    2.083    0.520
       372  -9.4158     79.3884    160.2990   1.1034258444e+02   3.2242171389e+01    0.2542099    0.1616326 -77.98  0.001281944    1.585    0.369
       373 -10.1450    246.4566    158.7505   7.4338391009e+01   5.1164869393e-01    0.3337119    0.1229949 -31.33  0.001301919    2.628    0.620
       374  -9.6366    215.2890    158.3524   7.9784004343e+01   6.5226196660e+00    0.2652223     0.166022 -23.95 0.0008835096    1.717    0.418
       375  -9.2603    223.9789    156.9411   7.7871109500e+01   5.0369190737e+00    0.1729749    0.1546163  -6.79 0.0006099237    1.029    0.028
       376 -10.4320    104.6526    154.3752   1.0326296941e+02   2.9521821075e+01     0.439746    0.3241357 -71.19  0.002266861    1.371    0.271
       377 -10.0835      8.9779    156.3399   1.2618361796e+02   4.1166539709e+01    0.2723005    0.1169032 -67.88  0.001473263    1.881    0.468
       378 -10.1371     33.6547    154.3200   1.2041361230e+02   3.9360305024e+01    0.5631883    0.2193906 -88.15  0.002175495    3.360    0.702
       379 -10.5286     30.5122    153.5277   1.2106125683e+02   3.9858460585e+01    0.4062579     0.165159 -77.72  0.001884827    2.201    0.546
       380 -11.2548     11.0044    127.3560   1.2304378869e+02   4.7550366747e+01    0.5131635     0.229377 -63.71   0.00108242    1.759    0.432
       381 -12.2581     22.7654    149.3720   1.2244226177e+02   4.1543115540e+01    0.5494914    0.3267595 -36.86  0.002721115    2.670    0.626
       382 -10.5346     15.2323    147.8422   1.2404774290e+02   4.2548840907e+01    0.3347251    0.2235786  51.56  0.001630857    1.530    0.347
       383 -12.0097     12.8068    139.8445   1.2386332384e+02   4.4559362909e+01    0.8755136    0.3970292 -86.47  0.003775152    1.985    0.496
       384 -11.1046     62.9279    150.1053   1.1283744549e+02   3.6916220282e+01    0.4296759    0.3754631  70.64  0.001574716    1.119    0.106
       385 -10.4381     70.7365    151.5762   1.1112810673e+02   3.5510934584e+01    0.3305311    0.2017176  50.17  0.001122644    1.641    0.390
       386 -11.8875      3.7843    147.1099   1.2660309515e+02   4.3614696668e+01    0.6910713    0.3817014 -85.34  0.003827032    1.406    0.289
       387 -10.9310      5.3606    141.9635   1.2581538578e+02   4.4648064928e+01    0.2702359    0.2263013  84.78  0.001096511    1.150    0.131
       388 -12.9067      3.9307    137.0923   1.2572866961e+02   4.5845426427e+01    0.3420497     0.197838 -68.01 0.0005293213    1.403    0.287
       389  -9.1405     42.4825    148.5071   1.1763942686e+02   3.9761020107e+01    0.2042346    0.1708947  22.54   0.00130182    1.593    0.372
       390 -11.1545     46.9673    146.7139   1.1631251194e+02   3.9674930341e+01     0.650294    0.2699448 -68.45  0.002948553    2.079    0.519
       391  -9.6853    239.8516    146.7029   7.2825917225e+01   3.5969009765e+00     0.233563    0.1769759 -16.16  0.000620022    1.264    0.209
       392 -10.7304    249.4295    141.9627   7.0188772856e+01   2.5153850799e+00    0.4586665    0.2531841 -26.83  0.002163419    1.721    0.419
