#   1 NUMBER                 Running object number                                     
#   2 MAG_AUTO               Kron-like elliptical aperture magnitude                    [mag]
#   3 X_IMAGE                Object position along x                                    [pixel]
#   4 Y_IMAGE                Object position along y                                    [pixel]
#   5 X_WORLD                Barycenter position along world x axis                     [deg]
#   6 Y_WORLD                Barycenter position along world y axis                     [deg]
#   7 A_WORLD                Profile RMS along major axis (world units)                 [deg]
#   8 B_WORLD                Profile RMS along minor axis (world units)                 [deg]
#   9 THETA_WORLD            Position angle (CCW/world-x)                               [deg]
#  10 FWHM_WORLD             FWHM assuming a gaussian core                              [deg]
#  11 ELONGATION             A_IMAGE/B_IMAGE                                           
#  12 ELLIPTICITY            1 - B_IMAGE/A_IMAGE                                       
         1  -7.0377    111.7804     12.0424   4.6977411519e+01   5.4731325737e+01    0.1492663    0.1059792 -24.00 0.0004531005    1.613    0.380
         2  -8.3483    166.2099      4.5929   3.6085503359e+01   4.2656373600e+01    0.2034737    0.1739766  53.60 0.0003185617    1.277    0.217
         3  -7.5548    234.8855    245.8833   7.7894326942e+01  -9.5859462794e+00    0.1770392    0.1206232  -2.20 0.0003269362    1.267    0.211
         4  -8.3416    195.9365    250.6096   8.5830490054e+01  -5.1899815995e+00    0.1733567   0.09909242  30.19  0.000332262    1.498    0.332
         5  -7.7109      3.4456    243.6990   1.2378928671e+02   2.1815463216e+01    0.1566056    0.1398231   0.12  0.001193189    1.803    0.445
         6  -7.3581    106.3214    242.6676   1.0312032823e+02   9.3256003295e+00     0.134158   0.08639083  61.58 0.0007049611    1.700    0.412
         7  -8.2375      6.1716    236.6150   1.2295884576e+02   2.2961208342e+01    0.1360247    0.1031989  26.16 0.0009439071    1.696    0.410
         8  -9.2146    195.0911    233.5878   8.3345779083e+01  -2.4914535374e+00    0.2800258     0.255087 -86.03  0.001136135    1.723    0.420
         9 -10.4460    215.1658    227.7118   7.8513435990e+01  -4.4386277914e+00    0.2263985    0.1927859 -13.65  0.000433395    1.144    0.126
        10  -8.4677    185.4481    218.6224   8.2811095848e+01   1.4355314877e+00    0.2269828    0.2129811 -22.76 0.0002607699    1.196    0.164
        11  -9.1599    183.2877    227.7227   8.4758659040e+01   2.1856124171e-01    0.3193196    0.2009513  37.13  0.001007638    1.486    0.327
        12  -9.1714    184.4927    223.2826   8.3785838332e+01   7.8415301198e-01    0.2315048    0.2054724  19.66  0.000254257    1.092    0.085
        13  -7.4334    209.8422    226.1735   7.9263242267e+01  -3.4525270692e+00    0.1761682    0.1281682   0.45 0.0003828598    1.307    0.235
        14  -6.9074     74.6873    224.2573   1.0794090598e+02   1.7570272304e+01    0.1333581   0.08392523  59.74 0.0002401867    1.529    0.346
        15  -7.4847    105.4960    221.5054   1.0071571070e+02   1.3654161068e+01    0.2057245     0.121081 -46.95  0.000538348    1.985    0.496
        16  -7.2625    195.2024    219.2479   8.0946805361e+01  -1.7619809726e-01    0.1558165    0.1515055  39.19 0.0002959037    1.330    0.248
        17  -7.7087    212.1894    215.8705   7.7048995919e+01  -2.1609939820e+00    0.1768972    0.1606108   1.71 0.0002209829    1.164    0.141
        18 -10.2038    152.0102    212.5555   8.8926182699e+01   7.9665452006e+00    0.2435225    0.2280377 -24.20  0.001479804    1.129    0.114
        19  -8.8426    104.0514    208.2648   9.9265457090e+01   1.6702830220e+01    0.2235487    0.2112065 -89.95 0.0002451553    1.096    0.088
        20  -7.5142     41.9718    207.7075   1.1363478446e+02   2.5391373941e+01    0.1772357    0.1436084  58.74  0.000392367    1.104    0.094
        21  -8.7716    174.7725    198.0666   8.1443555190e+01   6.9348278229e+00    0.2228918    0.1999887  33.38 0.0002625328    1.125    0.111
        22  -7.8979    160.1717    195.6282   8.4202625179e+01   9.9381071178e+00    0.2989061    0.1839263 -56.71 0.0008239321    1.925    0.480
        23  -6.7588     44.4660    197.4484   1.1209581834e+02   2.7461116421e+01    0.1283958    0.1140256  82.67 0.0008064709    1.069    0.064
        24  -9.4669     36.2800    196.0561   1.1388273514e+02   2.8715563885e+01    0.2210779    0.2106415  60.44 0.0003575609    1.216    0.178
        25  -6.9279     14.3605    196.2836   1.1890596691e+02   3.0878839927e+01    0.1142776   0.08815864 -45.21 0.0007018681    1.678    0.404
        26  -7.4043     83.4357    185.7002   1.0109016664e+02   2.5058337930e+01     0.182092    0.1299072 -53.19  0.000326494    1.462    0.316
        27  -7.9341    101.9254    184.8715   9.6282633912e+01   2.2359030837e+01    0.2090707    0.1943876 -12.49 0.0004125916    1.241    0.194
        28  -7.5059    107.7304    181.2608   9.4222125571e+01   2.2246071691e+01    0.1923528    0.1694749 -15.65  0.000373925    1.344    0.256
        29  -9.0034     38.4779    180.3833   1.1180495683e+02   3.2205293029e+01    0.2262018    0.2108985 -68.08   0.00028542    1.194    0.162
        30  -6.7658    195.6730    176.2434   7.2892696352e+01   7.4870956298e+00    0.1283877    0.1118867  73.30 0.0002902929    1.534    0.348
        31 -10.3767    100.9934    175.9996   9.5061852466e+01   2.4617708989e+01      0.20693    0.1971595  70.96  0.001162238    1.004    0.003
        32  -7.5130    134.0705    167.3404   8.5022913935e+01   2.0799404863e+01    0.2081276    0.1806431  43.35 0.0001822038    1.136    0.120
        33  -6.8732     62.5003    162.4397   1.0320632302e+02   3.3745242080e+01    0.1433414    0.1276765  81.09 5.046585e-06    1.067    0.063
        34  -7.0109    226.7042    149.3397   6.1574980416e+01   7.0090349629e+00    0.1333595    0.1034374 -65.65 0.0003411253    1.657    0.396
        35  -9.8633    181.2538    145.1214   6.9319253083e+01   1.6390827001e+01    0.2594213    0.2452941 -51.09 0.0002495473    1.078    0.072
        36  -8.6673    124.9216    142.6490   8.2207484710e+01   2.8304976446e+01    0.2623696    0.2314246 -30.24 0.0003452032    1.204    0.169
        37  -8.1918    186.6830    142.0692   6.7509015788e+01   1.5923493258e+01    0.2583878    0.2156775  34.70 0.0005877092    1.262    0.208
        38  -7.8874     87.8984    133.8150   9.0720521438e+01   3.7170459571e+01    0.2261129    0.1940153 -28.88 0.0004913826    1.275    0.216
        39  -7.4374    118.7800    126.0462   8.0040022545e+01   3.3411281900e+01     0.226284    0.1728341  66.93 0.0005415531    1.576    0.366
        40  -7.3046     88.4968    124.5571   8.8510983504e+01   3.9346284586e+01    0.1496198    0.1442801 -42.15 9.404866e-05    1.031    0.030
        41  -7.8907    130.2798    117.0209   7.4697894960e+01   3.3125583293e+01    0.2116097    0.1949686 -46.03 0.0002173937    1.077    0.071
        42  -7.2999    236.8106    115.5714   5.2883702243e+01   1.1137286441e+01     0.246061    0.1288371  47.45  0.001169072    2.218    0.549
        43  -8.6072     72.9679    111.8399   9.0486790123e+01   4.4919020132e+01    0.2616497     0.216794 -79.14   0.00135849    1.357    0.263
        44  -8.3686    107.3622    100.7094   7.6826896011e+01   4.1445051572e+01    0.4129845    0.2422474  26.27  0.001627626    2.207    0.547
        45  -9.1244    187.0358     98.5163   5.7200738734e+01   2.4366941753e+01    0.4078245    0.2662704 -32.45  0.001008311    1.637    0.389
        46 -10.3456     91.1184     93.4662   7.9830800283e+01   4.6130094261e+01    0.2618035    0.2516358 -33.61  0.000281631    1.029    0.029
        47  -7.6998    102.8174     92.9394   7.6030766776e+01   4.4027312899e+01    0.2198841    0.1953306  -2.30  0.000289862    1.212    0.175
        48  -7.5412    163.0044     86.6997   5.8908773204e+01   3.2024497751e+01    0.1961739    0.1890714  69.86 0.0003547595    1.041    0.039
        49  -7.0718     55.9793     84.9615   8.9654749925e+01   5.3577038288e+01    0.1648543    0.1516108 -22.31 0.0003656222    1.031    0.030
        50  -6.9458    216.3170     73.6432   4.6589580619e+01   2.2229932149e+01    0.1466168   0.09266843 -66.69 0.0007044965    1.751    0.429
        51  -7.5206    139.2953     71.7881   5.9982385097e+01   4.0230331428e+01    0.1960509    0.1647096  27.99 0.0005116435    1.326    0.246
        52  -7.0372    201.5206     55.5573   4.4388033906e+01   2.8254914400e+01    0.1325197    0.1215033 -80.27 2.267671e-05    1.069    0.064
        53  -7.2300    123.2033     48.9891   5.6818803097e+01   4.7643139734e+01    0.1807862    0.1740531  -8.48  0.001070485    1.106    0.095
        54  -7.6240    161.6750     45.0644   4.7758812567e+01   3.9091781092e+01    0.1837102    0.1726975 -54.71 0.0003790699    1.124    0.111
        55  -8.2790    154.1169     43.5865   4.8674060598e+01   4.1107667711e+01    0.2229984    0.1973651 -26.78 0.0003248081    1.278    0.217
        56  -9.0750    122.7889     36.6717   5.2909650728e+01   4.9447851431e+01    0.3121696    0.2620881   8.39  0.001175093    1.372    0.271
        57  -8.6443    228.1323     32.8049   3.6247662835e+01   2.5557436282e+01    0.2147385    0.1712678 -70.44 0.0004359802    1.025    0.024
        58  -7.5053    245.4833     29.4826   3.4061560051e+01   2.2448678957e+01    0.1192645   0.09425294 -67.56 4.101837e-05    1.020    0.020
        59  -8.2085    240.2615     27.5473   3.4104542200e+01   2.3727689360e+01    0.1901641     0.157626 -62.68 0.0002062492    1.115    0.103
        60  -7.5397    191.2167     23.8060   3.8038356681e+01   3.4807942557e+01    0.1652046    0.1464093  50.78 0.0006092908    1.351    0.260
        61  -7.3336    116.7650     21.6412   4.9221724920e+01   5.2623015503e+01    0.1774966    0.1151893  67.80 0.0004076153    1.519    0.342
        62  -7.2664     78.3564     21.3485   5.9294419119e+01   6.0901896367e+01    0.1406263    0.0859267  21.97 1.186363e-05    1.841    0.457
        63  -7.1388    189.5784     17.4937   3.6697723255e+01   3.5901702423e+01     0.125405    0.1076569 -87.91 8.762839e-05    1.041    0.039
        64  -7.4632    211.8208     14.0812   3.3726758665e+01   3.1285364156e+01    0.1483025    0.1393391  66.85 0.0005917702    1.348    0.258
        65  -6.9325     81.6362    249.7198   1.0900344992e+02   1.1488212004e+01    0.1135641   0.09436797   3.32 0.0007013692    1.678    0.404
