#   1 NUMBER                 Running object number                                     
#   2 MAG_AUTO               Kron-like elliptical aperture magnitude                    [mag]
#   3 X_IMAGE                Object position along x                                    [pixel]
#   4 Y_IMAGE                Object position along y                                    [pixel]
#   5 X_WORLD                Barycenter position along world x axis                     [deg]
#   6 Y_WORLD                Barycenter position along world y axis                     [deg]
#   7 A_WORLD                Profile RMS along major axis (world units)                 [deg]
#   8 B_WORLD                Profile RMS along minor axis (world units)                 [deg]
#   9 THETA_WORLD            Position angle (CCW/world-x)                               [deg]
#  10 FWHM_WORLD             FWHM assuming a gaussian core                              [deg]
#  11 ELONGATION             A_IMAGE/B_IMAGE                                           
#  12 ELLIPTICITY            1 - B_IMAGE/A_IMAGE                                       
         1 -11.0350      4.1936     36.7111   7.5373199473e+01   7.0546967983e+01    0.5845103    0.3476071 -63.53  0.003212412    1.393    0.282
         2 -10.8106      9.7620     31.2164   7.0154119315e+01   7.1552137151e+01    0.5145336    0.3682294 -19.55  0.002465483    1.444    0.308
         3 -11.4705     79.0710     35.9744   3.4618158336e+01   6.0364700551e+01    0.8824962    0.5481116 -38.88  0.004032808    1.609    0.379
         4 -11.7357     49.4520     30.4427   4.5281869446e+01   6.7136167038e+01    0.6593637    0.3414317  35.52  0.002807097    2.009    0.502
         5 -12.0432    104.5707     13.4746   1.6171620900e+01   5.7443575882e+01    0.5221973    0.4019757  -7.77  0.002674771    1.448    0.309
         6 -12.2196    106.0660     20.6721   1.9099332942e+01   5.6185731709e+01    0.4759731    0.3687218 -65.46 0.0007932426    1.500    0.333
         7 -11.7747     48.1387     12.9552   3.6333897297e+01   7.0471190268e+01    0.7547091    0.2966699  43.73  0.003065039    2.525    0.604
         8 -11.8289     26.0982     28.9186   5.8327541373e+01   7.0682930823e+01    0.6559022    0.4646788 -15.02  0.002845516    1.539    0.350
         9 -11.3280      6.3229     11.5541   6.5235823217e+01   7.6161340121e+01    0.8028579    0.5374887 -68.81  0.004665411    1.608    0.378
        10 -10.5327     12.7436      8.4419   5.8044542684e+01   7.6291014971e+01    0.4016739    0.2216765 -63.01  0.001187553    2.138    0.532
        11 -12.3447     16.3201     13.8414   5.8092003910e+01   7.4865370377e+01    0.8124902    0.3354889 -35.60  0.003471533    2.556    0.609
        12 -11.8070     35.5121     19.2405   4.7451457084e+01   7.1466133106e+01    0.6326815    0.2827945 -39.89  0.001998888    2.130    0.531
        13 -11.1237    135.2290     22.3390   1.3631289963e+01   4.8239051919e+01    0.4809302    0.3965876 -75.33  0.002502037    1.258    0.205
        14 -11.5823     20.2352     21.9773   5.9198902211e+01   7.2786230733e+01    0.7244505     0.390773 -43.02  0.003669465    1.633    0.388
        15 -10.9172     67.6029     19.1796   3.0786780680e+01   6.5616607914e+01    0.4668199    0.3898362 -82.67  0.002047508    1.632    0.387
        16 -12.0591    165.0725     17.9909   7.6463793942e+00   4.0757526407e+01    0.5972994    0.3226113  44.10  0.002540851    2.190    0.543
        17 -11.2416     86.1997     13.7464   2.1232202564e+01   6.2067916767e+01    0.7260396    0.4039986   1.28   0.00280495    2.803    0.643
        18 -10.3504     89.5617      8.7408   1.7666071890e+01   6.1817735297e+01    0.3175543    0.2498183  -9.58 0.0008565158    1.362    0.266
        19 -11.2785    192.0267      9.9574   2.4133423131e+00   3.4711298451e+01     0.764149    0.3341641  -8.58  0.002743325    3.702    0.730
        20 -10.2729    127.2370     11.4159   1.0717112134e+01   5.1625778552e+01    0.3292357     0.203813 -76.68  0.001433329    1.946    0.486
        21 -10.8546    127.4293     16.7091   1.2828555340e+01   5.0999077417e+01    0.5946358    0.2761874  51.87  0.001056358    2.056    0.514
        22 -10.5414    136.9994     14.4907   1.0322222616e+01   4.8659330819e+01    0.4182596    0.3059231  78.35  0.001511364    1.330    0.248
        23 -10.4958    225.6825     13.6970   8.9920508927e-01   2.6484802687e+01    0.2467756    0.1949843 -24.62 0.0007465085    1.296    0.229
        24 -10.1602    218.5222     13.0409   1.2222950972e+00   2.8140148203e+01    0.2785536    0.1498698 -27.58  0.001406771    1.716    0.417
        25 -11.2097    206.7762      2.5403   3.5925980879e+02   3.1882062338e+01    0.6223586    0.2526285 -84.11  0.002530176    2.861    0.651
        26 -11.8752    212.3558      9.3308   6.8775948916e-01   2.9921834570e+01     0.603667    0.3583401  -8.91  0.002722236    2.173    0.540
        27 -10.6953    218.6636      3.7139   3.5882741534e+02   2.9038197438e+01    0.3131783    0.2325342  72.99 0.0007849947    1.443    0.307
        28 -10.5731    223.9557      2.9632   3.5833146117e+02   2.7932894378e+01    0.2501548    0.1744882 -53.37  0.000465329    1.191    0.160
        29 -10.9933    169.3496      9.4215   4.3662055318e+00   4.0534074364e+01    0.5287965    0.2321841  60.70  0.001637564    2.171    0.539
        30 -10.5738    164.0367      6.7604   4.0504921520e+00   4.2189152036e+01    0.5962127    0.2805587  -3.50  0.002172569    3.386    0.705
        31 -11.1038    151.8204      7.8027   5.7876830202e+00   4.5341939955e+01    0.4492366    0.3269739 -76.31  0.001096508    1.374    0.272
        32 -10.2977      1.2198      7.7724   6.8055962046e+01   7.7272323981e+01    0.3854611   0.07307851 -61.78   0.00135675    3.856    0.741
        33 -10.5254      2.0651      2.0596   6.4313130228e+01   7.8410273347e+01    0.2872158    0.1637475 -40.53  0.001549395    1.449    0.310
        34 -10.0875    231.9175      6.4675   3.5874122246e+02   2.5867804820e+01    0.2498904    0.1443352 -51.53 0.0008375905    1.437    0.304
        35 -11.0775    233.4048      2.6572   3.5774528392e+02   2.5921360944e+01    0.3555484    0.1869471 -55.26 0.0009555824    1.620    0.383
        36 -10.7089    184.6813      6.3433   1.9729683646e+00   3.6899500157e+01    0.4005411    0.2030895 -54.99   0.00181603    1.896    0.473
        37 -11.4917    177.2284      6.0564   2.5388455650e+00   3.8822020884e+01    0.2722242    0.2245213 -76.40 0.0003478531    1.113    0.101
        38  -9.3897     77.9000      7.3692   2.0401989467e+01   6.4833316103e+01    0.2156225    0.1745591  84.03  0.000692778    1.470    0.320
        39 -10.1635     73.2749      3.3385   1.9596811421e+01   6.6377465683e+01    0.4222304    0.2174107  57.47  0.001692092    1.805    0.446
        40 -10.9476    242.4895      3.8695   3.5756895713e+02   2.3917383169e+01    0.3045562    0.1365367 -50.05  0.001239534    1.788    0.441
        41  -9.7082    245.8961      1.3787   3.5683597837e+02   2.3467006995e+01    0.1801377    0.1303245  63.58 0.0003549688    1.675    0.403
        42 -11.8799    135.1508      2.9204   6.1174596789e+00   5.0299446836e+01     0.893569    0.3565583  80.29  0.003245327    2.680    0.627
        43 -10.6205     41.7604      3.6669   3.3743607599e+01   7.3029970821e+01    0.3358541    0.2250762  11.57  0.001246572    1.709    0.415
        44 -10.0851    105.2018      1.9151   1.0605739161e+01   5.8450124759e+01    0.3338187    0.2072383 -79.68  0.001408665    2.003    0.501
        45  -9.1175     64.4479      2.1197   2.1990812493e+01   6.8551752413e+01    0.1835223    0.1306618 -19.98 0.0003582489    1.435    0.303
        46 -12.1733     22.5407     10.7491   5.1484488151e+01   7.4798126277e+01    0.5323455    0.3829414  13.69  0.002372137    1.429    0.300
        47  -9.8483     13.3649      2.2485   5.3598717917e+01   7.7419858826e+01    0.2114446    0.1592832  14.89 0.0005282901    1.337    0.252
        48  -9.4082    152.4572      1.3539   3.4375446199e+00   4.5766363134e+01    0.2291393    0.1243815  76.16  0.000528192    1.722    0.419
        49 -10.4274    114.0307      2.9756   9.4321539170e+00   5.6003013323e+01    0.4366997    0.2605167 -60.25   0.00193893    1.992    0.498
        50  -9.8313     63.1215      6.7142   2.5386419522e+01   6.8309465233e+01    0.2522697    0.2113416   9.29  0.001218549    1.171    0.146
        51  -9.4007     47.0066    131.9761   7.3020634221e+01   4.2669102968e+01    0.2313154    0.1449333  63.95 0.0007871467    1.641    0.391
        52  -9.1478    103.9655    131.0026   5.5550118483e+01   3.4301029407e+01    0.1770064    0.1649194  49.42 0.0003198704    1.028    0.028
        53 -10.9292      9.8312    127.3625   8.4362295389e+01   4.7303402534e+01    0.4296091    0.2774519 -66.65  0.002102361    1.479    0.324
        54  -9.4552     22.8555    126.8872   8.0171444839e+01   4.6407545676e+01      0.18463    0.1642381 -75.25 0.0003938456    1.144    0.126
        55  -9.6247     33.1825    125.9019   7.6719737095e+01   4.5701561481e+01    0.2221059    0.1639256  71.27  0.001220482    1.275    0.216
        56  -9.9565      2.1190    125.6342   8.6678792946e+01   4.8235806215e+01    0.2906957    0.1464203  67.48  0.001454763    1.804    0.446
        57 -11.0582    104.5232    122.4013   5.3568978762e+01   3.6190184695e+01    0.3817616    0.3471539  72.38 0.0009791426    1.127    0.112
        58 -10.3920     56.8530    122.2745   6.8433252945e+01   4.3898697176e+01    0.4738329    0.2286905  49.44  0.001480089    2.142    0.533
        59  -9.0810     58.3051    118.7009   6.7359601115e+01   4.4614004767e+01    0.2002037    0.1256892 -58.60 0.0003533441    1.547    0.353
        60  -9.3961     49.8477    122.7566   7.0821253216e+01   4.4663107171e+01    0.2429633    0.1350857 -32.18 0.0009547545    2.860    0.650
        61  -8.9507     26.5334    127.5141   7.9047430984e+01   4.5924413864e+01    0.1346562    0.1163174  79.96  0.000138436    1.003    0.003
        62  -9.7397     44.4320    120.1759   7.2253326782e+01   4.5962498444e+01    0.2180184    0.1314969 -72.98 0.0005429802    1.570    0.363
        63  -9.6708     43.4924    116.4856   7.2038057348e+01   4.7017158073e+01    0.2637836      0.20569 -86.40 0.0006859505    1.211    0.174
        64 -10.4162    243.9977    116.9975   2.3448498782e+01   9.8606994354e+00     0.158559    0.1301169 -18.37  0.001028237    1.002    0.002
        65 -10.5617     28.5973    100.3307   7.5074644905e+01   5.2732316390e+01    0.9131679    0.1551997 -56.35  0.002717709    4.274    0.766
        66  -9.7960     36.0093    102.8372   7.2652601476e+01   5.1362283159e+01    0.7205814    0.4164845   5.49  0.002969255    2.456    0.593
        67 -10.9019      7.8954    114.8567   8.4097764522e+01   5.0573342388e+01    0.3930536    0.2525713  14.32 0.0003763385    1.853    0.460
        68 -11.7100     25.1866    107.4506   7.7289226164e+01   5.1183933982e+01    0.9539711    0.4603468 -36.88  0.003887419    2.887    0.654
        69 -12.1060      2.5214    111.8347   8.5712526565e+01   5.1658641285e+01    0.4377561    0.2884215 -86.74 0.0008715224    1.288    0.223
        70 -11.3361      4.3744    105.5423   8.4618473587e+01   5.3149489676e+01    0.4061199    0.3536367  45.77  0.001900539    1.226    0.184
        71 -11.8180     22.6527    114.1821   7.8965311228e+01   4.9661392261e+01    0.6868604     0.366793  -0.31  0.002783513    2.861    0.650
        72 -11.4048     28.5196    113.0404   7.6783613922e+01   4.9441960900e+01    0.3643864     0.309542   3.94  0.001253761    1.433    0.302
        73  -9.4247     79.2779    115.0511   5.9737909939e+01   4.2404245040e+01    0.2166834    0.1913365 -70.24  0.001152592    1.117    0.105
        74  -9.2269     67.8312    114.8533   6.3471476877e+01   4.4242776797e+01     0.214066    0.1657892  66.62  0.001074138    1.354    0.261
        75  -9.2558    104.7687    112.8725   5.1317807583e+01   3.8360122423e+01    0.2096335    0.1762801  75.36 0.0004594183    1.324    0.245
        76  -9.9937     49.1786    112.1490   6.9384789356e+01   4.7464326818e+01    0.2987144    0.1892968  36.59  0.001023154    1.581    0.367
        77 -12.0589     79.9734    108.0837   5.8003984731e+01   4.4014289293e+01    0.4823208    0.3293766  34.69 0.0005287947    1.503    0.334
        78  -8.9422     69.4544    110.5409   6.2068776355e+01   4.5086828406e+01    0.1480759     0.138057  82.35 0.0001663397    1.027    0.026
        79 -10.9401     15.5063    109.3938   8.0983964205e+01   5.1449218279e+01    0.4091092    0.2891371  14.89  0.001841019    1.671    0.401
        80  -9.1744    120.4620    109.4687   4.5984467206e+01   3.5980350422e+01    0.1525482    0.1494496  15.04 0.0008081595    1.048    0.045
        81  -8.6312     45.5182    105.5234   6.9576794102e+01   4.9616279555e+01    0.2125392      0.12104 -57.99 0.0005922155    1.645    0.392
        82 -10.9706     51.7231     99.8833   6.6245780491e+01   5.0311518833e+01    0.6602979    0.3093291 -44.66  0.002573056    2.435    0.589
        83  -9.5558     47.3414    102.6832   6.8404926189e+01   5.0134663923e+01    0.2557524    0.1855105 -82.22 0.0008226904    1.370    0.270
        84  -8.7099    182.5359    104.4841   3.0330841743e+01   2.3502682666e+01    0.1443908    0.1364606 -24.64 5.986202e-06    1.027    0.027
        85 -10.2883     85.8864    103.3935   5.4951095280e+01   4.4142095091e+01    0.2755515     0.250381 -54.72 0.0005377158    1.102    0.092
        86 -11.4018     17.5589    100.7089   7.9310482251e+01   5.3540580950e+01    0.2889061    0.2264507  87.88 0.0005235515    1.143    0.125
        87  -8.7226    120.4902    101.4625   4.3892687780e+01   3.7736676421e+01    0.1540813    0.1509929  13.60 0.0006621448    1.050    0.048
        88 -11.7011     68.3811     95.9972   5.9248038603e+01   4.8920910415e+01    0.6511406    0.5022886  11.37  0.002541699    1.612    0.380
        89 -10.3971     67.3100     81.6529   5.5980071669e+01   5.2664144320e+01     0.401325    0.3072107 -27.56  0.001416212    1.545    0.353
        90 -11.6787     79.3216     92.1663   5.4366454778e+01   4.8047935520e+01     1.039356    0.7382281 -63.99  0.004861678    1.453    0.312
        91 -11.8004     76.0431     79.7663   5.2113085583e+01   5.1630738011e+01     1.025586    0.7141203  77.71  0.002120183    2.076    0.518
        92  -9.0314    133.6901    100.2710   4.0036159775e+01   3.5112158926e+01    0.1516977    0.1231493  87.17 0.0001464596    1.546    0.353
        93  -9.0104    210.4442     98.4764   2.4059729900e+01   1.8657081131e+01    0.1381262    0.1227176 -20.49 0.0001335953    1.025    0.025
        94  -9.1015    140.5498     95.9187   3.7115244788e+01   3.4463600350e+01    0.2193402    0.1375752 -16.28  0.000807333    2.518    0.603
        95 -12.0422    125.4104     94.7001   4.0681838576e+01   3.8123336386e+01    0.4490695    0.3173325  61.96 0.0004424443    1.616    0.381
        96 -11.7054     21.9677     94.1380   7.6778372614e+01   5.4910000251e+01    0.6721193    0.3468657  57.17  0.001004344    2.152    0.535
        97  -9.7182     17.4174     86.7457   7.7603841197e+01   5.7174851312e+01    0.3491626    0.2113615  24.56  0.001595925    1.815    0.449
        98 -10.4859     25.4943     87.6061   7.4375673646e+01   5.6320050581e+01    0.6460287    0.2590808  48.83  0.002506486    2.866    0.651
        99 -10.3736     28.5688     84.6757   7.2593230523e+01   5.6811554799e+01    0.4404229    0.2951486  43.71  0.001396572    1.576    0.365
       100 -11.3635     42.3668     91.8310   6.8269020822e+01   5.3534846082e+01    0.7149228    0.4240092  81.36  0.001284855    2.174    0.540
       101 -11.5800     44.9040     84.8017   6.5778415364e+01   5.5051441128e+01    0.5563282     0.453643  34.05  0.002716738    1.303    0.232
       102 -10.1115     37.0304     85.8044   6.9253541130e+01   5.5685933476e+01    0.3413128    0.1845901  19.89  0.001112414    2.154    0.536
       103 -10.4353     35.3911     92.3266   7.1143650991e+01   5.4162687494e+01    0.4118801    0.2525665 -85.61  0.001931663    1.713    0.416
       104 -11.9334     98.5346     91.0943   4.7596939229e+01   4.4661246409e+01    0.3912221     0.272878  50.74  0.001766077    1.475    0.322
       105 -10.0349     49.9115     91.6080   6.5242325918e+01   5.2677489880e+01    0.3741493    0.2071988  39.18  0.001430182    1.838    0.456
       106  -9.7087     89.5020     90.9807   5.0533834804e+01   4.6464207007e+01    0.3215159    0.2455608 -87.32  0.001470317    1.649    0.394
       107 -10.1598     91.1045     85.6388   4.8478387174e+01   4.7410238532e+01     0.464305    0.3928873  48.90  0.002339395    1.195    0.163
       108 -11.4603      7.1227     88.3867   8.2038371256e+01   5.7396312287e+01    0.5663227    0.4146336  13.47   0.00281596    1.609    0.379
       109  -9.8773     66.5125     88.6383   5.8136211020e+01   5.1059937283e+01    0.3603022    0.2478057  -8.18  0.001272486    2.261    0.558
       110 -10.0618    103.9442     87.0709   4.4725953047e+01   4.4461075021e+01    0.2868802    0.2125146 -40.59  0.001144608    1.385    0.278
       111 -10.0010     52.0165     86.9634   6.3375479026e+01   5.3593962587e+01    0.2151675    0.1969859 -77.28 -0.002661949    1.042    0.040
       112 -10.7225    143.2435     84.5023   3.3192516249e+01   3.6091023537e+01    0.2727052    0.2555063 -43.08 0.0002989215    1.058    0.055
       113 -11.5238    112.0414     83.0087   4.1042223993e+01   4.3602941151e+01    0.7217419    0.3887366  63.78   0.00247557    2.821    0.645
       114  -9.5837     60.0285     83.3363   5.9289951159e+01   5.3381748886e+01    0.2053814    0.1923639  48.72 0.0005803242    1.107    0.097
       115 -10.3059    103.0701     74.8706   4.1227678871e+01   4.7338498284e+01    0.3866606    0.2829545 -50.19  0.001429086    1.380    0.275
       116 -11.2398     53.0679     75.1212   5.9974451620e+01   5.6442192721e+01    0.6641946    0.4130729 -68.65  0.003015318    1.689    0.408
       117  -9.2730     46.6944     75.6482   6.2849801031e+01   5.7162258698e+01    0.2683082    0.1891841 -50.73  0.001342308    1.336    0.252
       118  -9.2419     88.4649     73.2016   4.5560626442e+01   5.0789292809e+01    0.2185813    0.2083169 -37.92 0.0003974586    1.052    0.049
       119  -9.5831     92.4888     72.4605   4.3922309347e+01   5.0128776361e+01    0.3144487    0.2583687 -88.78  0.001424736    1.487    0.328
       120 -11.0221     88.6412     77.6972   4.6930571986e+01   4.9733516345e+01    0.6715662    0.3363822  46.53   0.00259754    2.056    0.514
       121 -10.5067     94.9190     76.4607   4.4394749922e+01   4.8733504687e+01    0.5026232    0.2883264  47.26   0.00194284    1.774    0.436
       122  -9.1415      4.2593     77.9839   8.2118963840e+01   6.0216457255e+01    0.1696677    0.1532559 -81.96  0.000358921    1.063    0.060
       123  -8.9621    181.7982     76.3795   2.2996504919e+01   2.8378648246e+01    0.1973381    0.1341759  45.22 0.0003970306    1.578    0.366
       124 -11.0476     14.0263     74.7311   7.7324296729e+01   6.0511797319e+01    0.3539824    0.2505959  85.36  0.001946136    1.396    0.284
       125  -9.1791    112.2261     75.3846   3.8592614917e+01   4.5181458941e+01    0.2216071    0.1483885  58.50 0.0009415494    1.631    0.387
       126 -10.8690      1.9279     71.3548   8.2410423931e+01   6.2014752376e+01    0.4205569    0.1879885 -75.85  0.001958963    1.859    0.462
       127 -12.5055      6.7934     61.4057   7.8706198040e+01   6.4323814202e+01    0.8092253    0.5228044 -34.48  0.004433659    1.627    0.385
       128 -11.5445     10.9806     50.8978   7.4523461068e+01   6.6735113587e+01    0.5680246     0.182735 -53.37   0.00231146    2.419    0.587
       129 -11.6436      9.5040     97.0231   8.1978277149e+01   5.5033550003e+01    0.5105556    0.4240959  48.75  0.001066917    1.253    0.202
       130  -9.2005     24.6275     74.1851   7.2388307266e+01   5.9869184582e+01    0.2079064    0.1063349 -59.51 0.0009509631    1.677    0.404
       131 -10.8978     81.0866     72.1644   4.7886388795e+01   5.2479322307e+01     0.631813    0.2866334 -51.05  0.002354657    2.189    0.543
       132 -10.1583     77.4743     66.9777   4.7531850367e+01   5.4351751790e+01    0.4808807    0.2621158 -65.79  0.001734559    2.711    0.631
       133 -10.8964     34.6666     71.6777   6.7247864547e+01   5.9565046884e+01    0.6158723    0.2395799  30.75   0.00245201    2.613    0.617
       134 -10.1240     41.3059     72.9588   6.4546566651e+01   5.8502073709e+01    0.2945771    0.2246992 -50.84 0.0008470994    1.228    0.186
       135 -10.7697     40.2436     69.0801   6.4040690808e+01   5.9603987168e+01    0.3298637    0.2443087  34.91 0.0006890581    1.441    0.306
       136  -9.7782    154.0272     72.3665   2.7123247410e+01   3.5730668441e+01    0.3118193     0.175979  48.65 0.0007828177    1.804    0.446
       137 -10.8304    122.5874     68.7820   3.3490259072e+01   4.4086226657e+01     0.532985    0.2825795  49.32  0.001591414    1.875    0.467
       138 -10.4138     86.6751     69.2673   4.4894443180e+01   5.2031314785e+01    0.2960431    0.1889977  53.89  0.001267727    1.732    0.423
       139 -10.2489     13.5717     67.4112   7.6348966765e+01   6.2418217494e+01    0.4081743     0.222631   2.91   0.00193308    2.293    0.564
       140 -10.0722     96.5135     65.5037   4.0199411010e+01   5.0771447651e+01    0.2738462     0.262766 -10.12 0.0005098525    1.082    0.075
       141 -11.0997     92.6801     62.8615   4.0560607300e+01   5.2160204473e+01    0.4220938      0.31035  58.38 0.0009771923    1.491    0.329
       142 -10.3279    201.7657     64.9145   1.6757849766e+01   2.5529095494e+01    0.2308499    0.2004162  86.16 0.0002470552    1.267    0.211
       143 -10.5323     58.0168     77.9678   5.8679832086e+01   5.5020625825e+01    0.3074801     0.206884 -57.77 0.0005936212    1.406    0.289
       144  -9.9398    104.6521     63.5931   3.6905890312e+01   4.9339854223e+01    0.3855009    0.2377333  51.19  0.001633731    1.640    0.390
       145 -10.0430    158.4291     62.9993   2.3336966210e+01   3.6237912776e+01    0.4070462    0.1881512  46.89  0.001008095    2.308    0.567
       146  -9.8321     51.2532     56.0945   5.4962844585e+01   6.1308754012e+01    0.4412763     0.228752 -37.58   0.00180022    2.175    0.540
       147 -10.2858     51.2060     61.3902   5.6746800174e+01   6.0064035415e+01    0.3724864    0.2444305  40.97  0.001790377    1.622    0.383
       148 -10.7889     40.5164     56.8700   6.0422732215e+01   6.2579865624e+01    0.4159433    0.1981189  33.95  0.001105805    2.191    0.544
       149 -11.2332     43.0251     60.9484   6.0451920086e+01   6.1277749210e+01     0.377858    0.2373955 -59.85  0.001232667    1.493    0.330
       150 -10.7545     46.4538     59.4945   5.8364265272e+01   6.1180993102e+01    0.3113728    0.2677974 -75.44 0.0008807767    1.234    0.189
       151  -9.8232    113.8678     61.1293   3.3281472479e+01   4.7660246442e+01    0.3192248    0.2108579 -44.17  0.001395707    1.522    0.343
       152 -10.2353     64.9404     61.4426   5.0691218271e+01   5.7882946865e+01    0.4282736    0.3350294  28.16  0.002170884    1.366    0.268
       153  -9.3780     57.5848     61.7480   5.3983498950e+01   5.9019861367e+01    0.2114265    0.1383865 -64.74 0.0009580307    1.671    0.402
       154  -9.3685     84.1982     61.1906   4.2974758941e+01   5.4301320184e+01    0.2103051    0.1832007 -85.82  0.000692617    1.340    0.254
       155 -10.6491     31.2214     52.9309   6.3981445889e+01   6.4591886348e+01    0.6905076    0.2756897  14.04  0.001878634    3.743    0.733
       156 -10.0417     29.4855     59.7475   6.6791607916e+01   6.3091386705e+01    0.3843934    0.3154173  80.06  0.002171255    1.370    0.270
       157 -10.4810     23.8906     59.2175   6.9511402115e+01   6.3734512893e+01    0.5527946    0.2296967  47.94  0.001891739    3.174    0.685
       158 -10.4916     25.0876     55.9523   6.8068408235e+01   6.4443192910e+01    0.3318252    0.2722397 -30.91  0.001158275    1.242    0.195
       159 -10.3707    124.7808     56.7554   2.8772609689e+01   4.5794281629e+01    0.3388542    0.3125363 -43.66   0.00175906    1.087    0.080
       160 -11.2688    118.0339     55.5839   3.0127901007e+01   4.7681401519e+01     1.205614    0.6291649 -63.22  0.003705507    3.726    0.732
       161  -9.9421    122.9521     44.5208   2.4745832263e+01   4.8343624358e+01    0.3883365    0.2757753  59.04  0.001142086    1.390    0.280
       162 -11.0915    111.1202     40.5525   2.6254906918e+01   5.1997121795e+01    0.7967093    0.4922644 -47.32  0.003440306    1.732    0.423
       163 -11.8508    119.5423     37.6504   2.2924755903e+01   5.0303995933e+01     0.680901    0.3829752 -44.39   0.00174061    1.851    0.460
       164 -10.4627    112.5175     50.5428   2.9776655165e+01   4.9947340803e+01    0.3268487    0.2641121  10.08  0.001126898    1.516    0.340
       165 -11.3421    117.3825     44.8998   2.6299985734e+01   4.9701758067e+01    0.6477991    0.4301457 -37.43  0.002174363    1.513    0.339
       166 -10.3459     88.0143     56.6789   3.9921347880e+01   5.4448796907e+01    0.5572258    0.2173895 -36.88  0.001826923    2.924    0.658
       167  -9.3975     79.9373     58.5136   4.3591715075e+01   5.5739574627e+01    0.2354047    0.1940942 -42.89 0.0003546189    1.192    0.161
       168 -12.2089     74.7516     53.1016   4.3567251900e+01   5.7919293938e+01    0.5324231    0.4458528 -57.39 0.0009885355    1.261    0.207
       169 -11.9102     72.9058     47.2666   4.1978948145e+01   5.9492249854e+01    0.7195985    0.3631515 -56.78  0.001607474    2.632    0.620
       170  -9.3898    106.5263     58.4827   3.4491069530e+01   4.9915026112e+01    0.1538848    0.1510237 -83.38 0.0001044865    1.034    0.033
       171  -9.5102    157.2557     56.6804   2.1567488672e+01   3.7559217596e+01    0.2477344    0.1937986  45.75 0.0002031414    1.345    0.257
       172 -10.3028    156.9958     54.0000   2.0756046908e+01   3.8048911080e+01     0.625015    0.3822102 -80.96  0.002399416    2.507    0.601
       173  -9.3715     33.4595     57.1145   6.4048995743e+01   6.3334893831e+01    0.2274469    0.1473729  28.23 0.0008412924    1.663    0.399
       174 -11.1804     60.7953     48.2437   4.7605062652e+01   6.1540849082e+01    0.8244498    0.3429559 -43.55  0.003116412    2.350    0.574
       175  -9.6852     55.4882     50.4847   5.0931918661e+01   6.1937425077e+01    0.2116041    0.1738535  41.33 6.660476e-05    1.291    0.226
       176 -10.2473     51.9047     48.7518   5.1980401082e+01   6.2889716165e+01    0.2884091    0.2521614 -24.39 0.0008164337    1.141    0.124
       177  -9.0034    211.6980     53.7119   1.2506118036e+01   2.4851216701e+01    0.1300101    0.1043113  18.78 0.0002232956    1.562    0.360
       178  -9.2747    201.2112     53.2298   1.3664207247e+01   2.7299738293e+01    0.2205716    0.1370212  21.81 0.0007110119    2.600    0.615
       179 -12.2382     43.6367     45.1929   5.4775965969e+01   6.4901949460e+01    0.6910845    0.5963256  62.41  0.001687367    1.394    0.283
       180  -9.2993    243.8040     51.3901   8.6007775293e+00   1.8436169502e+01    0.1544592    0.1163121  53.12 0.0005668339    1.596    0.373
       181  -9.3305    240.1609     50.8376   8.8049353821e+00   1.9219756555e+01    0.1619608    0.1434825  -4.79 0.0005050867    1.284    0.221
       182  -9.8875    144.9978     50.5332   2.1959161111e+01   4.1682155731e+01    0.2732184    0.2138478 -10.66 8.035203e-05    1.510    0.338
       183  -9.7578     82.4039     47.5214   3.8365107803e+01   5.7487047493e+01    0.4338397    0.2054487 -34.93  0.001626162    2.312    0.567
       184  -8.9362    189.1680     49.4550   1.4196927857e+01   3.0672591760e+01    0.1804852    0.1357981 -88.57 0.0003537927    1.479    0.324
       185  -9.3856      1.9222     49.1241   7.9275722626e+01   6.7611864936e+01     0.185673    0.1625078  78.74 0.0006847671    1.216    0.178
       186  -9.8757     31.9085     45.0540   6.1070889145e+01   6.6396786747e+01    0.5326766    0.2544558  26.76  0.002361227    2.247    0.555
       187 -10.4183     22.9941     37.2101   6.3559855569e+01   6.9131997161e+01     0.523809    0.2032544  34.47  0.002190049    2.755    0.637
       188 -10.9516     20.5586     46.3742   6.7942554028e+01   6.7174921015e+01    0.4535144     0.252312 -48.84   0.00197386    1.571    0.364
       189 -10.1591    199.9664     45.0169   1.1555622010e+01   2.8692231227e+01    0.3652871    0.2108891  84.85  0.001505022    2.149    0.535
       190  -9.4621    179.8714     45.1810   1.4240453647e+01   3.3548764936e+01    0.2151492    0.1767073 -55.91 0.0003856499    1.174    0.149
       191 -10.0338    138.9756     44.3704   2.1059117259e+01   4.4209956874e+01    0.4757105    0.2276262  39.50  0.001664681    2.725    0.633
       192 -10.4413    156.1583     42.2315   1.7045240742e+01   4.0031211274e+01    0.3011845    0.2572671 -34.04 0.0007126475    1.172    0.146
       193  -9.2946     99.4763     41.9571   3.0215493655e+01   5.4628300041e+01    0.2196952    0.1229208 -57.08 0.0008092163    2.489    0.598
       194  -9.8045     56.9558     42.0526   4.6833054165e+01   6.3518008959e+01    0.2873568    0.1955994  48.77  0.001191924    1.652    0.394
       195 -10.0185     26.1775     42.7907   6.3571703820e+01   6.7525590856e+01    0.2710463    0.2264807 -23.82 0.0009280856    1.199    0.166
       196 -10.5366     48.2325    247.9701   8.2036546292e+01   1.8366158837e+01    0.1203047   0.08308057  89.45 0.0008464378    1.640    0.390
       197 -10.9992    126.7300    241.6424   6.6191134576e+01   9.8356101159e+00    0.2007791    0.1548987  31.08  0.001053456    1.036    0.035
       198 -10.7053    131.6625    241.0760   6.5173832000e+01   9.2696839589e+00    0.2123911    0.1222227  38.65  0.001324328    1.349    0.259
       199  -9.9150    231.5665     38.5093   6.6001096283e+00   2.2460623828e+01    0.3297697    0.1038917 -30.17  0.001305461    2.596    0.615
       200  -9.6715    195.0018     37.6835   1.0083690467e+01   3.0822009146e+01     0.184558    0.1690467 -80.96  0.000304812    1.090    0.082
       201 -10.8103     61.1482     36.1004   4.2212951707e+01   6.3971538053e+01    0.5118126    0.3344183 -20.26  0.001607688    1.918    0.479
       202 -10.0011     68.3226     32.6213   3.7379425830e+01   6.3229241040e+01    0.4448554    0.2998278  52.74  0.002135145    1.611    0.379
       203 -11.8867     58.0089     30.0449   4.0786943015e+01   6.5705632363e+01    0.4034737    0.3278246  -6.28  0.001520167    1.319    0.242
       204 -10.5813     76.1698    240.5066   7.6109175242e+01   1.6395809965e+01    0.1820097    0.1570051  83.90  0.001414757    1.365    0.267
       205  -8.9765     91.4363     41.4446   3.2601689655e+01   5.6613261253e+01    0.1475116    0.1454712  16.52 0.0001500818    1.012    0.012
       206 -11.5192    175.1122     33.5436   1.1339181300e+01   3.6296670218e+01    0.5310684    0.3387883 -48.82 0.0002712787    1.513    0.339
       207 -11.1728     67.9001    240.7404   7.7774508170e+01   1.7334865477e+01    0.2320731    0.1960444   0.74  0.001438459    1.643    0.391
       208 -10.7140    146.8701    238.3144   6.1937089156e+01   7.6427955908e+00     0.328189     0.190151  55.96  0.001783145    2.621    0.619
       209 -12.0673    104.4378     32.7798   2.4865387924e+01   5.4902437795e+01     0.676699    0.3385303  44.63            0    2.051    0.512
       210 -12.2633    113.9163     25.2881   1.9211989894e+01   5.3539525668e+01    0.8968617    0.3695613  47.94  0.002456269    2.410    0.585
       211  -9.6603    241.1819     31.9859   4.2405732942e+00   2.1235603561e+01    0.1904898    0.1375264   4.12  0.001075577    1.898    0.473
       212 -10.3355    135.4784     31.8170   1.7179111766e+01   4.6953000259e+01    0.4103124    0.1886485  81.16  0.001285538    3.506    0.715
       213  -9.9278     32.8104     31.1343   5.5075745032e+01   6.9421543881e+01      0.22531    0.1840582 -53.81   0.00030278    1.221    0.181
       214  -9.0397    167.3752    238.1901   5.8063315670e+01   4.9554742814e+00    0.1223569    0.1094033 -47.05 0.0006023971    1.632    0.387
       215  -9.0640     15.6859    233.6512   8.7752233780e+01   2.4037403935e+01   0.08898854    0.0807987 -32.97 0.0007046864    1.722    0.419
       216  -9.3464     80.4686    230.4728   7.4475608709e+01   1.7520475341e+01    0.1182876   0.08932968  44.10 7.811993e-05    1.012    0.012
       217 -10.2272     13.9683     23.0530   6.4218060892e+01   7.3112094499e+01    0.2463179    0.1948711 -31.23  0.000434945    1.140    0.123
       218  -9.5483     68.6478    226.3257   7.6619730638e+01   1.9674998685e+01    0.1283973   0.06521581  54.50 0.0001499397    1.762    0.432
       219  -9.3441    248.6947    223.6894   4.2272685118e+01  -3.4351715772e+00    0.1086471   0.05990312   4.18  0.000702056    1.613    0.380
       220  -9.0182     44.7039    215.3280   8.0985386649e+01   2.4430421177e+01    0.1253789    0.0648952  56.75 0.0007025064    1.632    0.387
       221 -11.1963    183.2561     25.5980   7.8973981999e+00   3.5198988530e+01    0.4545103    0.3705448   9.21  0.002281032    1.530    0.346
       222  -9.6740    187.5145     22.9576   6.6424353388e+00   3.4436368347e+01    0.2399382    0.1835876 -42.39  0.000562102    1.201    0.167
       223  -9.6254    169.4272     23.5031   8.9000021280e+00   3.8990954583e+01    0.4087058    0.1593127  55.83  0.001546747    2.514    0.602
       224 -10.6577    159.7014     29.6669   1.2264543848e+01   4.0793773266e+01    0.3141143    0.2609641  -8.56  0.001009216    1.379    0.275
       225 -11.7878    164.1329     27.6707   1.0960985257e+01   3.9876557119e+01     0.380452    0.2997848 -52.67 0.0003436787    1.226    0.184
       226 -11.9179    126.0409     28.1219   1.7671780866e+01   4.9962230293e+01    0.5139382    0.3984255 -87.65  0.001620512    1.427    0.299
       227  -9.8029    197.2357     29.0257   7.3780415307e+00   3.1343843819e+01    0.1952164    0.1690548 -46.93 0.0005772884    1.050    0.048
       228 -10.2466    230.7771     27.2161   3.8845904185e+00   2.3928993775e+01    0.3270307    0.2019967 -77.80  0.001619044    1.785    0.440
       229 -11.5558    144.6707     25.6653   1.3240717702e+01   4.5294902254e+01    0.9099421    0.3773721  84.15    0.0026567    4.197    0.762
       230 -10.4552    148.0123     22.1165   1.1422514984e+01   4.4828139342e+01    0.4748785    0.2262556  44.29  0.001639003    2.435    0.589
       231  -8.7193     66.0000     27.9371   3.6074965667e+01   6.4529447327e+01    0.2281235   0.07957323 -38.38 0.0007885656    2.847    0.649
       232 -10.4147    200.9624     25.6493   6.0550353342e+00   3.0843056459e+01    0.3488926     0.237289  22.39  0.001699733    2.129    0.530
       233  -9.6356     97.9465     26.6119   2.3983944525e+01   5.7441179019e+01    0.2534975    0.2103132  -6.09 0.0009259036    1.324    0.245
       234  -9.6088    206.5130     25.9592   5.6141789016e+00   2.9494475210e+01    0.1991209    0.1708367 -83.06 0.0004143508    1.157    0.136
       235 -10.3799    155.0492     23.6203   1.0893252102e+01   4.2768417680e+01    0.4464037    0.3541453 -38.74  0.002336225    1.243    0.195
       236  -9.3262    164.4971    211.9059   5.5105339182e+01   8.8976387565e+00    0.1519853    0.1192846 -37.07 0.0005560869    1.513    0.339
       237 -10.1345     60.0070     22.9025   3.6146349066e+01   6.6587680588e+01    0.2862321     0.195458 -30.81 0.0007450962    1.456    0.313
       238 -11.0130    153.0946     36.0904   1.5496244102e+01   4.1694030646e+01    0.2585416    0.2559752 -84.46 0.0003578684    1.059    0.056
       239  -9.0036     90.6472     23.2792   2.4615937622e+01   5.9715569742e+01    0.1469743    0.1146528 -76.68  0.000701163    1.650    0.394
       240  -8.9540    223.6790     22.2675   3.1962934261e+00   2.6011011783e+01    0.1348863   0.08079451 -57.93 0.0003149269    1.562    0.360
       241 -10.8855    178.6939     20.7372   6.9285614335e+00   3.6915728546e+01    0.4619634    0.2773243  39.34   0.00208283    2.127    0.530
       242 -11.4201    188.9774     27.4659   7.8134313901e+00   3.3548777501e+01    0.5926834       0.3791  46.39  0.002881409    1.823    0.452
       243 -10.6307      9.0855    211.6562   8.8410162642e+01   2.8646537811e+01    0.1997445    0.1197446  68.42  0.001291526    1.358    0.264
       244  -9.2150     40.6720    208.3249   8.1450716632e+01   2.6206327843e+01     0.130586   0.06455981  56.05  0.000576597    1.697    0.411
       245  -9.7588    246.9974     19.9620   1.0297690636e+00   2.1382699211e+01    0.1787648    0.1447555  16.92  0.001141832    1.695    0.410
       246  -9.3793    216.8035     20.3235   3.2329731549e+00   2.7755251928e+01    0.2067613     0.141474 -65.70 0.0006289792    1.399    0.285
       247  -8.9599     61.4791    206.5301   7.6673460217e+01   2.4176514703e+01    0.1234476   0.09753332  50.46 0.0008095463    1.004    0.004
       248  -9.8562     74.6779     19.6420   2.8242803054e+01   6.3989900994e+01      0.26976    0.2048815   8.99  0.000859922    1.500    0.333
       249  -9.4780     46.6799     20.1657   4.1382029129e+01   6.9522516435e+01    0.2059158    0.1697908 -53.32  0.000673454    1.420    0.296
       250  -9.6426     78.3635    203.9747   7.2621214725e+01   2.2542113957e+01    0.2422155    0.1472369  60.45 0.0009253137    1.658    0.397
       251 -11.0035      5.1519    201.8463   8.8952746049e+01   3.0891069640e+01    0.5219153   0.08014616 -70.28   0.00186884    5.762    0.826
       252 -10.4643    186.8685     15.0456   4.3637246050e+00   3.5468082861e+01    0.2446134    0.2037637  83.95 0.0003418989    1.178    0.151
       253  -9.3011      1.3428    200.2952   8.9732438736e+01   3.1512876566e+01   0.09565243   0.08394626 -43.10 0.0007031498    1.663    0.399
       254 -11.0511    239.0694     16.4664   7.0741025209e-01   2.3354057476e+01    0.2844062    0.2097378  74.74  0.001496256    1.514    0.339
       255  -9.1132     53.3089    190.3097   7.7275980126e+01   2.8410523244e+01    0.1123556   0.09661451 -24.19 0.0006765255    1.619    0.382
       256  -9.2494     15.7927    189.8000   8.6135983398e+01   3.2417702760e+01    0.1803729    0.1038853  58.50   0.00108097    1.381    0.276
       257 -10.5624    133.0114     15.4901   1.1362616848e+01   4.9628797724e+01    0.3762444    0.2326125  41.59  0.001688634    1.775    0.437
       258 -12.3618      4.6469    183.8410   8.8500442833e+01   3.4619431419e+01    0.5883713    0.3809799  78.08  0.003228602    1.309    0.236
       259 -11.0750    228.7043     15.9305   1.2509158176e+00   2.5596306948e+01    0.2744605    0.2006634 -66.11 0.0003600988    1.266    0.210
       260  -9.5046     28.1099    176.0991   8.2441149515e+01   3.4206524977e+01    0.1742311    0.1613888 -80.94 0.0006307737    1.266    0.210
       261  -9.6349    147.9745     16.0122   9.2321827984e+00   4.5531404050e+01    0.4326073    0.1107321  57.17  0.001372359    3.299    0.697
       262 -10.4833    199.2751     17.3474   3.8910266245e+00   3.2172446266e+01     0.241313    0.1975884 -61.39 0.0003249547    1.095    0.087
       263 -10.0906     15.9416    174.3162   8.5383582056e+01   3.5731488251e+01    0.2904331    0.1366266  74.86   0.00147265    1.979    0.495
       264  -9.0523     39.4693    173.5068   7.9372968937e+01   3.3611654693e+01    0.1292379    0.1055603  61.64 0.0003957284    1.014    0.014
       265 -11.3770      9.7390    155.5005   8.6046663752e+01   4.0519130742e+01    0.4437582    0.2123389 -88.06  0.002252782    1.887    0.470
       266 -11.7506      8.5726    166.8077   8.6886588978e+01   3.8022585202e+01    0.5032688    0.2285593  38.76   0.00256682    1.835    0.455
       267 -11.5801     11.5011    162.9660   8.5952614146e+01   3.8656893407e+01    0.3918729    0.2175294  78.99  0.001769351    1.593    0.372
       268 -10.9966     14.3566    159.3637   8.5011351086e+01   3.9249472485e+01    0.3642898    0.2151547  83.10  0.001087534    1.508    0.337
       269 -10.3495     18.5572    164.8255   8.4208907942e+01   3.7633095031e+01    0.2557425    0.1875356  13.77   0.00154826    1.695    0.410
       270  -9.6087    120.3942     11.6771   1.2049876483e+01   5.3442878090e+01    0.2606999     0.126075  66.26  0.001059035    1.916    0.478
       271 -10.5882    205.2645    163.3296   3.9125769588e+01   9.7342621975e+00    0.2269304    0.2022705  -0.11 0.0006457975    1.122    0.109
       272  -9.0604     65.9497     10.4861   2.6519804138e+01   6.7206071032e+01    0.2109452    0.1316025  52.69  0.000760574    1.565    0.361
       273 -10.5386     28.4014    161.2196   8.1359670984e+01   3.7551423763e+01    0.3391098    0.1920192 -68.36  0.001804507    1.758    0.431
       274 -12.6859     22.7728    149.0488   8.2030760394e+01   4.0953432082e+01    0.6032023    0.3244689 -44.54  0.001678362    2.505    0.601
       275 -10.3498     16.4948    147.8005   8.3731402896e+01   4.1794906056e+01    0.2335893    0.1965002  87.82 0.0007902723    1.105    0.095
       276 -10.6319      4.4106    153.7133   8.7399281085e+01   4.1336130078e+01    0.2245387    0.1183679  41.37 0.0009519054    1.652    0.395
       277  -9.5832     61.4278    152.0641   7.1266265546e+01   3.5954513222e+01    0.2143499    0.1696871  42.54 0.0005866784    1.183    0.155
       278 -11.0584     46.4873    147.4288   7.5026184916e+01   3.8912465970e+01    0.5498515    0.2852173 -55.96  0.002567338    2.040    0.510
       279 -10.0129     49.5164    146.4324   7.4027466657e+01   3.8798887549e+01    0.2374689     0.202342 -53.77 2.149438e-05    1.327    0.247
       280 -10.6307      8.4657    148.0496   8.6011561439e+01   4.2368416885e+01    0.2903759    0.1352858 -54.28   0.00137867    2.498    0.600
       281 -11.6963      3.4867    142.1303   8.7121344194e+01   4.4134393666e+01    0.6312671    0.2846114  48.01  0.002546854    1.907    0.476
       282 -10.3561      3.0694    147.9080   8.7507547386e+01   4.2790786638e+01    0.1931211    0.1591118  75.11  0.001288455    1.037    0.035
       283  -9.7349    104.1495    147.0461   5.8567054175e+01   3.0620055331e+01    0.2023016    0.1874693  -3.55   0.00113669    1.223    0.182
       284 -10.6826     33.0302    144.3796   7.8667468930e+01   4.1109306439e+01    0.2685898    0.2267606  75.12 0.0007812254    1.027    0.026
       285 -10.3575     40.7899    138.9540   7.5788113021e+01   4.1631092912e+01    0.3933088    0.2308938 -74.05  0.001958645    1.619    0.382
       286 -11.3021     12.7136    135.6499   8.4035963221e+01   4.5043774771e+01     0.517213      0.34718 -66.88  0.002970517    1.460    0.315
       287 -11.0471     80.1223    138.5963   6.3875971876e+01   3.6512734178e+01    0.2980509    0.2406287  53.73 0.0004298112    1.177    0.150
       288  -9.4497     32.0381    137.5063   7.8308334334e+01   4.2900182926e+01    0.1893303    0.1609564  53.81 0.0007500253    1.117    0.105
       289 -11.4390     23.3318    136.7432   8.0896917564e+01   4.3903236885e+01    0.5770583    0.3451175  43.33  0.001164297    1.547    0.354
       290 -10.8284     30.1122    132.8656   7.8444414153e+01   4.4244466798e+01    0.3605855    0.3133096  21.78  0.001367746    1.328    0.247
       291 -10.6474     38.8265     22.1781   4.7016940170e+01   7.0417515151e+01     0.247801    0.1910664 -29.26 0.0003495625    1.216    0.177
