#   1 NUMBER                 Running object number                                     
#   2 MAG_AUTO               Kron-like elliptical aperture magnitude                    [mag]
#   3 X_IMAGE                Object position along x                                    [pixel]
#   4 Y_IMAGE                Object position along y                                    [pixel]
#   5 X_WORLD                Barycenter position along world x axis                     [deg]
#   6 Y_WORLD                Barycenter position along world y axis                     [deg]
#   7 A_WORLD                Profile RMS along major axis (world units)                 [deg]
#   8 B_WORLD                Profile RMS along minor axis (world units)                 [deg]
#   9 THETA_WORLD            Position angle (CCW/world-x)                               [deg]
#  10 FWHM_WORLD             FWHM assuming a gaussian core                              [deg]
#  11 ELONGATION             A_IMAGE/B_IMAGE                                           
#  12 ELLIPTICITY            1 - B_IMAGE/A_IMAGE                                       
         1  -8.2420     19.5005     21.0378   6.7859793596e+01   6.9266630182e+01    0.1678164   0.09217757 -47.16 0.0005556584    1.559    0.359
         2  -9.1641     12.0152     20.0417   7.1108459109e+01   6.9998630005e+01     0.221457     0.147362 -74.39  0.001295529    2.647    0.622
         3  -8.6127     55.7846      9.8927   4.6769073773e+01   6.6688966587e+01    0.1978278     0.154663 -39.63 0.0007029921    1.562    0.360
         4  -8.0918     47.6106      9.8116   5.0096929854e+01   6.7879084027e+01    0.1546101   0.09975495 -38.33 0.0006174625    1.649    0.394
         5  -7.9970     91.0031      8.9307   3.4272450252e+01   6.0533705772e+01    0.1848134    0.1553783 -64.57 0.0006704647    1.678    0.404
         6  -8.0183     12.6804      8.3202   6.6086731666e+01   7.1856850367e+01   0.08917668   0.08542505 -64.06 0.0005465159    1.666    0.400
         7  -7.5926    101.3354      7.7207   3.0925261514e+01   5.8497827451e+01    0.1211925    0.1019522 -78.08 0.0005507796    1.613    0.380
         8  -7.9464     70.4139      6.2043   3.9597681734e+01   6.4729708379e+01    0.1580431     0.107228 -33.74 0.0005399118    1.615    0.381
         9  -8.5809     33.3085      4.6390   5.4036621294e+01   7.0382457003e+01    0.2210303    0.1625673 -53.71  0.001127641    2.258    0.557
        10  -8.4873     79.3332      3.7043   3.5504978925e+01   6.3363110652e+01    0.2370118     0.127399 -35.44  0.001048075    2.080    0.519
        11  -8.0755     62.8211      1.4335   4.0052120687e+01   6.6547729045e+01    0.1639812    0.1068457  43.42 0.0009873161    1.502    0.334
        12  -8.4837    146.3262    239.6399   7.6797744422e+01   5.3429320422e+00    0.3168693    0.2007057  84.94  0.001507253    2.587    0.613
        13  -9.1313    247.5460    234.0557   5.7705432531e+01  -1.0473273109e+01    0.2462217    0.1813335 -14.12 0.0009960658    1.351    0.260
        14  -9.6286    246.5389    228.9048   5.7029236886e+01  -9.7309342810e+00    0.5471161    0.2352098 -23.48  0.002642792    2.863    0.651
        15  -8.6199    248.9842    249.5137   5.9911247333e+01  -1.2357906308e+01    0.2470209    0.1540867  11.95  0.001620052    1.487    0.328
        16  -9.8676    248.7576    242.1020   5.8793344797e+01  -1.1540203729e+01    0.4383116    0.2047591 -34.70  0.002487878    2.447    0.591
        17  -9.4278    211.3732    247.2520   6.5993456942e+01  -6.4958255414e+00    0.3810848    0.2391013 -61.04  0.001804906    3.504    0.715
        18  -8.6301     94.1143    249.2171   8.7322251466e+01   1.2145486860e+01    0.2823362    0.1378914  64.49  0.001199863    2.033    0.508
        19  -7.8532     86.3842    250.2316   8.8760657886e+01   1.3115353367e+01     0.148994   0.09303522  87.37 0.0006737331    1.666    0.400
        20  -7.8528     25.6735    250.3118   9.8822802543e+01   2.0977456614e+01    0.1139665    0.0508966  64.88 0.0003080713    1.663    0.399
        21  -8.0801     20.3151    247.6582   9.9532678104e+01   2.2032535532e+01    0.1146507   0.05015759  66.06 0.0007047891    1.707    0.414
        22  -9.1894    120.0008    245.0930   8.2282695106e+01   8.8114829756e+00    0.2770098    0.1715452  86.50  0.001558248    2.135    0.532
        23  -8.6880     67.5600    244.6642   9.1579423287e+01   1.6730479243e+01    0.2876408    0.1228757 -86.20  0.001421798    2.943    0.660
        24  -8.8182    201.9721    243.0198   6.7043021797e+01  -4.4653786319e+00    0.2211328    0.1774688 -49.26 0.0008867022    1.706    0.414
        25  -8.5897    169.0115    243.2851   7.3065317660e+01   9.6598743106e-01    0.1974362    0.1546791  68.10 0.0005393547    1.511    0.338
        26  -9.2059     77.9508    242.7816   8.9619861314e+01   1.5608427656e+01    0.3487672    0.1447033  63.72  0.001682525    2.501    0.600
        27  -7.8167     58.6491    244.3480   9.3083284564e+01   1.7982491787e+01    0.1260979   0.05962013  65.60 -4.868329e-05    1.822    0.451
        28  -9.1378    194.3901    240.2585   6.8007723764e+01  -2.8596158535e+00    0.3117079    0.2044791 -55.35  0.001378362    2.262    0.558
        29  -9.3501    183.1305    240.0454   7.0031086067e+01  -9.5010831857e-01    0.4030308    0.2454827  66.23  0.001972188    2.757    0.637
        30  -9.3621    159.9507    239.9266   7.4297471816e+01   2.9914897051e+00     0.316632    0.2194752 -88.80  0.001660177    2.304    0.566
        31  -8.1701    153.5007    242.0086   7.5760685597e+01   3.7673106509e+00    0.1537437     0.101987  87.39 0.0008094058    2.448    0.591
        32  -8.1514     88.0409    242.2145   8.7779930516e+01   1.4241230157e+01    0.1631785    0.1205391  66.77 0.0005098279    1.072    0.067
        33  -8.2344    214.1816    241.1739   6.4596613231e+01  -6.1960511410e+00    0.1517196    0.1315598  46.53 0.0009586423    1.362    0.266
        34  -8.9587    241.2144    238.3963   5.9474905963e+01  -1.0030772829e+01    0.3381519    0.1607873 -15.64  0.001616014    3.116    0.679
        35  -9.2852    135.5642    238.6436   7.8685911237e+01   7.3098631602e+00    0.2338031    0.1404607  67.08 0.0007759202    1.940    0.485
        36  -8.3503    129.1278    238.0472   7.9818899610e+01   8.4787186224e+00    0.2311262      0.15265 -87.60  0.001067887    1.994    0.499
        37  -9.0661    231.2224    236.3318   6.0861627499e+01  -8.2794195163e+00    0.3232932     0.225768 -36.75  0.001416385    1.759    0.432
        38  -8.5291    209.0436    238.2988   6.5076237339e+01  -5.0082401419e+00    0.1702737    0.1320127  32.26  0.000499364    1.039    0.038
        39  -9.8860    214.9353    233.1168   6.3224205407e+01  -5.3002320009e+00    0.4883609    0.3560896  89.06  0.002399556    3.587    0.721
        40  -9.1562    203.2341    234.4612   6.5541102439e+01  -3.5522928488e+00    0.3078287    0.2071416 -58.83  0.001306995    2.434    0.589
        41  -9.7879    175.6411    233.1782   7.0446035030e+01   1.3131558198e+00    0.4375205    0.2534844 -60.52  0.002239314    2.666    0.625
        42  -8.0085    170.3400    235.2611   7.1731539250e+01   1.9160866801e+00    0.1485484    0.1176536 -65.51 0.0006014735    1.679    0.405
        43  -9.0694    108.9492    234.4270   8.3193789881e+01   1.2382726275e+01    0.3828684    0.1811104  59.23   0.00131189    2.065    0.516
        44  -8.7725     78.8159    234.0811   8.8728212003e+01   1.7035488829e+01    0.2957163    0.1446391 -82.38  0.001550166    2.376    0.579
        45  -8.2022    122.9663    233.9680   8.0506772886e+01   1.0183492499e+01    0.2046098    0.1251883  67.78 0.0009958666    1.757    0.431
        46  -8.3273     99.6486    233.9442   8.4880012582e+01   1.3933753139e+01    0.2238448    0.1356556  85.61  0.001256792    1.902    0.474
        47 -10.6585      8.7960    231.1880   1.0059984249e+02   2.6178236348e+01    0.5195339    0.1198249 -79.79  0.002347435    3.841    0.740
        48  -8.3815    144.8323    233.0807   7.6253972747e+01   6.6452965195e+00    0.2724711    0.1262754  59.17  0.001167773    2.700    0.630
        49  -8.5426     92.6303    231.6745   8.5962090796e+01   1.5421628534e+01    0.3165174    0.1532194  72.87  0.001285884    2.745    0.636
        50  -9.3755     68.1732    231.4848   9.0438692129e+01   1.9016031790e+01    0.4606228    0.2143019  87.12   0.00227561    2.633    0.620
        51  -9.5323    186.3871    230.4437   6.8037418923e+01  -1.3965973381e-01     0.310641    0.2333027 -81.87  0.001262417    2.251    0.556
        52  -8.0600    158.0263    231.9827   7.3603199284e+01   4.5459019967e+00    0.1936888    0.1355038  66.85 0.0005360885    1.662    0.398
        53  -8.3744    132.4101    232.1994   7.8506812071e+01   8.9054731359e+00    0.1572882    0.1141063 -84.34 0.0004641098    1.678    0.404
        54  -9.0443    235.9069    230.3047   5.9080776343e+01  -8.2798818653e+00    0.2563477    0.1563323 -32.38 0.0008339846    1.830    0.454
        55  -8.9420      1.6829    230.3944   1.0170133208e+02   2.7026687271e+01    0.2467505    0.0989674  84.23  0.001473056    2.039    0.509
        56  -9.0361    151.4771    228.9780   7.4447952266e+01   6.1657515624e+00    0.3167908     0.207021  84.16  0.001149355    2.444    0.591
        57  -9.4360    148.8348    224.6315   7.4370208278e+01   7.3465363472e+00    0.3300557    0.2209758  73.42   0.00175864    1.931    0.482
        58  -8.2015    139.9961    229.9531   7.6777862608e+01   7.9908652983e+00    0.1970189    0.1295226  64.78 0.0005006875    1.603    0.376
        59  -8.0220    229.7564    228.8982   5.9922840327e+01  -7.1456661045e+00     0.162224    0.1419737 -76.70  0.001057756    1.995    0.499
        60  -8.4640    162.2613    227.6999   7.2204585581e+01   4.4848363604e+00    0.3012684    0.1850609  62.81  0.001544001    1.977    0.494
        61  -8.7390    128.0473    227.1572   7.8728009582e+01   1.0507931585e+01    0.3255504    0.1785648  68.17  0.001425977    2.377    0.579
        62  -8.0747    223.5319    226.6829   6.0661136367e+01  -5.8681987456e+00    0.2061502    0.1152542 -28.57  0.000853298    2.038    0.509
        63  -8.4608    119.4901    226.8128   8.0338610960e+01   1.2006074176e+01    0.2503051    0.1607071  80.03  0.001045398    1.876    0.467
        64  -7.9767     49.3161    226.8015   9.3465705203e+01   2.2390550059e+01     0.215784   0.08815505 -84.52  0.001068602    2.615    0.618
        65  -8.7875    205.9546    225.5707   6.3659819409e+01  -2.8008308200e+00    0.2388587    0.1793669 -42.29  0.000958135    1.639    0.390
        66  -8.4144    200.2097    226.1944   6.4817199749e+01  -1.9086859763e+00    0.1563267    0.1400649  56.56   0.00052761    1.332    0.249
        67  -8.8705    180.5531    223.9575   6.8161721492e+01   1.8424788868e+00    0.2657434    0.2102425  60.42  0.000868262    1.398    0.285
        68  -8.7263     93.9805    223.9102   8.4927000798e+01   1.6642677351e+01    0.3510509     0.155506  65.73  0.001359844    2.874    0.652
        69  -9.2864    238.8171    221.5442   5.7119414349e+01  -7.6578832016e+00    0.3093244    0.1634028 -33.88   0.00146504    2.059    0.514
        70  -8.8834    216.4607    223.1678   6.1355323497e+01  -4.2418773634e+00    0.2327197      0.19841 -74.55 0.0008792683    1.903    0.475
        71  -7.9686    113.7952    223.8144   8.1090255144e+01   1.3488846946e+01    0.1778891    0.1237789  67.01 0.0004693551    1.331    0.249
        72  -8.8389    104.8664    223.5622   8.2793152787e+01   1.4989547429e+01    0.2949496     0.177999  86.49   0.00156218    2.014    0.504
        73  -7.7776     38.3097    224.6369   9.5266478161e+01   2.4152274913e+01    0.1246571   0.06021742  68.20 0.0007039804    1.748    0.428
        74  -7.6542    233.3094    223.6453   5.8432947079e+01  -7.0512114783e+00    0.1067974   0.09665363  71.01 0.0007043311    1.725    0.420
        75  -8.3811    173.0611    222.8786   6.9432414196e+01   3.3376111443e+00    0.1995726    0.1638357 -80.95 0.0006988312    1.637    0.389
        76  -9.1523    160.7655    221.2851   7.1577692342e+01   5.7873571250e+00    0.6173308    0.2527329  58.36  0.002054698    4.323    0.769
        77  -7.9435     59.9551    223.4910   9.1286854003e+01   2.1636493200e+01    0.1802812   0.06308513  56.92 0.0008093715    2.560    0.609
        78  -9.4760    225.7488    221.6101   5.9428641924e+01  -5.5703977280e+00    0.2938401    0.2106228  53.73  0.001613633    1.757    0.431
        79  -9.2994    192.3497    221.0593   6.5475700325e+01   1.9834230181e-01    0.2930383    0.2431368 -78.34  0.001226435    1.768    0.435
        80  -8.5022    194.4617    232.5174   6.6851049244e+01  -1.8147065069e+00    0.2221228    0.1815028  57.75 0.0008374788    1.418    0.295
        81  -8.6305     82.9792    220.6976   8.6711667978e+01   1.8920685935e+01    0.2855489    0.1364895  68.93  0.001335564    2.415    0.586
        82  -8.1473     73.4611    220.9635   8.8549702191e+01   2.0256393296e+01    0.2556787   0.09748635  63.86  0.001025038    3.268    0.694
        83  -7.7915     27.5121    220.9775   9.6927831848e+01   2.6095258400e+01    0.1592872   0.08801813 -82.68 0.0008174187    1.566    0.362
        84  -8.2812    202.6802    219.9756   6.3364753206e+01  -1.4496837093e+00     0.167137    0.1523513  20.34 0.0004658588    1.120    0.107
        85  -9.1196    120.4734    219.1078   7.9215369126e+01   1.3231884812e+01    0.4401811    0.2086717  64.08  0.001821938    2.854    0.650
        86  -9.2931    248.0291    216.5917   5.4686175024e+01  -8.4767590881e+00    0.4069826    0.3035623 -68.44  0.002130942    3.286    0.696
        87  -9.1382    132.9886    215.8650   7.6307278535e+01   1.1664022236e+01    0.4870766    0.2722844  78.19  0.001985721    3.276    0.695
        88  -8.5675     62.2499    217.1867   9.0334532056e+01   2.2547167905e+01    0.2859972    0.1166512  63.21  0.001135723    2.521    0.603
        89  -8.8875     51.5756    216.9512   9.2314363226e+01   2.3997185542e+01    0.2643605    0.1348395  88.84  0.001036788    1.915    0.478
        90  -8.7288    169.3855    215.9958   6.9104506514e+01   5.1044381605e+00    0.2850831    0.2052378 -84.41  0.001053131    2.163    0.538
        91  -8.6552    142.9271    216.3749   7.4393788299e+01   9.8141662628e+00    0.2324374    0.1748906 -89.05 0.0008162702    1.630    0.387
        92  -8.4608    209.9593    219.0907   6.1871502303e+01  -2.5804746809e+00    0.1810954    0.1600188  48.85 0.0004609814    1.296    0.228
        93  -8.9163    232.3494    214.4926   5.7044935146e+01  -5.7141667309e+00    0.2161746    0.2111719  75.03   0.00096794    1.479    0.324
        94  -8.0160    154.7032    215.1259   7.1871650051e+01   7.9154931960e+00    0.2131087    0.1298891  74.21 0.0009357872    2.698    0.629
        95  -8.4447    185.6071    214.1314   6.5655013293e+01   2.4602659428e+00    0.2214229    0.1595054  50.49 0.0006689083    1.326    0.246
        96  -8.7862     93.1607    213.8421   8.4013694939e+01   1.8692288044e+01    0.3275244    0.1465733  61.31  0.001398574    2.421    0.587
        97  -7.8555     77.6309    214.3234   8.7118551768e+01   2.0946218648e+01    0.1309114     0.101115  68.74 0.0008429009    1.009    0.009
        98  -8.9722     72.4645    211.2948   8.7832076706e+01   2.2292192284e+01    0.4878895    0.1846804  63.20  0.001909529    3.374    0.704
        99  -9.3626    214.0379    211.8235   5.9895363600e+01  -2.2527782931e+00    0.3670925    0.2927342  62.35  0.001611191    1.676    0.403
       100  -7.9794    224.5539    212.0262   5.8010722149e+01  -4.0839960919e+00     0.172146    0.1202406 -31.47 0.0004725013    1.558    0.358
       101  -8.4174    161.6547    212.1358   7.0040667227e+01   7.1624284748e+00    0.1947649     0.159989  84.50 0.0007492573    1.477    0.323
       102  -7.8946    106.4756    212.5538   8.1206288098e+01   1.6805803143e+01    0.1334475    0.1037202  64.10 0.0003207664    1.071    0.066
       103  -9.3404      5.9629    207.9869   9.9962485841e+01   3.0833428432e+01    0.2283638   0.09137695  73.53  0.001240093    2.153    0.536
       104  -8.9820    204.3172    210.5654   6.1492991599e+01  -3.5767267825e-01    0.2466721     0.214933 -62.36 0.0008557077    1.549    0.354
       105  -9.4260    175.5215    209.8125   6.6926583978e+01   5.0014007196e+00    0.4118763    0.2658444  71.32   0.00175412    2.480    0.597
       106  -8.7227    148.2315    210.5605   7.2496028060e+01   9.8926742072e+00     0.292853     0.195578  71.38  0.001267638    1.872    0.466
       107  -8.8277    116.3508    210.0995   7.8904544620e+01   1.5623702074e+01    0.2925271    0.1829825  77.08 0.0008364654    1.926    0.481
       108  -9.2310    236.7617    208.3454   5.5187556300e+01  -5.6202820181e+00    0.3072715    0.2417759 -70.88  0.001438823    2.453    0.592
       109  -8.2918    192.2452    210.2106   6.3732091292e+01   1.8702551469e+00    0.1669438    0.1497203  72.42 0.0004454296    1.374    0.272
       110  -8.3455     46.8265    209.7008   9.2633976703e+01   2.6031849215e+01    0.2416305    0.1131145  74.50  0.001226704    2.167    0.539
       111  -8.3814     32.4130    210.1970   9.5358856601e+01   2.7644551901e+01    0.1664463   0.08315833  85.69 0.0009446121    1.782    0.439
       112  -8.3658     85.4847    209.1626   8.5034407461e+01   2.0799361388e+01    0.2443164    0.1231152  67.35  0.001148854    2.186    0.543
       113  -9.4582    246.4891    206.7617   5.3213510516e+01  -6.9879896138e+00    0.3058937    0.2084519 -25.80    0.0006834    1.472    0.321
       114  -9.3436    250.2155    201.6653   5.1652619990e+01  -6.9167636211e+00    0.3687604    0.1666136 -31.83  0.001347369    2.238    0.553
       115  -9.5815    245.8871    193.5537   5.0890675336e+01  -5.1177535394e+00    0.3807726    0.2941884 -78.13  0.001647015    2.777    0.640
       116  -7.9068    126.7045    208.5638   7.6589460234e+01   1.4122784881e+01    0.1916454    0.1056845  52.83 0.0009346718    1.603    0.376
       117  -9.1994     99.4293    206.0014   8.1848686634e+01   1.9242246931e+01    0.3851537    0.2081806  81.69   0.00126349    2.617    0.618
       118  -7.8394    156.4895    207.5451   7.0372400035e+01   8.9134921576e+00     0.137116    0.1150671  52.86 0.0003072042    1.058    0.055
       119  -8.5370     56.3585    205.1006   9.0412440872e+01   2.5747956501e+01    0.2869371    0.1385305  70.62 0.0009948522    2.125    0.530
       120  -8.6265     11.9816    206.5107   9.8824915067e+01   3.0540997726e+01    0.1496787    0.0902825  47.15 0.0006608411    1.559    0.358
       121  -9.2728    194.8817    203.5480   6.2090941979e+01   2.4388616973e+00    0.3145709    0.2673169 -81.94  0.001183377    1.641    0.391
       122  -9.3753    192.6418    197.3445   6.1440536873e+01   3.8637439366e+00    0.4774512    0.3443063  80.61  0.001223405    2.351    0.575
       123  -9.0158    183.8136    203.8232   6.4301633848e+01   4.4526359427e+00    0.3093608    0.2269309  69.55   0.00123689    1.819    0.450
       124  -8.2322    109.0632    205.0450   7.9749456864e+01   1.7843212317e+01    0.2148378    0.1369016  71.80 0.0006536176    1.674    0.402
       125  -9.6775    164.0339    202.9338   6.8114608022e+01   8.3218470472e+00    0.4784049    0.2610299  58.85   0.00133852    2.186    0.543
       126  -8.6701    131.1495    203.6314   7.4983858675e+01   1.4272646258e+01    0.2874158    0.1912064  79.20  0.001298315    1.892    0.471
       127  -8.1279     66.4185    203.8476   8.8305277646e+01   2.4649181478e+01     0.168865    0.1025913 -61.22 0.0009564668    1.806    0.446
       128  -9.0546    243.1342    200.4750   5.2651751864e+01  -5.6089603722e+00    0.2890572    0.1750024 -32.57  0.001050893    1.696    0.410
       129  -8.4082    210.9872    201.8048   5.8710305654e+01  -2.3465443884e-01     0.210738    0.1729025 -58.88 0.0008931599    1.658    0.397
       130  -8.7438    140.6972    201.1027   7.2627441110e+01   1.3016420006e+01    0.3290429    0.2185899  73.50  0.001447963    1.884    0.469
       131  -7.5911     72.6968    202.2868   8.6885476918e+01   2.4084961889e+01    0.1307507   0.07754187  68.29 0.0002917885    1.562    0.360
       132  -8.2483     48.6561    202.3130   9.1678010042e+01   2.7303775378e+01    0.2049779    0.1058722  69.16  0.001104378    1.788    0.441
       133  -8.3182     10.4792    202.4702   9.8868228175e+01   3.1488077499e+01    0.1120115   0.07823882  77.03 0.0008095545    1.007    0.007
       134  -8.0081    222.1399    201.1337   5.6519540696e+01  -2.1225618306e+00    0.1596926    0.1567875 -85.76 0.0005088095    1.357    0.263
       135  -8.2997     79.7817    201.0154   8.5305337207e+01   2.3311946540e+01    0.2193031     0.118692  74.73  0.001011495    2.084    0.520
       136  -9.4414    149.7374    198.5506   7.0350340411e+01   1.1813250095e+01     0.457278    0.2893048  79.75  0.001515954    2.550    0.608
       137  -8.7463    123.9444    198.8282   7.5801686331e+01   1.6498156389e+01    0.2807249    0.1749577 -84.73 0.0009662771    2.172    0.540
       138  -9.2056    112.9848    198.3471   7.8046948950e+01   1.8515444398e+01    0.4444251    0.2336292  69.69  0.001841793    2.667    0.625
       139  -9.2435    237.1343    198.3493   5.3311459845e+01  -4.3143435353e+00    0.2537681    0.1703188 -37.60  0.000808884    1.633    0.388
       140  -8.1933    177.1024    198.6603   6.4760133745e+01   6.5927912807e+00    0.2069627     0.186544 -75.42 0.0004397464    1.328    0.247
       141  -9.0939     88.6207    198.2691   8.3161454639e+01   2.2533888399e+01    0.3417684    0.1970513  78.73  0.001404246    2.003    0.501
       142  -8.2520    202.1378    197.4374   5.9610913876e+01   2.0672353254e+00    0.1996672    0.1837924 -73.76 0.0006733762    1.399    0.285
       143  -9.0002     61.6453    197.1071   8.8609429686e+01   2.6699293582e+01     0.432152    0.1921981  66.36  0.001944069    2.516    0.603
       144  -8.0124     54.1714    196.7670   9.0092102013e+01   2.7755353385e+01    0.2237108   0.09284118  66.94 0.0009523292    2.825    0.646
       145  -8.2199     29.4682    197.5266   9.5020177035e+01   3.0536328641e+01    0.1194654   0.08489199  75.63 8.828445e-05    1.055    0.052
       146  -9.1789     12.5326    196.7121   9.8159550313e+01   3.2446273567e+01    0.3035919     0.111267  87.79  0.001468112    2.615    0.618
       147  -8.6921    216.0517    195.5915   5.6634683001e+01  -2.0600765207e-01    0.2409518    0.2040814 -75.69 0.0008421152    1.767    0.434
       148  -8.2106    133.1098    195.6810   7.3399039350e+01   1.5460761488e+01    0.2259685    0.1778101 -87.94 0.0005503989    1.405    0.288
       149  -8.7482    224.7270    193.9790   5.4731581122e+01  -1.5255033966e+00    0.2790069    0.1958891 -51.45  0.001275962    1.901    0.474
       150  -7.5629    209.4809    195.5067   5.7856591407e+01   1.0108373569e+00    0.1325281    0.1192122  32.26 0.0008089657    1.084    0.077
       151  -8.9654    185.2163    194.4937   6.2405453728e+01   5.7572759570e+00    0.2739231    0.2178026 -65.01 0.0009097798    1.617    0.382
       152  -9.1212    160.9729    193.9954   6.7267059725e+01   1.0521382115e+01    0.3286109    0.2325745  81.38    0.0011559    2.007    0.502
       153  -7.9380    230.9393    194.0303   5.3613898899e+01  -2.6313026791e+00    0.1568029    0.1353491  15.15 0.0004178501    1.005    0.005
       154  -8.6882     77.0480    193.6638   8.5054910244e+01   2.5253217422e+01    0.2392301    0.1720559  77.18  0.000676561    1.232    0.189
       155  -9.0522     43.8967    193.2559   9.1846719859e+01   2.9771705531e+01    0.3803513    0.1653323  66.78  0.001802552    2.398    0.583
       156  -8.3972    199.0005    191.5548   5.9148967058e+01   3.6128889035e+00    0.2307924      0.19212 -64.12 0.0007129826    1.564    0.361
       157  -8.2996    172.3428    191.4947   6.4485619537e+01   8.7755137251e+00     0.214156    0.1660705 -78.32 0.0005772024    1.728    0.421
       158  -9.1133    139.4466    190.2624   7.1200056914e+01   1.5350622845e+01    0.3825034     0.244355  78.92  0.001162971    2.262    0.558
       159  -8.2157    139.2178    207.9947   7.3951800942e+01   1.1995927620e+01    0.2122148    0.1427236  83.08 0.0008151744    2.005    0.501
       160  -7.6957    205.4307    191.5138   5.7895130825e+01   2.4010543661e+00    0.1342175    0.1211704  28.28 0.0003453755    1.036    0.035
       161  -8.1010    179.1932    191.2458   6.3041334545e+01   7.4865024978e+00     0.183238    0.1575124  74.77 0.0004805481    1.361    0.265
       162 -10.3481     92.7197    188.8228   8.1117137509e+01   2.3872616011e+01    0.9577617    0.2468318  49.94  0.003125501    3.869    0.742
       163  -9.2296     21.6454    191.3318   9.6087160984e+01   3.2645109402e+01    0.3350516   0.04823037  48.78  0.001236732    4.514    0.778
       164  -8.7962    216.5504    187.7829   5.5080673254e+01   9.1331734193e-01    0.2613195    0.2275496 -70.69 0.0008771343    1.590    0.371
       165  -8.2314    148.6309    189.1179   6.9047557666e+01   1.3824779910e+01    0.2154386     0.170241 -88.35  0.001074762    1.495    0.331
       166  -8.7672    129.2307    188.4146   7.3111603252e+01   1.7630075047e+01    0.2952914    0.1900649  70.91 0.0007879361    1.853    0.460
       167  -9.5363    120.7090    185.9775   7.4594639911e+01   1.9690153004e+01    0.5148348    0.2740843 -74.95  0.002106146    2.707    0.631
       168  -9.1334     34.2311    187.9457   9.3345552753e+01   3.2013561603e+01    0.3000164    0.1376216  76.48  0.001482086    2.248    0.555
       169  -8.2483    237.2663    188.0909   5.1361423667e+01  -2.8724918683e+00     0.178448    0.1533633 -17.93 0.0005559354    1.158    0.137
       170  -9.0062    191.1416    186.9821   5.9855418907e+01   5.9013289815e+00    0.3327893    0.2576917  86.82    0.0011452    1.931    0.482
       171  -9.1599    156.0096    187.2799   6.7164776492e+01   1.2749837323e+01    0.3146608    0.2248598 -67.21 0.0008606545    1.705    0.414
       172  -9.1566     54.7529    186.6033   8.8994584200e+01   2.9842043384e+01    0.4036954    0.1877168  74.07  0.001549014    2.587    0.613
       173  -8.3243    230.6570    187.1928   5.2370792473e+01  -1.5714063952e+00    0.1874411    0.1616532 -45.74 0.0006756798    1.414    0.293
       174  -8.7399    164.8911    186.3693   6.5129058897e+01   1.1180089501e+01    0.2801943     0.200644 -70.25 0.0007666147    1.828    0.453
       175  -9.0573    109.6283    185.9428   7.7024939874e+01   2.1661429762e+01     0.387621    0.2341153  78.71   0.00115136    2.150    0.535
       176  -9.0409    249.3248    185.3271   4.8735810421e+01  -4.5450822868e+00    0.2640216    0.2004371 -43.33 0.0009369742    1.577    0.366
       177  -8.6429    202.8449    184.4202   5.7062486499e+01   4.0608626558e+00     0.236609    0.1929053 -61.46 0.0006710429    1.577    0.366
       178  -8.8014    182.9724    184.5984   6.1061520545e+01   7.9270698173e+00    0.2468996    0.1954668 -68.96 0.0007254601    1.628    0.386
       179  -8.9450     66.8039    184.1969   8.6170582461e+01   2.8753932503e+01    0.3943936    0.2090285  71.03  0.001407434    2.054    0.513
       180  -8.6814    224.1298    183.3906   5.2827835647e+01   1.9580805405e-01    0.2356129    0.1889215 -38.68 0.0004229791    1.364    0.267
       181  -9.0017    210.2798    183.4678   5.5443699399e+01   2.7881106537e+00    0.3876023    0.2080499 -28.21  0.001394772    2.238    0.553
       182  -8.9005    174.2968    183.5029   6.2645306583e+01   9.8497443186e+00    0.2774727    0.2272344  86.26 0.0005684784    1.538    0.350
       183  -8.2814      1.9196    183.8606   9.9394607405e+01   3.6041050196e+01    0.1851981   0.09087028  67.31  0.001120846    1.687    0.407
       184  -9.1056     44.6579    182.3238   9.0702422601e+01   3.2018812159e+01    0.3527529    0.1750453  71.07  0.001021252    2.067    0.516
       185  -9.8400    146.5196    179.8465   6.7918002645e+01   1.6072023554e+01    0.5336594    0.2968884  63.13  0.002176914    2.320    0.569
       186  -7.9617     19.3571    182.6663   9.5922116356e+01   3.4691493492e+01    0.1282406   0.06333749  67.65 0.0002191868    1.798    0.444
       187  -7.8825    235.3949    181.2707   5.0374517894e+01  -1.5311745963e+00    0.1765271    0.1198215 -43.29 0.0005794474    1.666    0.400
       188  -8.0243     90.3181    181.3498   8.0656674059e+01   2.5869282573e+01    0.1252352    0.1072811 -28.75  0.000650224    1.735    0.424
       189  -9.7924     25.5033    178.5317   9.4361823009e+01   3.4958214901e+01    0.6500728     0.237345  78.28   0.00250535    3.861    0.741
       190  -8.6854    137.7892    179.0870   6.9707764305e+01   1.7925597605e+01    0.3400983    0.2217871  71.76  0.001231744    1.929    0.482
       191  -8.5728    250.5273    172.1527   4.5943268639e+01  -2.8527864911e+00    0.2324374    0.1499707 -31.51  0.001164764    1.483    0.326
       192  -9.2326    248.9332    177.2881   4.7234250580e+01  -3.3271602514e+00     0.306132    0.2388641 -45.20   0.00135575    1.535    0.348
       193  -8.1698    247.4684    173.5478   4.6741035531e+01  -2.5232183781e+00    0.2128995    0.1605681  20.96 5.592949e-05    1.291    0.225
       194  -7.4481    240.6791    179.6796   4.9129759896e+01  -2.2349411811e+00    0.1367481    0.0933877   7.51 0.0006008554    1.669    0.401
       195  -9.3808    191.4777    178.0264   5.8088119420e+01   7.4047016655e+00    0.3014789    0.2564418  83.69 0.0005931793    1.497    0.332
       196  -9.2394     36.2556    176.6223   9.1950096169e+01   3.4227634298e+01    0.5492584    0.2094875  78.83  0.001983239    4.197    0.762
       197  -8.7770    205.1566    177.5702   5.5285663995e+01   4.7652219241e+00    0.2263015    0.1873733 -47.65  0.000556246    1.366    0.268
       198  -7.9665    169.2265    178.4351   6.2769674908e+01   1.1817545664e+01    0.2004063    0.1271799  54.56 0.0004979969    1.586    0.370
       199  -8.6015    129.2389    176.8837   7.1239861542e+01   2.0019153057e+01    0.3145589    0.2097429 -85.06 0.0008888419    1.961    0.490
       200  -8.5720    231.1615    176.7325   5.0238317439e+01  -6.7184587738e-02    0.2169252    0.1767437 -39.18 0.0006621777    1.337    0.252
       201  -8.4332    217.4604    176.9592   5.2808353154e+01   2.4756232628e+00    0.2316311    0.1927979 -55.47 0.0008286579    1.490    0.329
       202  -9.1953    183.0191    175.9018   5.9402933884e+01   9.4966967253e+00    0.2959684    0.2425184 -86.92 0.0008310223    1.595    0.373
       203  -8.0169     97.3378    177.3107   7.8516781022e+01   2.5612572753e+01    0.1264132    0.1113663 -15.87 0.0007044802    1.687    0.407
       204  -8.8597     89.1979    176.6338   8.0264087781e+01   2.7084392042e+01    0.2944569    0.1849779  72.74 0.0008740169    1.705    0.414
       205  -9.9668     57.5987    173.3976   8.6971886512e+01   3.2375246374e+01    0.8043199    0.3413959  80.85  0.002723213    4.415    0.773
       206  -8.1377    197.1935    183.7577   5.8046100242e+01   5.2725695781e+00    0.2177214    0.1535646  88.91 0.0008654487    2.717    0.632
       207  -9.2073    158.7133    174.7140   6.4330195622e+01   1.4668333910e+01     0.380425    0.2665179  86.79  0.001075104    2.093    0.522
       208  -9.2387    104.0646    174.4167   7.6555500952e+01   2.5112375160e+01    0.5082929    0.2535333  65.95  0.001735533    2.832    0.647
       209 -10.6944     75.8560    169.8672   8.2392612860e+01   3.0642175493e+01     1.229319     0.447868 -76.75  0.003826471    4.668    0.786
       210  -8.2123    224.6497    174.1168   5.0902967146e+01   1.5638001610e+00    0.2039888     0.169758 -52.51 0.0008182715    1.465    0.317
       211  -9.6476    175.7458    171.8250   6.0127951041e+01   1.1748615638e+01    0.3780081    0.2686787 -44.22 0.0009585032    1.522    0.343
       212  -8.2974    142.8709    172.3599   6.7392412369e+01   1.8324694171e+01     0.201364    0.1747852  85.73 0.0006209773    1.196    0.164
       213  -8.5467    134.7984    171.5025   6.9056557224e+01   2.0090343279e+01    0.2759196    0.1876456 -77.36 0.0008880177    1.834    0.455
       214  -9.0737     45.1476    170.9258   8.9469444062e+01   3.4468758986e+01    0.3594126    0.1751701  81.33  0.001358472    2.334    0.572
       215  -8.3605    206.0038    170.2925   5.3667994235e+01   5.8463090140e+00    0.2359697    0.1962093 -68.04 0.0005031567    1.559    0.359
       216  -9.4556    121.3916    170.2318   7.1898529893e+01   2.2920183195e+01    0.3772874    0.2607691 -89.57 0.0009166537    1.763    0.433
       217  -8.5238    237.1239    169.6097   4.7742856041e+01  -6.0919207867e-02    0.2176635    0.1778483 -35.88 0.0006072441    1.273    0.214
       218  -8.7841    230.4669    169.6465   4.8938804072e+01   1.1770272436e+00    0.2516446    0.1859712 -21.77 0.0007939607    1.370    0.270
       219  -8.2960    198.4807    170.0702   5.5107769850e+01   7.4062060896e+00    0.2186187    0.1989494  75.81  0.001022745    1.284    0.221
       220  -8.6216    149.7859    169.4170   6.5304675392e+01   1.7548464011e+01    0.2797365    0.2154005  80.83 0.0009370931    1.539    0.350
       221  -7.2746     68.3665    170.6873   8.4217606080e+01   3.1531814495e+01    0.1441521   0.08473768  69.36 0.0007038315    1.765    0.433
       222  -8.4483    244.4641    169.0765   4.6355969529e+01  -1.3184052683e+00    0.1932561    0.1224178 -33.86 0.0004741534    1.534    0.348
       223  -9.0191    166.7224    168.2484   6.1356541499e+01   1.4308775806e+01    0.2843557    0.2212344  79.91  0.000639593    1.597    0.374
       224  -8.3564     88.3045    168.5921   7.9326520333e+01   2.9024466570e+01    0.2411533    0.1812275  76.29 0.0007995628    1.265    0.210
       225  -8.4704    218.8011    168.1180   5.0774503883e+01   3.6738035580e+00    0.1967435    0.1899282 -71.97 0.0004801144    1.243    0.196
       226  -7.7414    211.2921    167.9774   5.2172007133e+01   5.1856284884e+00    0.2143846    0.1062538 -57.96 0.0007006123    4.028    0.752
       227  -8.8053    111.6672    167.2674   7.3655682223e+01   2.5355372942e+01    0.3666058    0.2273946  80.82   0.00122994    2.187    0.543
       228  -9.0673    191.8654    166.3582   5.5688060718e+01   9.4372475150e+00    0.3180026    0.2050793 -47.84 0.0006944378    1.697    0.411
       229  -8.5351    185.0314    166.2736   5.7076866237e+01   1.0874832169e+01    0.2492223    0.2016478 -74.95 0.0005875769    1.576    0.365
       230  -9.0831     20.7944    166.3297   9.4354494482e+01   3.8074082502e+01    0.2889719    0.1163914  54.50  0.001447726    2.358    0.576
       231  -9.6975    137.3582    164.4821   6.7194832198e+01   2.1083337479e+01    0.7688077    0.3129294  58.15  0.002347376    3.789    0.736
       232 -10.0033     94.8751    162.5541   7.6857804092e+01   2.9326271385e+01    0.8272294    0.4186336  76.83  0.002734806    3.994    0.750
       233  -8.2034    234.0027    164.9614   4.7344846692e+01   1.2549890511e+00    0.1986945    0.1661153 -66.33 0.0006267325    1.641    0.390
       234  -9.8910     33.8009    163.1700   9.1210955109e+01   3.7471068450e+01    0.5398275    0.1981455  59.03  0.002157312    3.136    0.681
       235  -8.5620    246.0483    163.1039   4.4864994769e+01  -6.9339383422e-01    0.2263761    0.1772487 -28.10 0.0004900746    1.214    0.176
       236  -8.3871    239.9525    163.6387   4.6024355537e+01   3.4677023307e-01    0.2590691    0.1665147 -50.20 0.0006710591    1.926    0.481
       237  -8.7614    212.9424    163.4391   5.0918227317e+01   5.6342250404e+00    0.2528258    0.1925904 -53.97 0.0006212574    1.559    0.359
       238  -8.5637    159.3826    164.0086   6.2128641048e+01   1.6686128410e+01    0.2679852    0.2001501  71.64 0.0008999264    1.574    0.365
       239  -8.9427     13.1169    176.5759   9.6739308551e+01   3.6576152991e+01    0.2359375    0.1302597  70.95  0.001170009    1.536    0.349
       240  -8.5124    204.9417    162.5111   5.2275542654e+01   7.4285706353e+00    0.2618195    0.1953963 -55.89 0.0006398289    1.605    0.377
       241  -8.6692     60.8339    160.0163   8.4610169181e+01   3.4985202245e+01    0.3173928    0.1838768  78.26  0.001247013    1.911    0.477
       242  -9.4394      3.4192    162.1686   9.7725518531e+01   4.0490220452e+01    0.3906671    0.1533145  60.10   0.00186724    2.456    0.593
       243  -9.1141    177.3420    160.4172   5.7494624701e+01   1.3617685055e+01    0.2913918    0.2416992 -83.68 0.0008211207    1.480    0.324
       244  -8.7656    151.6671    160.7831   6.3217229064e+01   1.8957116070e+01    0.2853152    0.2154634  88.90  0.001182799    1.670    0.401
       245  -8.6652    227.4037    158.8592   4.7259237875e+01   3.5224025385e+00    0.3037244    0.1908861 -54.79 0.0009880713    2.129    0.530
       246  -8.4884    245.4097    158.4624   4.4011907159e+01   1.4236711405e-01    0.2232549    0.1615483 -19.11 0.0001080257    1.375    0.272
       247  -9.6089    250.1819    157.6858   4.3047930536e+01  -6.1424515501e-01    0.3336636    0.1742966 -35.32 0.0008207085    1.808    0.447
       248  -8.6496    246.5864    155.4692   4.3186748619e+01   3.9144191556e-01    0.2092894    0.1708498  25.30  0.000549399    1.221    0.181
       249  -8.5364    237.4009    159.1890   4.5544809967e+01   1.5320202667e+00    0.1904427    0.1218825 -44.78  0.000941277    1.688    0.408
       250  -8.3686    128.2859    158.8111   6.8246609424e+01   2.4107582770e+01    0.2796697    0.2102846  85.39  0.001362635    1.532    0.347
       251  -9.4859    105.8926    157.7957   7.3421075330e+01   2.8519129173e+01     0.502763    0.3046124  75.69  0.001302866    2.235    0.553
       252  -8.6537    196.5992    157.6565   5.2914619286e+01   1.0050641819e+01    0.2774835    0.2190833 -62.12 0.0009379226    1.529    0.346
       253  -8.3720    188.1653    157.6511   5.4639232780e+01   1.1844175443e+01    0.2484142    0.1959856 -54.16 0.0006823104    1.402    0.287
       254  -9.2369    167.5248    156.9739   5.8905149835e+01   1.6396931037e+01    0.3502326    0.2549787 -68.47 0.0009407265    1.707    0.414
       255  -8.5342    217.9759    156.4017   4.8479786664e+01   5.8271915712e+00    0.2643152    0.1886198 -52.15 0.0007610249    1.635    0.388
       256  -8.8293    157.8163    156.1036   6.0884522494e+01   1.8644013887e+01    0.2962971    0.2086624 -65.22 0.0008957955    1.680    0.405
       257  -9.6040     81.6290    155.1753   7.8905428580e+01   3.3141773328e+01    0.4614606    0.3408103  87.09  0.001449297    1.333    0.250
       258  -9.1196    119.6574    155.1803   6.9625261773e+01   2.6581227123e+01    0.4053844    0.2658404  85.34  0.001534635    2.080    0.519
       259  -9.2879     49.7913    155.1383   8.6622449111e+01   3.7496025052e+01    0.4000952    0.1936992  62.07  0.001619073    2.321    0.569
       260  -7.8162    237.4201    150.4541   4.3689927603e+01   2.9411465742e+00    0.1354807    0.1268004 -15.94 0.0001072232    1.052    0.050
       261  -8.1608    243.0254    154.7336   4.3635561190e+01   1.1750771858e+00    0.1829337    0.1674897  20.40 0.0003376852    1.091    0.083
       262  -8.3801    240.0019    153.2188   4.3833395070e+01   1.9930197068e+00      0.19731    0.1873583 -53.04 0.0004044804    1.231    0.187
       263  -8.0609    204.5641    155.0689   5.0773550513e+01   8.8426565424e+00    0.2114391     0.141248 -41.77  0.000596353    1.544    0.352
       264  -8.6326    144.4010    154.7465   6.3676792717e+01   2.1746287314e+01    0.2832372    0.2234737  76.70 0.0007821182    1.413    0.292
       265  -9.6420     68.2523    153.6775   8.1960145677e+01   3.5446447108e+01    0.4477229    0.2329624  71.19  0.001659176    2.569    0.611
       266  -8.0675    232.5309    153.5173   4.5204191514e+01   3.3968335902e+00    0.2342502    0.1228637 -46.80 0.0006666569    2.141    0.533
       267  -9.7169    132.8520    152.7871   6.6002017690e+01   2.4532801319e+01    0.4690223    0.3310567  80.20  0.001091831    1.789    0.441
       268  -9.0769    133.4987    148.0399   6.4893403028e+01   2.5454086665e+01    0.3791608    0.2372994 -49.68  0.001229828    1.656    0.396
       269  -9.9132     29.4586    150.6037   9.0930648028e+01   4.0749728780e+01    0.4330739    0.1956433  72.41  0.001590044    2.713    0.631
       270  -9.2126     20.2524    152.1881   9.3225734412e+01   4.1259936105e+01    0.2236303    0.1142053  62.63 0.0008592983    1.947    0.487
       271  -8.7324      8.8920    152.6960   9.5833721361e+01   4.2115375918e+01    0.1796471     0.110654  15.81  0.001076593    2.497    0.600
       272  -8.8662      3.0947    150.6677   9.6958847267e+01   4.3010200934e+01    0.2852519    0.1170161 -86.72  0.001445781    2.075    0.518
       273  -8.9885    243.2685    149.7650   4.2539304160e+01   1.9214073425e+00    0.2953705    0.1743942 -39.67  0.001033795    1.649    0.394
       274  -8.1676    182.4183    151.1481   5.4450839826e+01   1.4338643034e+01    0.2081339    0.1411837 -57.51 0.0006819631    1.730    0.422
       275  -8.4282     98.0853    150.5099   7.4065907588e+01   3.1554800612e+01    0.2700346    0.1865684 -84.12 0.0007443095    1.598    0.374
       276  -9.5209    248.9373    149.0557   4.1439317633e+01   9.5898034328e-01    0.3352433     0.181147 -34.19 0.0007898221    1.738    0.425
       277  -9.0022    247.0828    143.4755   4.0550418393e+01   2.1978081950e+00    0.2969031    0.1866681 -39.08 0.0005703476    1.519    0.342
       278  -8.7657    189.4613    149.9007   5.2703419503e+01   1.3045661527e+01    0.2683853    0.2274686 -85.09 0.0007490958    1.441    0.306
       279  -8.3078    162.6846    150.2148   5.8555210782e+01   1.8824406473e+01    0.2376499    0.1921419 -76.03 0.0009718142    1.444    0.308
       280  -8.2112    212.9755    149.3705   4.7907109340e+01   8.0947540260e+00    0.1998696    0.1792639  44.49 0.0004464815    1.120    0.107
       281  -8.5448    198.7411    148.5888   5.0522126677e+01   1.1278202511e+01    0.2681935    0.2297408 -65.78 0.0007177826    1.353    0.261
       282  -9.9649     89.3687    146.2136   7.5505489835e+01   3.4009920567e+01    0.6747633    0.3604967  88.66  0.002389034    3.395    0.705
       283  -9.8631     39.8481    147.5835   8.8105223340e+01   4.0369246891e+01    0.4946686    0.2425207  72.94  0.001679738    2.524    0.604
       284  -8.9954    233.7483    147.3435   4.3659883989e+01   4.1789526884e+00    0.2970914    0.1803415 -35.09 0.0008746884    1.594    0.373
       285  -9.3226     57.5720    134.7512   8.1854717914e+01   4.1300955535e+01    0.2864543    0.1976362   4.05  0.001418486    2.473    0.596
       286  -8.4005    223.1857    146.6525   4.5402926226e+01   6.4416959815e+00     0.232629    0.1845704 -44.10 0.0003953191    1.303    0.232
       287  -9.9997    139.2782    145.0596   6.2888265088e+01   2.4923034542e+01    0.4382839    0.2839057 -77.90  0.001162622    2.214    0.548
       288 -10.1485    106.7699    144.0547   7.0702908075e+01   3.1521155335e+01    0.7520892    0.4592177  85.26  0.002275395    2.508    0.601
       289  -9.2693     77.9994    146.8306   7.8489320063e+01   3.5639674645e+01    0.2960811    0.1971442  85.44 0.0009074666    1.659    0.397
       290  -9.4820     13.6905    146.2305   9.4189619317e+01   4.3158895409e+01    0.3356484    0.1709965  60.39  0.001584007    1.961    0.490
       291  -8.9421    240.2291    145.2043   4.2074487191e+01   3.2491246780e+00    0.2297134     0.160101 -32.04  0.000448455    1.367    0.268
       292 -10.1711    243.1941    141.6212   4.0794986548e+01   3.2521469611e+00     0.627833    0.2318565 -43.36  0.002346889    2.776    0.640
       293  -8.0074    206.5443    146.0598   4.8418278948e+01   1.0060878185e+01    0.2136937     0.142977 -40.50 0.0006670143    1.513    0.339
       294  -8.1819    175.6723    146.1385   5.4800979985e+01   1.6814075085e+01    0.2348337    0.1877789 -71.13 0.0006926208    1.486    0.327
       295  -9.7991    125.1911    142.6771   6.5819529238e+01   2.8329826025e+01    0.5440388    0.3536233 -89.14  0.001338664    2.284    0.562
       296  -8.6623    165.5670    143.8745   5.6529623497e+01   1.9509908628e+01    0.2858613    0.2278656  82.09 0.0007398123    1.504    0.335
       297  -7.4900    194.3333    143.7056   5.0329056113e+01   1.3163579943e+01    0.1499179    0.1198372  89.51 0.0003978072    1.639    0.390
       298 -10.6235     69.4333    140.9241   7.9729841420e+01   3.8270257368e+01    0.5058805    0.3044294 -87.50  0.001894542    1.909    0.476
       299  -9.5960      2.9579    141.6006   9.6272212991e+01   4.5011407586e+01     0.387949    0.1832124  76.61  0.001876183    2.088    0.521
       300 -10.6268    149.0160    144.9735   6.0564441036e+01   2.2882412312e+01    0.6562681    0.4216306  89.29  0.001632234    2.712    0.631
       301  -8.2803    182.1399    141.4794   5.2369004862e+01   1.6307661906e+01    0.2413809    0.2046573 -78.14 0.0004861314    1.378    0.275
       302  -8.0229    250.5030    140.5427   3.9357718867e+01   2.0108735408e+00    0.1344824    0.1236935 -23.26 9.417619e-05    1.050    0.047
       303  -9.9476     23.4174    137.8176   9.1017696059e+01   4.4227878714e+01    0.4873665    0.2228811  73.52  0.001846892    2.747    0.636
       304 -10.3661     54.9786    144.3951   8.3942760756e+01   3.9358487518e+01    0.8343512    0.4128614  80.96  0.003082254    3.020    0.669
       305  -7.6948    218.5747    138.5173   4.4441787307e+01   8.8366246657e+00    0.1425443    0.1384345 -35.97  0.000191572    1.061    0.057
       306  -8.4402    207.7428    137.8539   4.6340028577e+01   1.1306057908e+01    0.2703191    0.1976095 -59.01 0.0007556475    1.629    0.386
       307  -8.6600    197.5276    137.3084   4.8229979801e+01   1.3672994399e+01    0.3000475    0.2228213 -72.12 0.0008535237    1.813    0.448
       308  -8.4829    172.2823    138.1268   5.3742947300e+01   1.9197311973e+01    0.2769026    0.1983776  79.61 0.0006973782    1.914    0.478
       309 -10.5215     83.4638    133.1521   7.4697643698e+01   3.8027889330e+01    0.7950053    0.3527069 -63.84  0.001685843    2.269    0.559
       310  -8.9645    248.6109    134.9275   3.8441331763e+01   3.2773382209e+00    0.2793407    0.2024693 -40.64  0.000735578    1.324    0.245
       311  -8.4888    246.9159    130.1125   3.7652885041e+01   4.3943325903e+00    0.2744503    0.1726988 -47.58 0.0006536288    1.657    0.397
       312  -8.3945    187.8288    135.7363   4.9855190953e+01   1.6160445340e+01    0.2092786    0.1788975 -77.86 0.0005423212    1.358    0.263
       313  -8.7881    162.4549    135.9639   5.5451150092e+01   2.1855929824e+01    0.2812566    0.2174217 -67.89 0.0007948342    1.484    0.326
       314  -9.5392     39.0713    135.6430   8.6805739885e+01   4.3217819412e+01     0.296115    0.1868847  83.19  0.001002172    1.596    0.374
       315  -9.1640    151.1920    135.3836   5.7931925024e+01   2.4483110213e+01    0.3697381    0.1769835  42.55 0.0009886083    2.100    0.524
       316  -8.9684    156.0240    133.8533   5.6448370481e+01   2.3741960039e+01    0.3656407    0.2667588 -55.11 0.0009850329    1.436    0.304
       317  -9.8095    152.8654    128.9767   5.6054313716e+01   2.5494639393e+01    0.8248819    0.2801109 -48.56   0.00258577    3.087    0.676
       318  -8.3149    125.5035    135.4853   6.4224230554e+01   2.9898926862e+01    0.2717558    0.1456027  32.49  0.001024173    2.385    0.581
       319  -8.5786    179.3128    133.6735   5.1181389024e+01   1.8507276476e+01    0.2784574    0.1809684 -53.82 0.0006133107    1.693    0.409
       320  -8.9223    112.8761    133.0004   6.6915417359e+01   3.2947209166e+01    0.3690705    0.2555986  83.02  0.001050338    1.878    0.468
       321  -9.8130     70.1569    133.7431   7.8352633625e+01   3.9865606626e+01    0.2994046    0.1987899  19.88  0.001461813    2.147    0.534
       322  -7.7754    237.5193    133.4933   3.9956905441e+01   5.7333112506e+00    0.1398455    0.1310972 -43.77 0.0008081025    1.108    0.097
       323  -7.5501    231.5097    133.5809   4.1007149192e+01   6.9609325614e+00    0.1401434    0.1337559 -10.56 0.0001258487    1.014    0.013
       324  -9.2809    143.1729    131.7216   5.9015200235e+01   2.7035035248e+01    0.3771218      0.26631 -75.38 0.0007984082    1.808    0.447
       325 -10.2502    132.2485    130.9159   6.1523350791e+01   2.9544783114e+01    0.6260531    0.3705705 -72.46  0.001228824    2.535    0.606
       326 -10.0462     97.7901    129.1697   7.0088625891e+01   3.6594647564e+01     0.690979    0.2175819 -53.51  0.002315812    2.999    0.667
       327  -8.6459    250.8178    129.7962   3.6960797523e+01   3.6734552297e+00    0.4028293    0.1014976 -34.34  0.001228919    3.947    0.747
       328 -10.1745     13.0740    129.0962   9.2664011532e+01   4.7061419229e+01    0.4854282    0.2179575  75.55   0.00185949    2.739    0.635
       329  -7.7398    204.4420    130.2407   4.5221974400e+01   1.3453371271e+01    0.2078165    0.1397323 -50.95 0.0005795462    1.598    0.374
       330  -7.8552    192.8309    129.8899   4.7454963013e+01   1.6160545133e+01    0.2068941    0.1798161 -77.29  0.000410498    1.308    0.235
       331  -9.0806    168.2415    129.2335   5.2570416948e+01   2.1949952732e+01    0.2817988    0.2357854 -85.72 0.0004915152    1.378    0.274
       332  -9.7292     73.1860    129.2288   7.6745206100e+01   4.0503305245e+01    0.3878775    0.2501302 -86.20 0.0008681166    1.782    0.439
       333 -10.8044     45.1322    123.3426   8.3438177205e+01   4.5445299398e+01     1.155411      0.53983  80.13  0.003971598    4.372    0.771
       334  -7.7151    220.4743    129.5634   4.2050609437e+01   1.0018046233e+01    0.1435131    0.1399246 -16.60 0.0001171497    1.010    0.010
       335  -8.3012    211.6658    129.0625   4.3562974208e+01   1.2051309212e+01    0.2378124    0.1765244 -56.01  0.000768239    1.507    0.336
       336  -7.9774      1.3510    129.7130   9.5633074228e+01   4.7751468139e+01    0.1169739   0.06869432  68.87 0.0007022829    1.663    0.399
       337 -10.5627     60.1820    125.0130   7.9562660283e+01   4.3269988479e+01    0.6641153    0.3772173  78.99  0.002757255    2.516    0.602
       338  -9.8814    118.0021    124.7017   6.3762138973e+01   3.3862691265e+01    0.6421806    0.4667321 -79.75  0.001491423    1.653    0.395
       339  -7.5756    228.6753    125.3388   3.9621157640e+01   8.9834295364e+00    0.1483396    0.1126743 -70.70 0.0007051258    1.724    0.420
       340  -8.9042    179.2163    124.4609   4.9010932903e+01   2.0384693366e+01    0.3077198    0.2498706 -79.03 0.0005649165    1.468    0.319
       341 -10.6787     28.0665    120.8348   8.7745203202e+01   4.7716964503e+01    0.9294233    0.3958116  89.01  0.003579646    3.543    0.718
       342  -8.4402    188.5047    123.9482   4.6925155790e+01   1.8318868551e+01    0.2300736    0.1509291 -44.43  0.001006235    1.539    0.350
       343 -10.3578    131.8049    119.3971   5.8945570128e+01   3.2220431620e+01    0.8461392    0.5035996 -83.93  0.002686335    3.711    0.731
       344  -9.9035    133.3941    109.2877   5.6021883122e+01   3.4114162580e+01    0.6848949    0.3519377 -44.54  0.002079249    1.968    0.492
       345  -9.3952    158.7569    121.5036   5.2874319725e+01   2.5752605782e+01    0.3976547    0.2807505  86.22   0.00126956    2.023    0.506
       346  -8.8897    171.9579    121.2907   4.9822197247e+01   2.2726441541e+01    0.3175382    0.2113159 -52.89 0.0004556758    1.599    0.375
       347  -7.7652    203.2468    121.6608   4.3418264184e+01   1.5334430818e+01    0.1509457     0.116154 -67.38 0.0002423661    1.563    0.360
       348  -9.6881     70.9809    119.5809   7.5554841587e+01   4.3100610930e+01    0.3760653    0.2487102 -87.72    0.0012956    1.795    0.443
       349  -8.7941    246.6897    119.7264   3.5363771601e+01   6.1443166715e+00     0.299317    0.1841018  60.99  0.001412917    1.948    0.487
       350 -10.0710    141.7027    117.8410   5.6073876024e+01   3.0407517341e+01    0.6639119    0.3560719 -55.74  0.001434949    2.080    0.519
       351  -9.7322      3.0081    117.1146   9.4001578720e+01   5.0448223314e+01    0.4495673    0.1958123  72.91  0.002108025    2.911    0.657
       352  -7.7908    241.3498    117.2841   3.5654864338e+01   7.6584413456e+00    0.1421158    0.1084521  13.63 0.0007018553    1.654    0.395
       353  -9.8905    109.4345    114.0983   6.3592498207e+01   3.7965272756e+01     0.569135    0.3561237 -72.85  0.001606319    2.117    0.528
       354  -8.9574    108.4154    107.8134   6.2348618979e+01   3.9593391352e+01    0.2433392    0.2003425 -32.91 0.0009892386    1.355    0.262
       355  -8.0567    185.7977    115.8158   4.5491597569e+01   2.0553988034e+01    0.2128001    0.1810573 -77.61 0.0003479627    1.321    0.243
       356  -8.8342     59.1745    115.0654   7.8069772102e+01   4.5743049812e+01    0.3355728    0.2225364  -8.36  0.001552504    2.678    0.627
       357  -8.6636    250.2900    114.6040   3.3650583974e+01   6.2467360645e+00    0.1916578    0.1771008  39.71  0.001141466    1.175    0.149
       358  -8.0705    193.1696    115.1715   4.3822963032e+01   1.8927901869e+01     0.212835    0.1782327 -69.92 0.0003744485    1.330    0.248
       359  -7.8976    195.1604    121.9384   4.5080828053e+01   1.7157363816e+01     0.245029    0.1660864 -64.05  0.000482769    1.895    0.472
       360 -10.1302     92.7349    112.3182   6.7839029664e+01   4.1407655761e+01    0.5244119     0.345995 -74.81  0.001299505    1.810    0.448
       361  -8.7654     93.0219    105.2040   6.6089825390e+01   4.2999658425e+01    0.3245395    0.2183045 -18.75  0.001369193    2.424    0.588
       362 -10.0079     78.9811    112.3597   7.1795437184e+01   4.3623385513e+01    0.5660075    0.3565278 -86.63  0.001872644    2.217    0.549
       363  -8.7453     78.7443    104.8318   7.0202204355e+01   4.5411032828e+01     0.316272    0.2082047  10.00  0.001395763    2.464    0.594
       364  -8.4236    167.4277    114.2532   4.9078681033e+01   2.5239208359e+01    0.2140567    0.1489421 -54.55  0.000547023    1.532    0.347
       365 -10.3506    121.8180    111.5387   5.9623439690e+01   3.6078515700e+01    0.5915725    0.4336413 -55.15  0.001202388    1.362    0.266
       366  -8.5305    174.7748    111.8281   4.6834619087e+01   2.3981286977e+01    0.2891226    0.2090733 -62.81 0.0006837574    1.601    0.376
       367  -8.7509    159.1802    111.6659   5.0308825818e+01   2.7723739735e+01    0.2694439    0.2089585 -58.30  0.000658188    1.364    0.267
       368 -10.2847     66.3311    109.7198   7.4939315217e+01   4.6062302215e+01     0.566639     0.316047 -66.45  0.001907933    1.745    0.427
       369  -9.8537     14.1505    110.4724   9.0220782194e+01   5.1199019549e+01    0.4780474    0.2291339 -89.56  0.002349565    2.270    0.559
       370  -8.2009    231.5663    117.6978   3.7356006591e+01   9.6807236751e+00    0.2057627    0.1283953 -46.57 0.0007651788    1.600    0.375
       371  -7.7069    182.7227    109.3386   4.4500617770e+01   2.2564220625e+01    0.1599088    0.1217616 -74.35 0.0004007348    1.616    0.381
       372  -8.7576     42.7682    109.3235   8.1818355355e+01   4.8971605035e+01    0.2784787     0.128518  14.18  0.001095386    3.990    0.749
       373 -10.8544    248.7810    105.5685   3.1821850760e+01   8.0352740476e+00     0.709569    0.3029952 -32.81  0.002823121    2.286    0.563
       374  -9.5987    150.7204    102.9836   5.0044526811e+01   3.1527301508e+01    0.5236345    0.3178582 -68.52  0.001426088    2.518    0.603
       375  -9.3148    139.8047    104.3559   5.3103089533e+01   3.3755375827e+01    0.3643919    0.2923753 -80.51 0.0006966196    1.467    0.318
       376  -8.5512    166.7572    103.7865   4.6523220747e+01   2.7534707751e+01    0.3086654    0.2089374 -53.75 0.0007031916    1.575    0.365
       377  -9.5918      7.0294    103.1072   9.1302096560e+01   5.3326573042e+01    0.2515209    0.1491326  77.75  0.001013208    1.831    0.454
       378 -10.1194    128.4129    101.9410   5.5402875029e+01   3.6801909270e+01    0.4086832    0.3066651  80.75  0.001089695    1.705    0.414
       379 -10.8216    109.2330     98.8400   5.9827072595e+01   4.1446754945e+01    0.8921951    0.4988677  67.39  0.001602809    3.200    0.688
       380  -8.8652    107.0445     92.6774   5.8799060541e+01   4.3227478292e+01    0.7295549    0.3666186  27.72  0.002512676    3.213    0.689
       381  -8.2193    175.5403    101.9764   4.4115657265e+01   2.5759253773e+01    0.2351802    0.1541463 -43.08 0.0005519673    1.532    0.347
       382  -8.3789    159.7537    100.8695   4.7343802297e+01   2.9815657239e+01    0.2908886    0.2069882 -61.84 0.0006968407    1.612    0.380
       383  -9.2110     82.1658     99.9651   6.8038861189e+01   4.5996727169e+01    0.3429394    0.2316649 -76.71 0.0008680334    1.826    0.452
       384  -8.2069    189.3975    107.6571   4.2696242650e+01   2.1278890312e+01    0.2800617     0.144893 -44.34 0.0004965417    1.935    0.483
       385  -9.3103     94.9340     96.8902   6.3457532607e+01   4.4549560728e+01    0.3208626    0.2359538 -70.89 0.0005731969    1.545    0.353
       386 -10.1715     63.9494     95.6489   7.2626575470e+01   4.9633869181e+01    0.5427784    0.3388158  85.00  0.001548014    2.621    0.618
       387  -7.4967    183.6686     96.3093   4.0912224957e+01   2.4857151325e+01    0.1630648    0.1222785 -79.22 0.0007041562    1.668    0.401
       388  -8.7343    150.9290     95.2665   4.7901461276e+01   3.3070631787e+01    0.3005638    0.2159041  -7.69  0.001223764    2.141    0.533
       389  -8.0688    164.9610     93.9227   4.4273239245e+01   2.9942396484e+01    0.2500021    0.1900441 -78.84 0.0006171269    1.636    0.389
       390  -9.4264     45.5732     92.4794   7.7761622806e+01   5.2549384414e+01    0.4227409    0.2490755  -3.81  0.001914517    3.011    0.668
       391 -10.5509     45.9051    102.2423   7.9596730406e+01   5.0279928195e+01    0.7497562    0.3963629  70.07  0.003038455    3.351    0.702
       392  -8.3876    176.2289     92.9400   4.1554002179e+01   2.7347327448e+01    0.2456174    0.2053469 -71.14  0.000552537    1.300    0.231
       393  -9.2686    139.1063     92.1440   4.9951301354e+01   3.6483858092e+01    0.4041027    0.2737839 -67.24 0.0008652674    1.913    0.477
       394  -7.7435    139.6436     87.6644   4.8544766973e+01   3.7274565750e+01    0.1629668    0.1250147  10.25 0.0007042148    1.802    0.445
       395 -10.0186    124.5573     90.7123   5.3358778718e+01   4.0039862365e+01    0.4601659    0.3602044  84.25 0.0009692337    1.610    0.379
       396  -9.4339    120.5090     92.4739   5.4954964595e+01   4.0533684282e+01    0.2817205    0.2560881 -58.91  0.001235246    1.099    0.090
       397  -9.2256     22.6758     90.2153   8.4655357870e+01   5.5142097138e+01    0.3748812    0.2293685 -38.00  0.002139076    1.759    0.432
       398  -9.5481      5.1114     91.8785   9.0389296722e+01   5.5930556507e+01    0.2849429     0.184311  60.43   0.00126646    1.831    0.454
       399  -9.6751     34.8082     89.5790   8.0641521531e+01   5.4269354572e+01    0.4541276     0.246825 -85.48   0.00161824    2.532    0.605
       400  -8.1112    157.5421     91.1269   4.5191320448e+01   3.2309943046e+01    0.2383745    0.1546125 -43.26 0.0009765635    1.556    0.357
       401  -8.1910    151.0499     88.9836   4.6117452144e+01   3.4307940004e+01     0.246173      0.18913 -78.24 0.0004362332    1.616    0.381
       402  -9.9687     86.4561     86.3212   6.3230009300e+01   4.8347909073e+01    0.4836066     0.340796 -86.40  0.001373798    2.128    0.530
       403  -8.2530     86.6758     80.6800   6.1592572805e+01   4.9527031184e+01     0.228339    0.1858623   9.54 0.0009081782    1.459    0.314
       404  -9.0605     65.6703     86.8549   6.9981683120e+01   5.1384080379e+01    0.3823295     0.195913  20.50  0.001581315    2.913    0.657
       405  -9.8014     48.7393     84.2527   7.4924657697e+01   5.4052655839e+01    0.5122333    0.3131992  72.98  0.001848388    2.808    0.644
       406  -7.7304    164.2922     86.6983   4.2417790626e+01   3.1514398567e+01    0.1587571    0.1226162 -78.30 0.0003334612    1.569    0.363
       407  -7.4703    179.3332     85.6553   3.8920879290e+01   2.7945820474e+01    0.1677526    0.1208481 -75.42 0.0007050062    1.762    0.432
       408  -9.7598    104.7422     82.9300   5.6726662270e+01   4.5761076507e+01    0.4852609    0.3086885 -62.49 0.0009912617    1.932    0.482
       409  -8.2702    105.8183     76.4137   5.4478572592e+01   4.6895217440e+01    0.2170663    0.1374282  31.52 0.0009544995    1.826    0.452
       410  -8.5103    158.0858     83.7451   4.2980034973e+01   3.3617759933e+01    0.2702335    0.2042458 -53.18 0.0005077902    1.381    0.276
       411  -9.0687    140.8941     82.6534   4.6778992441e+01   3.7983316858e+01    0.4398142    0.2177581 -48.21  0.001263049    2.133    0.531
       412  -8.9151    140.6117     75.1236   4.4610572142e+01   3.9508168415e+01    0.3965198    0.2015343 -46.53  0.001236714    2.054    0.513
       413  -8.4846     64.1408     82.6512   6.9419364849e+01   5.2519414480e+01    0.2311518    0.1699447 -65.18 0.0006264653    1.381    0.276
       414  -9.4669     10.2382     81.1734   8.7144131694e+01   5.7981831319e+01    0.3608867    0.1922341  65.72  0.001715861    2.806    0.644
       415  -8.1466     35.7769     82.3907   7.8853275165e+01   5.5783532236e+01    0.1575701    0.1182633  -1.79 0.0009488614    1.679    0.404
       416  -9.6739     24.8893     80.5194   8.2140164963e+01   5.7121862588e+01    0.4044867    0.2476527  85.73  0.001313032    2.215    0.548
       417  -8.3164    150.0793     80.3227   4.3856109347e+01   3.6236717348e+01    0.2789591    0.2117306 -67.91 0.0007747501    1.561    0.360
       418  -8.7740    119.5943     79.8362   5.1561551321e+01   4.3355130217e+01    0.4123442    0.2415246 -53.09    0.0016649    1.870    0.465
       419  -8.9313     74.6387     80.0214   6.5271193155e+01   5.1594885547e+01    0.3257993    0.2180347 -76.63  0.001037124    2.135    0.532
       420 -10.7533     23.0832    102.6365   8.6550415357e+01   5.2308256038e+01    0.6590984    0.3468226  73.74     0.002295    2.686    0.628
       421  -8.2330    166.9501     79.3601   3.9754599729e+01   3.2234582664e+01    0.2180092    0.1985377  59.36 0.0004660049    1.074    0.069
       422  -7.7153    184.3508     77.8575   3.5769798009e+01   2.8093311677e+01    0.2164752    0.1486317 -25.68 0.0009375733    1.692    0.409
       423  -7.7586    174.6369     77.8024   3.7693207126e+01   3.0575046393e+01    0.2191642    0.1398093 -48.48 0.0003978354    1.617    0.382
       424  -7.8287    157.1145     76.1407   4.0996029924e+01   3.5294107491e+01    0.2166604    0.1822414 -75.77 0.0004584704    1.320    0.243
       425  -9.3435    128.0825     74.7441   4.7715165765e+01   4.2490609350e+01    0.5139492    0.3033597 -49.40  0.001858648    1.796    0.443
       426  -9.9775     63.2169     73.3153   6.7236486715e+01   5.4657339480e+01    0.4507387    0.2633737 -64.32   0.00110951    1.990    0.498
       427  -9.7389     82.4840     72.3051   6.0491955666e+01   5.1981701534e+01    0.4240312    0.2704815 -66.14  0.001018155    2.101    0.524
       428  -8.2731    163.4961     73.0825   3.8684614561e+01   3.4253015118e+01    0.2342923    0.1533742 -40.00 0.0008712215    1.552    0.356
       429  -7.9015    151.4606     73.4443   4.1495402843e+01   3.7192979782e+01    0.1545047    0.1489117  77.69 0.0001308295    1.020    0.020
       430  -8.3409    115.8139     72.9790   5.0534563670e+01   4.5526668640e+01    0.2264464    0.1979979 -77.46 0.0006302765    1.321    0.243
       431  -8.3653     42.7936     72.5044   7.4148681154e+01   5.7253690238e+01    0.2862193      0.16543 -77.11  0.001264288    2.442    0.591
       432  -7.7572    175.5269     72.4547   3.5992292060e+01   3.1303437766e+01    0.1550215    0.1485042  81.39 0.0002002635    1.006    0.006
       433  -9.3858    105.9440     71.4308   5.2911002841e+01   4.7867371621e+01    0.2716397    0.2002803 -59.33 0.0006257878    1.550    0.355
       434  -9.2064     95.2704     70.9759   5.6012127581e+01   5.0013036754e+01     0.369277    0.2434477 -62.26  0.001230513    1.915    0.478
       435  -9.3125     27.6098     71.3211   7.9267356638e+01   5.8903260230e+01    0.3174232    0.1524111 -29.64  0.001471694    2.769    0.639
       436  -9.6258     51.6567     69.4580   7.0210309920e+01   5.6925996930e+01    0.4224957    0.2448849 -73.21   0.00143291    2.528    0.604
       437  -8.9101     16.6187     69.8208   8.2866833506e+01   6.0032219059e+01    0.2653188      0.17168 -85.59 0.0009198009    1.806    0.446
       438  -8.8933    147.1138     68.0330   4.0875634890e+01   3.9247497251e+01    0.3021126    0.2151115 -49.67 0.0005818626    1.481    0.325
       439  -8.5244    138.7159     65.8829   4.2237661681e+01   4.1669180653e+01    0.2783335    0.1998807 -56.43 0.0006939747    1.579    0.367
       440  -8.6951    121.6076     65.8072   4.6662900619e+01   4.5634364809e+01    0.2761467    0.2133095 -67.82 0.0005811161    1.615    0.381
       441  -7.9692     83.3079     65.3516   5.8080251230e+01   5.3247099589e+01    0.1444957    0.1045242 -13.03 0.0007043268    1.714    0.417
       442  -8.9080     37.3707     63.7345   7.3868076430e+01   5.9644669001e+01    0.2919283     0.196963 -75.88  0.001469195    1.845    0.458
       443  -8.9878    110.1415     63.6182   4.9185818669e+01   4.8508669130e+01    0.2875712    0.2406131 -69.25 0.0006400603    1.439    0.305
       444  -8.2960    158.0584     61.3294   3.6347707864e+01   3.7684976980e+01    0.2148814    0.1935327  68.72 0.0005340257    1.082    0.076
       445  -8.3359     52.4961     61.4723   6.7644235366e+01   5.8476505840e+01    0.2192689    0.1231085  14.03  0.001032374    2.472    0.596
       446  -9.6435     73.4696     59.4553   5.9515011582e+01   5.5992212896e+01    0.3781253     0.242764 -55.07  0.001196825    1.697    0.411
       447  -8.2085    130.9297     57.5182   4.1513424649e+01   4.4983491531e+01    0.2294551    0.1960412 -37.78 0.0005575654    1.200    0.167
       448  -9.8733     23.4422     56.1431   7.7189722986e+01   6.2403484320e+01    0.4076426     0.258665  89.07  0.002132089    2.634    0.620
       449  -9.6629      7.6725     56.8953   8.3464103472e+01   6.3273068659e+01     0.294974    0.1942614  87.57  0.001247338    2.003    0.501
       450  -8.1511    139.9869     56.2550   3.8865805157e+01   4.3033757994e+01    0.2066945    0.1963561  51.66 0.0004153181    1.016    0.016
       451  -9.3003    119.1647     55.2393   4.3860960230e+01   4.8064094098e+01    0.3927321    0.2336319 -49.01  0.001371607    1.887    0.470
       452  -8.8602     44.1649     54.9308   6.8816623310e+01   6.0739262509e+01    0.3751737    0.1782992 -56.75  0.001689921    2.067    0.516
       453  -9.7630     62.8305     53.6029   6.1384223585e+01   5.8682605050e+01    0.5525095    0.1744481 -50.30  0.001431358    3.188    0.686
       454  -9.2408     54.0356     53.1898   6.4516304505e+01   5.9926312537e+01    0.5598745    0.2185474 -56.53  0.002190747    3.111    0.679
       455  -9.2211     97.5120     60.3657   5.1908472137e+01   5.1643243050e+01    0.2887419    0.2339631  53.18 0.0009644807    1.353    0.261
       456  -8.4908    105.8137     53.0967   4.6925781726e+01   5.1297227402e+01    0.2140402    0.1914224 -67.05 0.0005585859    1.320    0.242
       457  -9.4336     92.5275     50.4843   5.0096660746e+01   5.4372781687e+01    0.3534244    0.2343244 -54.50 0.0009104059    1.851    0.460
       458  -8.4724     74.2897     51.8406   5.6681778514e+01   5.7300398668e+01    0.2552187    0.1679543   5.43  0.001222778    2.096    0.523
       459  -7.9381    144.6618     48.7820   3.5356691132e+01   4.3092724148e+01    0.2067241    0.1333098 -43.56 0.0005229696    1.633    0.387
       460  -8.3199    129.8690     49.1341   3.8996616588e+01   4.6622171372e+01    0.2195104    0.2020477 -79.67  0.000494701    1.209    0.173
       461  -8.5786    120.8818     47.3101   4.0692338544e+01   4.8992985019e+01    0.2361867    0.1939617 -44.31 0.0005463123    1.293    0.227
       462  -8.3967    112.1691     46.6882   4.2855132852e+01   5.1025516500e+01     0.241134    0.1851263 -45.92 0.0005631308    1.407    0.289
       463  -9.0821     82.2403     46.2461   5.1963399371e+01   5.6971011012e+01     0.279651    0.2181384 -53.41 0.0007436107    1.502    0.334
       464  -8.4221     45.0588     44.4768   6.5127591719e+01   6.2646542973e+01    0.2171016    0.1596181 -58.84 0.0005867368    1.555    0.357
       465  -9.2088     16.9431     44.5835   7.6726327571e+01   6.5173161680e+01    0.2127284    0.1753893  79.79 0.0008921768    1.720    0.419
       466  -8.5013    132.8816     43.1247   3.6220407280e+01   4.6838105767e+01    0.2236526    0.1964764 -75.17 0.0005505906    1.305    0.234
       467  -9.0809     58.3262     42.1775   5.9119020436e+01   6.1403116897e+01    0.3010408    0.2021936 -60.58  0.001126744    2.048    0.512
       468  -9.9907      5.2961     41.7419   8.0870795497e+01   6.6425349885e+01    0.3694052    0.2053299 -77.60  0.001834917    2.329    0.571
       469  -9.1754     69.6768     41.2549   5.4539156361e+01   5.9900521243e+01    0.3038599    0.2307173 -65.50  0.001095594    1.952    0.488
       470  -8.7719    105.9924     40.9792   4.2569969394e+01   5.3248133544e+01    0.2052647    0.2031436 -14.26 0.0004963591    1.115    0.103
       471  -8.6628     36.9475     40.4899   6.7086553865e+01   6.4255557605e+01    0.2146735    0.1588144 -61.05 0.0007954467    1.591    0.371
       472  -7.6718    140.2949     40.7130   3.3680203048e+01   4.5390488563e+01    0.1435453    0.1132691 -75.44 0.0001928296    1.547    0.353
       473  -8.5427    151.3031     39.0067   3.0747254945e+01   4.2877695885e+01     0.194538    0.1876997 -34.40 0.0002165103    1.107    0.097
       474  -8.6123     95.3510     37.7719   4.4567626013e+01   5.5914132167e+01    0.2460502    0.2001568 -57.52 0.0008248643    1.556    0.357
       475  -8.2484     80.7035     36.3412   4.8786652167e+01   5.8873605954e+01    0.2322572    0.1505512 -44.16 0.0007604117    1.661    0.398
       476  -8.4214     92.4602     42.7919   4.7345901140e+01   5.5681985919e+01    0.2620704    0.1686163  11.57   0.00118728    2.168    0.539
       477  -9.3930     26.1985     35.1265   6.9858211683e+01   6.6244110940e+01    0.2742636    0.1785579 -61.42 0.0008719204    1.767    0.434
       478  -8.2665    126.0207     35.3286   3.5180940959e+01   4.9601978686e+01    0.1982208    0.1740555  51.26 0.0003121551    1.083    0.077
       479  -8.5451    111.9695     34.4651   3.8498348747e+01   5.2927378384e+01    0.2528446    0.1879725 -49.68 0.0007586416    1.579    0.367
       480  -7.9584     88.6519     34.1869   4.5315716334e+01   5.7753403795e+01    0.1892867    0.1190699 -23.10 0.0007427855    1.672    0.402
       481  -8.8856    119.3693     32.4988   3.5828600682e+01   5.1539042512e+01    0.3255068    0.1220095 -36.09   0.00122661    2.716    0.632
       482  -8.8618     60.7252     32.4050   5.4502844929e+01   6.2717396727e+01    0.2524795    0.1846756 -45.97 0.0006191625    1.501    0.334
       483  -8.8824     48.5308     32.9474   5.9565949561e+01   6.4276952177e+01    0.1952364    0.1890814 -65.14 0.0007293974    1.421    0.296
       484  -8.9460     72.1924     30.7106   4.9554072200e+01   6.1199002527e+01    0.2429504    0.1912693 -56.82 0.0007731767    1.745    0.427
       485  -9.4475     12.9270     29.7726   7.4038217271e+01   6.8226322065e+01    0.3253803    0.1560094 -64.16  0.001675348    2.508    0.601
       486  -8.5412    101.6575     29.1921   3.9400527918e+01   5.5878290203e+01    0.2035041    0.1657597 -45.83 0.0005782936    1.418    0.295
       487  -8.1243     42.3106     29.6828   6.0902764217e+01   6.5572447302e+01    0.1049301   0.09631184 -77.91 0.0003224734    1.639    0.390
       488  -8.9491     81.6194     27.2345   4.4873115018e+01   6.0073612109e+01    0.2651038    0.2065479 -56.65 0.0008276085    1.782    0.439
       489  -9.6199      3.6808     26.8912   7.7428368889e+01   6.9300134585e+01    0.3108405    0.1586054 -67.64  0.001749176    2.310    0.567
       490  -8.7325     91.8509     26.2667   4.1185058708e+01   5.8269168147e+01    0.2723669    0.1751706 -44.94 0.0008426118    1.841    0.457
       491  -8.1769     34.7497     22.9656   6.1541882794e+01   6.7516204759e+01     0.165943    0.1344583 -69.76 0.0009264661    2.038    0.509
       492  -8.9540     63.7304     20.8209   4.8573290671e+01   6.4010530508e+01    0.2971501    0.1731817 -44.84  0.001055037    2.037    0.509
       493  -8.8289     48.5585     21.5877   5.4963684992e+01   6.6088468877e+01    0.2108292    0.1849775 -22.81 0.0007881891    1.199    0.166
       494  -8.0135    120.6088     20.8204   3.1229688966e+01   5.2744362858e+01    0.1882257    0.1234309 -39.78 0.0009392123    1.688    0.408
       495  -9.4287    233.7473    246.0205   6.1934660796e+01  -9.7808489910e+00    0.4809243    0.2710328 -12.75  0.002204615    2.258    0.557
       496  -8.0506     38.5615     18.0028   5.7755302532e+01   6.7868291983e+01    0.1733763   0.09889576 -38.21 0.0004516578    1.564    0.360
       497  -8.1511    112.6439     16.7619   3.1633353347e+01   5.5039287433e+01    0.1759319    0.1214727 -35.33 0.0003233386    1.580    0.367
       498  -8.3045     87.9870     17.3163   3.8720167182e+01   6.0180061686e+01    0.1784889     0.154283  31.29  0.000501127    1.084    0.078
       499  -8.4733     30.0486     15.9556   6.0775270090e+01   6.9114060711e+01    0.1514144    0.1418937 -71.53 0.0007521169    1.720    0.419
       500  -8.0715     97.1734     15.1034   3.5081742899e+01   5.8586433020e+01    0.1674526    0.1523332 -43.85 0.0004556794    1.320    0.242
       501  -9.0307     74.3289     19.3406   4.4077111868e+01   6.2453040234e+01    0.2627507    0.1968597 -43.83 0.0007648875    1.616    0.381
       502  -9.0121    175.6681    247.3168   7.2385315571e+01  -7.1264484705e-01    0.2857718    0.2243084 -81.88  0.001462581    1.923    0.480
       503  -8.7948    132.4612    247.9352   8.0323855790e+01   6.3430516557e+00    0.2883031    0.1653059  67.97 0.0007612659    2.136    0.532
       504  -9.3231    243.2105    245.9460   6.0322649078e+01  -1.1159235506e+01    0.3530492    0.1771709 -22.29  0.001950824    2.315    0.568
       505  -8.7947    218.6248    247.0417   6.4694465731e+01  -7.6022739279e+00    0.2950422    0.1337371 -38.13  0.001584934    2.696    0.629
       506  -8.4306    156.0573    248.0116   7.6038333337e+01   2.4448511824e+00    0.1838474    0.1246387  64.62 0.0005564228    1.661    0.398
       507  -8.0580    113.3189    248.2061   8.3811657587e+01   9.3662908717e+00    0.1517924    0.1007306 -83.82 0.0009380166    1.791    0.442
       508  -9.0294    103.7904    246.3810   8.5342990687e+01   1.1150605842e+01    0.3730844    0.1881105 -82.72  0.001869575    2.889    0.654
       509 -10.1077    223.9214    243.9938   6.3316587306e+01  -8.0609905916e+00    0.4194035    0.2182733 -43.96   0.00232476    2.656    0.623
       510  -9.1209    147.1006    245.8184   7.7407772108e+01   4.2595063934e+00    0.2999932    0.1892531  73.11  0.001222231    2.192    0.544
