#   1 NUMBER                 Running object number                                     
#   2 MAG_AUTO               Kron-like elliptical aperture magnitude                    [mag]
#   3 X_IMAGE                Object position along x                                    [pixel]
#   4 Y_IMAGE                Object position along y                                    [pixel]
#   5 X_WORLD                Barycenter position along world x axis                     [deg]
#   6 Y_WORLD                Barycenter position along world y axis                     [deg]
#   7 A_WORLD                Profile RMS along major axis (world units)                 [deg]
#   8 B_WORLD                Profile RMS along minor axis (world units)                 [deg]
#   9 THETA_WORLD            Position angle (CCW/world-x)                               [deg]
#  10 FWHM_WORLD             FWHM assuming a gaussian core                              [deg]
#  11 ELONGATION             A_IMAGE/B_IMAGE                                           
#  12 ELLIPTICITY            1 - B_IMAGE/A_IMAGE                                       
         1 -14.5318     68.5412    144.3263   9.8672180286e+01   3.7666032535e+01     4.600898     2.468412  72.08   0.00805785    3.460    0.711
         2 -13.3619    201.4609     42.2342   4.1551711946e+01   2.9945443429e+01      1.20094     1.033102 -35.09  0.004010909    1.328    0.247
         3 -13.4782    212.2705     31.7826   3.7925703879e+01   2.8872002506e+01    0.8718137    0.7720568  44.87  0.002547761    1.484    0.326
         4 -10.5349     12.3382     13.5066   8.4559482761e+01   7.1765644838e+01    0.1941662   0.09029951 -41.60  0.001093623    1.983    0.496
         5 -12.2009    234.9422      6.4791   3.0686337821e+01   2.6983710467e+01     0.646054    0.3743569 -40.94  0.003993055    1.636    0.389
         6 -12.1763    241.0179      6.1791   3.0221188145e+01   2.5786832043e+01    0.6389248    0.4079987 -36.09  0.004127007    1.679    0.404
         7  -8.9320     60.0084    218.4750   1.1080549965e+02   2.1056108691e+01    0.2312174    0.1524429  77.92 0.0003600081    1.524    0.344
         8 -10.0300    140.0868    250.3082   9.7269781753e+01   3.0635891826e+00    0.3257196    0.1231572  40.97  0.001428856    2.215    0.549
         9 -10.8256    102.0000    249.0010   1.0498286579e+02   8.9807312000e+00     1.054789    0.1604954 -55.40  0.003273671    6.314    0.842
        10 -11.1874    101.2208    243.3968   1.0452870144e+02   1.0144382965e+01    0.4975145    0.2661147 -70.35  0.001669952    2.351    0.575
        11 -12.9842     52.8607    186.5701   1.0907052864e+02   2.9294602843e+01     1.673953     1.186781  75.50  0.009142844    1.387    0.279
        12 -13.6107     41.7343    197.2049   1.1288263681e+02   2.8127529627e+01     2.006093    0.9619147  69.60  0.005739156    2.484    0.597
        13 -15.5053      6.9400    167.6712   1.1859068341e+02   3.8547645512e+01     12.05545     1.592569 -75.08   0.03236144    6.342    0.842
        14 -16.8940     14.7541    243.0469   1.2186867607e+02   2.1196905908e+01     6.491368     2.341177  24.69   0.02726028    4.327    0.769
        15  -8.1659    224.2636    206.3706   7.3469332388e+01  -2.4926181327e+00    0.1322604   0.08643561 -10.11 0.0006984756    1.657    0.397
        16  -9.0418     32.0417    204.9588   1.1579625384e+02   2.7442621742e+01    0.2147838    0.1180007  62.87  0.001118382    1.716    0.417
        17 -10.6946    110.8757    203.1325   9.7150266885e+01   1.6900689174e+01    0.2787007    0.2392496  52.65 0.0006625277    1.085    0.078
        18  -9.7448    107.5139    203.5411   9.8006518425e+01   1.7359884002e+01    0.2474608    0.1631538  82.16 0.0006249988    2.093    0.522
        19 -10.9196    193.1517    195.1581   7.7393592799e+01   4.3354734722e+00    0.8745572    0.4216825 -60.90  0.002637919    5.552    0.820
        20  -8.0792     67.6987    199.6943   1.0700240803e+02   2.4247254834e+01    0.1265002    0.1049885 -31.61 0.0006388531    1.595    0.373
        21  -9.3263    201.3387    198.3090   7.6343655899e+01   2.4135412244e+00    0.1405244   0.09758353  -1.14 0.0004287277    1.685    0.406
        22  -9.5840     58.8783    196.4710   1.0874008232e+02   2.6180366646e+01    0.2337416    0.1929721 -63.82 0.0004736758    1.270    0.212
        23  -8.9768     21.0425    195.1999   1.1747639799e+02   3.0819467278e+01      0.23305    0.1326693  54.89 0.0009967064    1.601    0.376
        24  -8.5061     82.5205    194.5429   1.0275762588e+02   2.3315660484e+01    0.1404527    0.1256446  67.76 0.0001576855    1.018    0.017
        25 -14.5646      9.5714    207.3417   1.2083987914e+02   2.9181610965e+01     1.251276     1.070542 -31.54  0.008657455    1.718    0.418
        26  -9.3710    118.6127    191.7347   9.3505444482e+01   1.8126830629e+01    0.1968364    0.1391049 -70.32 0.0009450301    1.632    0.387
        27  -8.2701    196.2570    190.3268   7.5856089319e+01   4.6910678307e+00    0.1376039   0.09989165  -9.69 0.0001909065    1.555    0.357
        28 -10.3136    147.6886    187.7575   8.5902438711e+01   1.3835553744e+01    0.4553399    0.3083084 -75.38  0.001998692    2.212    0.548
        29  -8.7808     85.3172    186.2526   1.0089367259e+02   2.4841206706e+01    0.2859479    0.1646556 -89.00  0.001158442    2.477    0.596
        30 -10.4029    122.2329    198.4864   9.3738376883e+01   1.6015580813e+01    0.3777015     0.249993 -70.85  0.001679433    1.857    0.461
        31  -8.4650     75.9802    184.4885   1.0300080603e+02   2.6658129850e+01    0.1999797    0.1000091  55.91 0.0004189368    2.268    0.559
        32  -8.9410     79.6142    182.0971   1.0173481305e+02   2.6696142749e+01    0.2955136    0.2148921  85.73  0.001493287    1.499    0.333
        33  -8.7574     82.5173    182.4151   1.0103981144e+02   2.6183151752e+01    0.2113637    0.1981428 -11.50 0.0004426906    1.284    0.221
        34  -9.6110     99.3685    180.9359   9.6510805317e+01   2.3866543826e+01     0.258982    0.2095591  32.40 0.0006186513    1.275    0.216
        35  -8.2675     88.4921    178.5269   9.8913756705e+01   2.6194433585e+01    0.1446129    0.1341908  73.48 3.829061e-05    1.008    0.008
        36 -10.2617    186.9265    175.4595   7.4858376247e+01   9.1451724962e+00    0.3518302    0.3063321 -51.38  0.001159928    1.249    0.199
        37 -10.6913     41.1443    176.2665   1.1083191461e+02   3.3184296958e+01     0.414959    0.3199045  -2.37  0.002298053    1.854    0.461
        38 -12.8858     68.6012    154.2498   1.0036765524e+02   3.5166486181e+01    0.6464134    0.4330508 -54.78 0.0009338591    1.441    0.306
        39 -11.2757    115.6616    245.6895   1.0176310130e+02   7.5666626780e+00    0.4185075     0.258963 -43.64  0.002268286    2.032    0.508
        40  -9.0541    110.8431    168.0601   9.1316174117e+01   2.4963082484e+01    0.2343547    0.1995271  82.96 0.0006160956    1.276    0.216
        41  -8.2308    120.4808    165.5271   8.8347637280e+01   2.3821069288e+01    0.1500364    0.1454659  65.60 7.148399e-05    1.009    0.009
        42 -10.2725     33.4544    156.0702   1.1048077858e+02   3.8990197565e+01    0.3012912    0.2731403 -85.13  0.001089198    1.055    0.052
        43 -11.7786     87.8489    152.3454   9.4598916364e+01   3.2713111458e+01    0.7172465    0.4906451 -22.52  0.003102488    2.153    0.536
        44 -10.5071    133.6594    144.8294   8.0655753379e+01   2.6113372163e+01     1.172728    0.2903413 -54.81  0.002577161    6.398    0.844
        45  -8.6490    111.7112    149.9949   8.7546936589e+01   2.9134321844e+01    0.3303413    0.1784572  60.15  0.001171399    2.694    0.629
        46  -9.4972    174.8861    149.1225   7.1877299566e+01   1.6780558344e+01    0.2275209     0.207572 -82.57 0.0005671734    1.246    0.198
        47 -10.4458     30.3159    144.0586   1.0983041222e+02   4.2292765416e+01    0.4583247    0.3414913  27.19  0.002624646    1.530    0.347
        48 -11.4529     67.2671    172.4409   1.0354692375e+02   3.0828177931e+01    0.4677206    0.3015194 -35.51  0.001973287    2.100    0.524
        49 -10.4240    101.7573    138.5572   8.7883836811e+01   3.3719155398e+01    0.5844273    0.3631142 -21.98  0.002174721    2.731    0.634
        50 -11.5590     89.1326    138.0188   9.1405818117e+01   3.6047597123e+01    0.2985203    0.2675104 -38.29  0.000413582    1.167    0.143
        51 -10.7150     26.2404    137.6668   1.1017047398e+02   4.4264264579e+01    0.3782663    0.2051352  33.56  0.001112444    1.982    0.496
        52 -10.1336    105.9477    130.9318   8.4995206665e+01   3.4787777875e+01    0.4069264    0.3525119 -60.84  0.001412539    1.155    0.134
        53  -9.5998    111.1690    129.3218   8.3145480859e+01   3.4179704518e+01    0.3160257    0.2596026   3.61 0.0009198659    1.508    0.337
        54 -10.1957    134.9601    128.5629   7.6560313623e+01   2.9560100020e+01    0.3832681    0.3355059  71.86   0.00183114    1.249    0.199
        55 -10.5170     28.6314    128.4718   1.0814274382e+02   4.6329263740e+01    0.2506204    0.1994555 -79.66  0.001029201    1.161    0.138
        56 -10.2799     98.2508    125.2753   8.5919087109e+01   3.7559893433e+01    0.3126572    0.2713314  -5.77 0.0007568041    1.341    0.254
        57 -11.4849     71.9413    167.6577   1.0158874484e+02   3.1347493271e+01    0.4889994    0.3060885 -56.75  0.001390494    1.555    0.357
        58 -10.4859    118.6208    122.5733   7.9454440444e+01   3.4286692327e+01    0.6567707    0.4114189   0.10  0.002096589    3.797    0.737
        59 -11.9882     80.5190    159.1547   9.7863682909e+01   3.2181094007e+01    0.8931657    0.5262259  60.19 0.0004002055    2.066    0.516
        60  -8.5770    163.5275    121.4812   6.7969080031e+01   2.4949750056e+01    0.1538774    0.1463102 -75.23 0.0008087573    1.070    0.066
        61  -8.9566     85.5460    119.5197   8.8413079678e+01   4.1163909291e+01    0.3226477    0.2163911  74.56 0.0008481877    2.273    0.560
        62  -9.2842    107.5948    118.5518   8.1575985497e+01   3.7396017870e+01    0.2505612     0.223328  25.15 0.0003238021    1.186    0.157
        63  -9.1031     35.0630    171.7960   1.1188811162e+02   3.4944092906e+01     0.200558    0.1550328  72.32 0.0004893676    1.209    0.173
        64 -10.0748    231.2563    113.7363   5.3674025569e+01   1.2275369422e+01    0.2711454    0.2498695 -38.25 0.0007932225    1.083    0.077
        65  -9.4050    205.2828    110.1784   5.7040007212e+01   1.8119027789e+01    0.2878198     0.213095  52.53 0.0009064642    1.449    0.310
        66 -10.3457    116.4317    109.1240   7.6653924240e+01   3.7777141313e+01    0.4636054    0.3380249  55.13  0.002144864    1.476    0.323
        67  -9.3232    135.0000    105.9520   7.0836331129e+01   3.4510296170e+01    0.2598884   0.08773426 -44.30 0.0008053358    2.963    0.662
        68 -10.9729     33.9474    108.1830   1.0297752163e+02   5.0805350135e+01    0.2976893    0.2709834 -57.69  0.001652062    1.034    0.033
        69 -10.8745    241.9848    101.5122   4.9565795717e+01   1.2306921279e+01     0.226131    0.1826723  -1.60  0.001001908    1.725    0.420
        70 -10.7595    247.5101    106.4814   4.9867332070e+01   1.0473455945e+01    0.2889877    0.1106915 -39.60   0.00122595    2.218    0.549
        71  -8.9336     41.8207     98.8386   9.8292109348e+01   5.2224291657e+01    0.1830909    0.1585102  71.33 0.0009435271    1.367    0.269
        72  -8.9831     53.2371     90.9880   9.2294096337e+01   5.2684571249e+01    0.1875291    0.1085857 -54.43 0.0004567537    1.608    0.378
        73  -8.8980     75.1202     85.1208   8.2901609735e+01   5.0767778907e+01    0.2134115    0.1753544  74.56 0.0008031963    1.626    0.385
        74  -9.2620    159.0359     83.0290   5.9030866759e+01   3.3523534216e+01    0.2382874    0.1791735 -79.82 0.0007032735    1.627    0.385
        75  -9.0499    150.9779     82.9474   6.0746861950e+01   3.5427873856e+01    0.2292264    0.2089926 -82.70 0.0004975809    1.127    0.113
        76  -8.4408     69.2127     81.3788   8.3886811246e+01   5.2514087086e+01    0.1864674     0.128625  45.44 0.0004459209    1.611    0.379
        77  -8.8796    110.0318     80.0272   7.0286239119e+01   4.5198463502e+01    0.2273674    0.1836608  85.73 0.0007339388    1.623    0.384
        78 -10.9499     12.9400     59.5811   1.0038293593e+02   6.3484522061e+01    0.3695357    0.2670346  62.70 0.0009098346    2.151    0.535
        79 -12.9290    191.4344     49.5314   4.4627445334e+01   3.1251610282e+01     1.108207    0.7887579  48.23 0.0009634033    1.600    0.375
        80 -10.7719    119.9231    244.6324   1.0074246876e+02   7.1169788589e+00    0.2231863    0.1884008 -77.42 0.0007496751    1.401    0.286
        81  -9.1144    198.1735     23.3300   3.7472548088e+01   3.3072263919e+01    0.1948424     0.170084 -31.58 0.0005984636    1.390    0.280
        82  -9.0550     89.0997    210.6685   1.0330869033e+02   1.8673291915e+01    0.2125744    0.1719547  85.15 0.0005911135    1.264    0.209
        83  -8.9441    189.8239     14.9208   3.6364640965e+01   3.5936265177e+01    0.1841274    0.1597175  63.78 0.0006840537    1.263    0.208
        84 -10.9981    119.4883    212.4827   9.6529147141e+01   1.3484700579e+01    0.3269995    0.2411921  56.92  0.001069421    1.385    0.278
        85 -11.0546    119.6156    215.7997   9.6982163281e+01   1.2774975465e+01    0.3016091    0.2787116  38.41  0.001235505    1.053    0.051
        86 -13.3688     20.0888    220.2815   1.1948790405e+02   2.5334707804e+01    0.7668605    0.4539259  58.50  0.002613417    1.418    0.295
        87 -10.0712    240.2367    169.5819   6.3736799381e+01   1.1028124136e+00    0.1699234      0.11789  23.46 0.0004239042    1.628    0.386
