#   1 NUMBER                 Running object number                                     
#   2 MAG_AUTO               Kron-like elliptical aperture magnitude                    [mag]
#   3 X_IMAGE                Object position along x                                    [pixel]
#   4 Y_IMAGE                Object position along y                                    [pixel]
#   5 X_WORLD                Barycenter position along world x axis                     [deg]
#   6 Y_WORLD                Barycenter position along world y axis                     [deg]
#   7 A_WORLD                Profile RMS along major axis (world units)                 [deg]
#   8 B_WORLD                Profile RMS along minor axis (world units)                 [deg]
#   9 THETA_WORLD            Position angle (CCW/world-x)                               [deg]
#  10 FWHM_WORLD             FWHM assuming a gaussian core                              [deg]
#  11 ELONGATION             A_IMAGE/B_IMAGE                                           
#  12 ELLIPTICITY            1 - B_IMAGE/A_IMAGE                                       
         1 -11.7270    221.7765     40.7196   2.8555203654e+01   2.6039105831e+01    0.9872055    0.5851408 -40.06  0.005444804    1.385    0.278
         2 -11.5754    246.8125     22.8973   2.2427620850e+01   2.3064542890e+01     0.688667    0.4371254 -36.28  0.002828104    1.199    0.166
         3 -11.1625      2.0061     24.5825   9.0334898102e+01   7.4539122507e+01     2.053186          nan -60.05  0.004659636    8.024    0.875
         4 -10.1773      2.0000     13.0139   8.5257766105e+01   7.7156591230e+01    0.6048973     0.163444 -58.21  0.002375856    2.850    0.649
         5 -10.1449      2.1157      4.6154   8.0139304529e+01   7.8918099674e+01    0.6241716    0.2682634 -48.57  0.003046377    1.908    0.476
         6 -10.5745      8.4130     25.7512   8.5745122515e+01   7.3826878981e+01    0.3201434    0.2023357 -35.66  0.001736657    1.494    0.331
         7  -9.6246     16.7347      3.4912   6.5350253328e+01   7.7470146184e+01    0.2172415    0.1820112 -24.33  0.001386478    1.057    0.054
         8  -9.3375     65.8781    215.9194   9.5561335591e+01   2.2825874241e+01    0.2166796    0.1482761 -64.93  0.001413791    1.696    0.410
         9 -13.5304     18.3925    240.9774   1.0668939492e+02   2.3118685563e+01     3.508606     1.216074  19.02   0.01594123    3.901    0.744
        10 -13.6114     83.0524    223.7279   9.2561020686e+01   1.9516274155e+01     11.25694     4.506759  62.12   0.03760495    6.414    0.844
        11 -10.2633     12.2147    217.4121   1.0715012337e+02   2.7780938752e+01    0.3140533    0.1840225  80.15 0.0004178552    1.621    0.383
        12 -12.5597      8.5376    207.6940   1.0760978519e+02   2.9918860469e+01    0.9461803    0.8908597  -7.48  0.005295798    1.450    0.310
        13 -11.2961     16.6622    198.5313   1.0545517215e+02   3.1049385815e+01    0.3857636    0.3112438  -6.60 0.0008529102    1.718    0.418
        14 -13.7910     27.4580    189.8452   1.0249462891e+02   3.1868718958e+01     4.702626     1.733369  75.01   0.01931735    3.473    0.712
        15  -9.6706     67.2718    159.2987   8.9461152688e+01   3.4212841356e+01    0.2413556     0.239613  42.10 0.0004653354    1.122    0.109
        16 -11.6880     52.9962    155.2235   9.2906358402e+01   3.6902129030e+01    0.4837715    0.3274211 -32.22  0.001388109    2.020    0.505
        17  -7.7674    110.4298    167.2053   7.9506700273e+01   2.6416795041e+01    0.1784134    0.1299883 -72.71 0.0009456276    1.713    0.416
        18 -11.3376     69.9932    145.5058   8.6771826466e+01   3.7040977297e+01    0.5801695     0.478653  27.40  0.002452416    1.271    0.213
        19 -10.7843     67.3706    142.6956   8.7106264450e+01   3.8058656865e+01    0.5685799    0.2878364  49.01  0.001930057    2.030    0.507
        20 -10.9303     79.9125    139.0156   8.2866332751e+01   3.7161256307e+01    0.5841726    0.3972382 -86.93  0.000809983    1.819    0.450
        21  -8.8707     80.3924    210.4891   9.1921656174e+01   2.2138332768e+01    0.2098402    0.1647104  50.68 0.0005529757    1.156    0.135
        22  -8.8693     91.9977    140.2099   7.9658802605e+01   3.5046517657e+01    0.3081558    0.2679388 -41.30  0.001126595    1.218    0.179
        23  -8.0791     96.1589    137.2287   7.7948150793e+01   3.5059330847e+01    0.3626024     0.239733  -7.35  0.001512884    2.588    0.614
        24 -10.9718     58.6529    133.7893   8.8366323206e+01   4.1354973097e+01    0.7980459    0.3606542 -81.72  0.002859304    3.198    0.687
        25 -10.5306     48.8227    173.6246   9.5952763116e+01   3.3196083485e+01    0.4016132     0.300769 -13.40   0.00133416    1.886    0.470
        26  -8.7706     91.9855    125.9478   7.6880852090e+01   3.8325436718e+01    0.2122621    0.2094713 -15.19 0.0004223025    1.061    0.058
        27 -10.2058     55.6170    168.0754   9.3621940736e+01   3.3659318240e+01    0.3156453    0.2526664 -20.26  0.000770258    1.652    0.395
        28  -9.1220    105.8353    130.0966   7.3855538205e+01   3.5038146334e+01     0.331764    0.3000562   0.77   0.00107508    1.211    0.174
        29  -8.0114    103.9022    118.7543   7.1885536262e+01   3.7913625871e+01    0.1944178     0.186909  53.12 0.0003192635    1.054    0.051
        30  -9.8868     51.8506    114.5821   8.7424183966e+01   4.7029212255e+01    0.3649823    0.2516541 -86.59  0.001507269    1.548    0.354
        31  -8.0785    243.6803    115.3353   4.3777095590e+01   1.2870540140e+01    0.1183329   0.08273607 -47.72 0.0007049429    1.702    0.413
        32  -7.8343    205.9632    110.4913   4.7919470799e+01   1.9857642792e+01    0.1617486    0.1195994 -87.52 0.0004958884    2.404    0.584
        33 -10.0674      2.2182    104.3119   1.0412131406e+02   5.4206687011e+01    0.7223323    0.1141239 -75.00  0.002164759    4.428    0.774
        34  -7.7200     57.4688     95.4605   8.1513989570e+01   5.1143838446e+01    0.1474288    0.1345154  89.51 0.0008068247    1.093    0.085
        35  -9.9657      1.9871     78.6911   1.0172260140e+02   6.0903757860e+01    0.6791523    0.1021292 -73.84  0.001974874    4.501    0.778
        36  -9.2200     13.1274     60.3230   9.3184375372e+01   6.5020907460e+01    0.2576787    0.1771601 -79.95 0.0006002064    1.385    0.278
        37 -11.3776    205.6757     54.1999   3.3691079286e+01   2.7759865671e+01     1.032292    0.6249318  46.66  0.005274689    1.955    0.488
        38 -11.5350    215.0229     46.1701   3.0584208217e+01   2.6789586131e+01    0.6218327    0.5276311  10.97  0.003864705    1.395    0.283
        39 -10.3672      2.1182    162.6728   1.0749683555e+02   3.9887625391e+01     0.463734    0.1627722 -80.58  0.002094093    2.578    0.612
        40 -11.4231    229.8469     36.1660   2.6747195410e+01   2.4933289854e+01    0.6409578    0.4569166   6.61  0.001690138    1.824    0.452
        41  -9.6705     15.9218     45.7783   8.7793071979e+01   6.8461216131e+01    0.2967429    0.2113204  40.19   0.00096594    1.602    0.376
        42 -10.6616      2.2242     39.2943   9.4720347862e+01   7.0989175142e+01    0.7949598    0.1807386 -75.11  0.002299126    5.007    0.800
        43  -7.7338    121.1699     29.3797   3.8074512700e+01   5.1187263396e+01    0.1947998    0.1383166  83.44 0.0003859992    1.599    0.375
        44  -9.8713      9.0740    192.8421   1.0696466894e+02   3.2830541765e+01    0.3897467    0.1462982  68.45  0.001870036    2.539    0.606
        45  -9.0749    115.6276    244.7478   8.8001961401e+01   1.2493783672e+01    0.1578263    0.1418194 -87.27   0.00127552    1.513    0.339
        46  -9.8318    110.2403    228.3530   8.7427462155e+01   1.5548822655e+01    0.2970374    0.1443289  53.70  0.001482082    2.752    0.637
        47 -11.5384     76.2765    154.5662   8.6354782699e+01   3.4091532844e+01     1.004365    0.7269031 -87.96  0.003345328    1.567    0.362
        48 -10.3837     42.2587    216.8948   1.0073570891e+02   2.5134057230e+01    0.3254757     0.189266  74.75  0.001301353    1.809    0.447
