#   1 NUMBER                 Running object number                                     
#   2 MAG_AUTO               Kron-like elliptical aperture magnitude                    [mag]
#   3 X_IMAGE                Object position along x                                    [pixel]
#   4 Y_IMAGE                Object position along y                                    [pixel]
#   5 X_WORLD                Barycenter position along world x axis                     [deg]
#   6 Y_WORLD                Barycenter position along world y axis                     [deg]
#   7 A_WORLD                Profile RMS along major axis (world units)                 [deg]
#   8 B_WORLD                Profile RMS along minor axis (world units)                 [deg]
#   9 THETA_WORLD            Position angle (CCW/world-x)                               [deg]
#  10 FWHM_WORLD             FWHM assuming a gaussian core                              [deg]
#  11 ELONGATION             A_IMAGE/B_IMAGE                                           
#  12 ELLIPTICITY            1 - B_IMAGE/A_IMAGE                                       
         1 -14.7113     68.5726    144.5128   1.0524395979e+02   3.7159655219e+01     4.100048     2.310992  73.77  0.002983459    2.687    0.628
         2 -14.3760    215.0603     23.8034   4.0650873765e+01   2.8760763466e+01      1.36761     1.057582  26.95  0.007685347    1.815    0.449
         3 -14.5216    201.7997     37.0641   4.5553117594e+01   3.0261883283e+01     2.175339     1.539159  31.10  0.008283753    1.930    0.482
         4 -11.4077      2.1026      5.2007   9.1900002154e+01   7.3675641001e+01    0.5865297    0.1111331 -45.99  0.002336106    4.026    0.752
         5 -11.1674     56.1157      5.8195   6.5930268992e+01   6.6901070638e+01    0.3727078    0.2380021  63.90  0.001924136    2.733    0.634
         6 -12.0506    239.5221      2.2294   3.3617140153e+01   2.5664491857e+01    0.6520424    0.2341605  77.29  0.002944316    2.697    0.629
         7 -14.2933     29.3819    247.8938   1.2423515359e+02   1.9449801305e+01    0.8560891    0.5917688  31.74  0.006026344    1.860    0.462
         8 -10.2096    139.8633    249.9039   1.0441185988e+02   4.0819236781e+00    0.1826945    0.1495708  26.25  0.001232521    1.235    0.190
         9 -14.8085     85.6010    229.2832   1.1253022152e+02   1.5824711314e+01     2.101732     1.572562  66.40  0.006017293    1.176    0.150
        10 -14.9807     51.6964    220.8981   1.1835437434e+02   2.1999551891e+01     1.894117     1.653254  67.28   0.01371742    1.186    0.157
        11 -13.4017     27.9261    215.7053   1.2249781258e+02   2.5798111819e+01     1.002766    0.4060625  86.65  0.002614262    2.696    0.629
        12 -15.9563      6.7107    169.5221   1.2346300459e+02   3.7824904326e+01     6.467574     1.401892 -73.57   0.02485108    3.443    0.710
        13 -15.3334      9.3960    207.7986   1.2546795379e+02   2.9284707701e+01     2.409465     1.257339 -48.70   0.01297811    3.049    0.672
        14 -14.2331     41.0473    203.6148   1.1900251645e+02   2.6864829026e+01     1.064775    0.6775972  88.96  0.003264567    1.388    0.280
        15 -14.8507     50.5400    193.8816   1.1611832353e+02   2.7858315938e+01     1.895108     1.243999  70.66  0.009911221    1.406    0.289
        16  -9.9133    113.2045    207.4263   1.0423541815e+02   1.5930951320e+01    0.2194636    0.1798224 -70.27 0.0003272828    1.294    0.227
        17 -11.7442    193.2721    195.0434   8.5357488672e+01   4.3246695910e+00    0.9232147    0.4966954 -63.66  0.002873491    5.653    0.823
        18 -10.8987    209.0732    198.0842   8.2855455050e+01   1.0879596216e+00    0.2731485    0.1857839 -40.22  0.001060353    1.563    0.360
        19 -10.2081    111.5728    196.5093   1.0302539022e+02   1.8453209719e+01     0.328295    0.2190777  88.37  0.001590606    1.961    0.490
        20 -16.3762      9.0449    240.4951   1.2723185422e+02   2.2932348725e+01     2.779902     2.006043  36.35   0.02112151    1.702    0.413
        21 -10.7295    146.4790    182.5094   9.2894676623e+01   1.5253344571e+01    0.2584203    0.2388362  34.50  0.000781262    1.050    0.047
        22  -9.8759     99.5330    180.7951   1.0338610583e+02   2.3857564449e+01    0.2327346    0.2137696  -6.60 0.0006157568    1.377    0.274
        23 -12.2293     66.2838    177.2876   1.1068827959e+02   2.9609337113e+01      0.43668    0.2917002 -45.97  0.001793594    1.805    0.446
        24 -12.2492     71.1847    172.0874   1.0882845120e+02   3.0152842901e+01    0.3392499    0.3262728 -24.22 0.0007869839    1.317    0.241
        25 -11.0939    140.2158    173.0082   9.2534236341e+01   1.8420952307e+01    0.5192032    0.3596527 -78.22  0.002327226    2.036    0.509
        26 -12.5093     86.9256    155.8313   1.0237771533e+02   3.1703079382e+01     0.770583    0.4750627 -37.08  0.001430784    2.132    0.531
        27 -13.9088     79.7421    161.2953   1.0511276119e+02   3.1484691423e+01     3.217699    0.8622588  50.48  0.004229417    6.022    0.834
        28 -13.6647     67.6498    158.4885   1.0772737603e+02   3.3882282039e+01    0.5399087    0.3837208 -55.53  0.001339261    1.380    0.275
        29  -9.6059    173.4978    244.5008   9.7360839602e+01  -2.9807767938e-01      0.19671    0.1220604 -48.45 0.0007844337    2.011    0.503
        30 -15.7870     60.4976    247.3434   1.1882112168e+02   1.5850732614e+01     9.207861     2.834174  29.31  0.007410758   11.184    0.911
        31 -10.8955    133.0000    139.9595   8.7363994380e+01   2.7186673676e+01    0.5293729    0.1970186 -51.53  0.001739248    2.768    0.639
        32 -10.1910    134.0000    147.9991   8.8908740160e+01   2.5158323424e+01    0.4051521    0.2161143 -56.33  0.001596825    2.029    0.507
        33 -10.5509    134.0000    143.9709   8.8020304477e+01   2.6073214130e+01    0.4577088    0.1790152 -46.88 0.0009754063    2.518    0.603
        34 -10.6897    174.3413    148.2591   7.9603112287e+01   1.6848675687e+01    0.3912625    0.2683907 -61.75   0.00155258    1.852    0.460
        35 -11.5486     29.9739    144.0987   1.1541881223e+02   4.1750656545e+01    0.4112201    0.2564082  32.17  0.002295852    1.858    0.462
        36 -11.0538    101.4255    140.6205   9.5680236197e+01   3.2975761894e+01     0.611895    0.3747076 -27.52  0.002399565    2.569    0.611
        37 -12.3130     88.5468    140.7036   9.9154501626e+01   3.5111544603e+01    0.2906279    0.2470772 -48.01 0.0005104793    1.189    0.159
        38 -10.3333     81.5645    141.4718   1.0119210905e+02   3.6017792030e+01    0.2879632    0.2222174  76.29 0.0005921762    1.439    0.305
        39  -9.8486     33.3517    138.6913   1.1382940015e+02   4.2735724321e+01    0.2174399     0.141963  49.44 0.0009928951    1.653    0.395
        40 -11.3902     25.7856    137.5560   1.1570033845e+02   4.3719911631e+01    0.3710026    0.1997773  42.11  0.001530655    2.018    0.504
        41 -10.6025     46.1144    135.6783   1.0992048055e+02   4.2136683909e+01    0.2730368    0.1690638 -62.35 0.0007729862    1.380    0.275
        42 -10.2119    110.7291    130.8791   9.1058633293e+01   3.3625543937e+01    0.3501892    0.2625608  -0.25 0.0009483803    1.944    0.485
        43 -10.3214    105.9283    130.6932   9.2313804019e+01   3.4553463943e+01    0.3474599    0.3072858 -82.87  0.001209364    1.184    0.156
        44 -11.9959     45.8133    129.4365   1.0900778579e+02   4.3704051895e+01    0.4112067    0.2720936  43.02  0.002148968    1.666    0.400
        45 -11.0136    136.0391    127.3709   8.3618013571e+01   2.9423284451e+01    0.4733239    0.2022768 -53.35  0.001594759    2.597    0.615
        46 -10.2456    160.1422    127.8654   7.7927110072e+01   2.4150636828e+01    0.2479674    0.2220439 -77.85  0.001248237    1.255    0.203
        47 -10.9387     98.1051    126.9022   9.3608568691e+01   3.6855065749e+01    0.3148701    0.2561429 -22.56 0.0007465662    1.474    0.321
        48 -10.8055    117.9135    124.1893   8.7547916297e+01   3.3824023175e+01    0.5320604    0.3275778   1.03  0.001610016    4.337    0.769
        49  -9.4799     91.6370    124.1945   9.4817396029e+01   3.8614341715e+01     0.243263     0.193364  58.06 0.0006471277    1.386    0.278
        50  -9.9481    135.0000    119.9294   8.2014809003e+01   3.1313181202e+01    0.2623034   0.08752359 -45.78 0.0007975242    2.909    0.656
        51  -9.8490    107.4556    119.4674   8.9247113932e+01   3.6932794863e+01     0.235473    0.2322415 -44.86 0.0003815676    1.046    0.044
        52 -10.2084     32.6872    118.8000   1.1108194446e+02   4.7649189304e+01     0.216479    0.1335642 -54.48 0.0006984021    1.407    0.289
        53  -9.7517    168.2178    113.1118   7.2329053809e+01   2.5429521975e+01    0.3621367    0.2376226 -70.67  0.001393466    2.358    0.576
        54 -10.4748     34.5271    171.2177   1.1737167712e+02   3.4842474108e+01     0.246597    0.1588565  68.80  0.000781128    1.480    0.324
        55  -9.2981    232.0063    113.0000   6.0303184565e+01   1.1434061105e+01    0.2203667   0.08302091  52.60 0.0008095394    2.992    0.666
        56 -10.2539    205.1968    110.2726   6.4182063715e+01   1.7621385768e+01    0.3512788     0.250635  32.93  0.001306571    1.646    0.392
        57  -9.3742     59.3225    108.3177   1.0093285809e+02   4.7261819175e+01    0.1452391   0.09930672 -32.38 0.0003718486    1.667    0.400
        58 -10.5481    230.4748    166.0056   7.2461349023e+01   2.6499964362e+00    0.2147267    0.1230778 -34.83 0.0008302315    1.601    0.376
        59  -9.3031    140.8240    107.2533   7.7190632916e+01   3.2834526695e+01    0.2655315    0.1762064 -83.30 0.0009514712    2.771    0.639
        60 -10.9648    119.3090    105.1948   8.2257589880e+01   3.7882374850e+01    0.5063893    0.2593608 -26.64  0.001594802    3.409    0.707
        61 -10.2047    134.6229    105.0178   7.8146849602e+01   3.4677541575e+01    0.3726294    0.1470226 -43.70  0.001251336    2.456    0.593
        62 -10.9819    248.6093    102.7452   5.5457407296e+01   9.8351922590e+00    0.2402746    0.1694912  39.93  0.001277994    1.707    0.414
        63 -10.4625    158.9695    162.0035   8.6036741175e+01   1.7126706414e+01    0.3325685    0.2692739 -76.61 0.0006868452    1.552    0.356
        64 -11.6807    241.8994    100.9300   5.5984622280e+01   1.1462178671e+01    0.3587228    0.1695952 -46.09   0.00153179    1.981    0.495
        65 -10.1910     36.0458    101.0589   1.0685897735e+02   5.1617684160e+01    0.2074901    0.1512119  78.74  0.001132022    1.685    0.407
        66  -9.6136    128.2456     95.3885   7.7086251399e+01   3.8123754893e+01    0.2095374    0.1498419  56.56 0.0008585867    1.553    0.356
        67 -10.5548     53.1329     90.9518   9.8900696080e+01   5.2149886899e+01    0.3334946    0.1802253 -55.84  0.001144406    1.610    0.379
        68 -10.7135     41.5558     91.2338   1.0291985508e+02   5.3389314184e+01    0.3559985      0.20909 -66.78 0.0009423066    1.655    0.396
        69  -9.8432    249.7575     87.9867   5.1927916095e+01   1.1972210564e+01    0.1815068    0.1009941 -36.25 0.0002522709    1.547    0.354
        70  -9.3421     74.8719     84.8610   8.9927334702e+01   5.0522961797e+01    0.1824545    0.1679958 -86.25 0.0003710104    1.282    0.220
        71  -9.0624    115.7675     84.6020   7.7271667576e+01   4.3040696596e+01    0.2115584    0.1462865  57.60 0.0007168691    1.686    0.407
        72  -9.4479     69.7351     81.6791   9.0728624238e+01   5.2007320730e+01    0.1787883    0.1623467  85.79 0.0009655769    1.354    0.261
        73  -9.8265    158.9804     81.5093   6.5567733325e+01   3.3794799112e+01    0.2317626    0.1532564  53.47 0.0005761881    1.543    0.352
        74  -9.1656    106.4708     76.9725   7.7554942053e+01   4.6506134405e+01    0.2835063    0.1880815  84.79  0.001016133    3.308    0.698
        75 -10.0460      1.5005     62.0609   1.1117221737e+02   6.3007726984e+01    0.1902662   0.09184251 -62.55  0.001034945    1.596    0.373
        76 -10.5321     13.4973     59.7876   1.0578518864e+02   6.2807657530e+01    0.2147673    0.1767277 -45.33 0.0003270373    1.061    0.058
        77  -8.6886     71.6732     58.3252   8.2524298718e+01   5.6506702026e+01    0.1306767    0.1122302 -83.05 0.0007049488    1.695    0.410
        78 -10.5464    171.8251    240.8825   9.7160256664e+01   4.9745137966e-01    0.4385174      0.17192 -49.71   0.00195953    3.301    0.697
        79 -12.2762    193.3936     43.2535   4.8345040923e+01   3.1478890206e+01    0.5817559    0.5356227  87.08   0.00102232    1.048    0.046
        80  -9.7341    197.8193    223.0960   8.9446136277e+01  -9.5781694106e-01    0.1763243    0.1628001  31.46 0.0004975609    1.238    0.193
        81 -11.1491    141.2799     46.6925   5.8528077444e+01   4.3900667616e+01    0.3921899     0.285936 -80.67 0.0009029948    1.849    0.459
        82 -10.2498    144.3435     41.2862   5.6095944743e+01   4.3920132577e+01    0.2566967    0.2318578 -82.62 0.0003681495    1.198    0.165
        83 -10.1748      2.2363     37.2391   1.0442483310e+02   6.8076335086e+01    0.1768966   0.08718466 -68.32 0.0008908978    2.452    0.592
        84  -8.6686    115.6611     31.2911   5.8977290502e+01   5.2053591301e+01    0.1357232    0.1094556 -74.35  0.000344947    1.645    0.392
        85 -11.2202      2.2447     24.3490   1.0005690295e+02   7.0485367858e+01    0.2916785    0.1475518 -44.73 0.0009575408    1.461    0.315
        86  -9.7397    189.6394     15.0120   4.1121675901e+01   3.5841978242e+01    0.1854105    0.1611407 -49.03 0.0005826928    1.162    0.140
        87  -8.8669    111.5673    217.5250   1.0593248099e+02   1.4191633102e+01     0.128995    0.1124153  58.53 0.0001011038    1.010    0.010
        88 -10.3583     12.6709     52.8452   1.0427936603e+02   6.4318827508e+01    0.2000006    0.1441989 -21.69 0.0008493169    1.363    0.266
        89 -13.5509      9.1673    188.8762   1.2432824628e+02   3.3315755815e+01    0.7723732      0.41702 -51.66  0.004343202    2.373    0.579
