#   1 NUMBER                 Running object number                                     
#   2 MAG_AUTO               Kron-like elliptical aperture magnitude                    [mag]
#   3 X_IMAGE                Object position along x                                    [pixel]
#   4 Y_IMAGE                Object position along y                                    [pixel]
#   5 X_WORLD                Barycenter position along world x axis                     [deg]
#   6 Y_WORLD                Barycenter position along world y axis                     [deg]
#   7 A_WORLD                Profile RMS along major axis (world units)                 [deg]
#   8 B_WORLD                Profile RMS along minor axis (world units)                 [deg]
#   9 THETA_WORLD            Position angle (CCW/world-x)                               [deg]
#  10 FWHM_WORLD             FWHM assuming a gaussian core                              [deg]
#  11 ELONGATION             A_IMAGE/B_IMAGE                                           
#  12 ELLIPTICITY            1 - B_IMAGE/A_IMAGE                                       
         1 -14.6120    190.2914     66.1296   3.4213721603e+01   2.8101237780e+01     2.188795     1.178781 -44.34  0.006454096    1.849    0.459
         2 -13.5627    173.0045     43.2909   3.0225921647e+01   3.5850225285e+01     1.570131     1.181352   8.38  0.006311405    1.721    0.419
         3 -14.1894    213.4162     61.1242   2.9436007115e+01   2.3240808525e+01     1.677441     1.197495  62.28  0.008723741    1.472    0.320
         4 -12.8029    197.4892     40.1811   2.5776772866e+01   2.9929691285e+01     0.861088    0.5148135 -39.26  0.001866368    1.569    0.363
         5 -11.0616     67.8991     10.0551   4.2601207020e+01   6.6613281930e+01     3.664104      1.10661  38.82   0.01167393    4.044    0.753
         6 -12.7462     59.3833     64.3758   7.0016865416e+01   5.8207595965e+01     1.306469     0.560594 -63.91  0.004496275    3.319    0.699
         7 -14.5641     11.9766     36.9501   8.4817421689e+01   6.9395095788e+01     1.848801      1.39507 -76.77  0.005820925    1.404    0.288
         8 -14.6309     54.6925     39.9110   6.3202548781e+01   6.4122840633e+01     2.882563     1.789831 -15.41  0.004927499    2.248    0.555
         9 -13.1693     76.3582     21.7938   4.5505906625e+01   6.3251659367e+01     1.629015    0.9358297  42.94  0.007684594    1.663    0.399
        10 -12.7197     82.0957     40.4938   5.1946339258e+01   5.9032153629e+01    0.7480741    0.6137252 -58.04  0.003050316    1.448    0.310
        11 -12.4830    126.7118     43.5555   3.9583056498e+01   4.8034161499e+01     1.040258    0.4719011 -45.35  0.003792533    2.470    0.595
        12 -14.6384      6.0712     62.1446   9.3409155199e+01   6.3895407078e+01     2.335064     1.226837 -85.33  0.008022503    1.903    0.474
        13 -10.4165    112.5196     19.6185   3.3478458854e+01   5.4982069199e+01    0.5484313    0.2366049 -33.95  0.002153025    2.354    0.575
        14 -11.1612    147.1673     25.6459   2.8680808813e+01   4.5065067263e+01    0.5892204    0.4648382  27.75  0.002967655    1.441    0.306
        15 -10.9572    125.9570     23.4723   3.1998733320e+01   5.1015150014e+01    0.4589548     0.224416 -22.68 0.0008543217    2.277    0.561
        16 -12.7100    162.8672     21.5356   2.4746594726e+01   4.1290629164e+01    0.5402129    0.2907778  57.39  0.002350275    1.735    0.424
        17 -10.2630    223.5200     14.4831   1.6200290296e+01   2.6545999382e+01    0.2831081     0.130035 -36.13 0.0007393658    1.872    0.466
        18 -10.9792    222.0854     11.1589   1.5466673438e+01   2.7226165241e+01    0.2103209    0.2000604  22.01  0.000341646    1.297    0.229
        19 -10.4456     88.5407     11.8531   3.6389254879e+01   6.1808742804e+01    0.1905691    0.1680519 -20.04  0.001094058    1.188    0.158
        20  -9.1775     84.7828     13.2015   3.8242392864e+01   6.2526065624e+01    0.3537151    0.2167096  27.66  0.001200191    1.813    0.448
        21  -9.9859     84.9179      8.1241   3.5607012634e+01   6.3075387129e+01    0.3848801    0.1893447 -12.25  0.001584227    2.518    0.603
        22 -11.0946    148.9507     11.7989   2.3422324821e+01   4.6104536058e+01    0.4945782    0.2402028 -67.48  0.001763122    3.016    0.668
        23  -9.5565    129.9029     11.4007   2.6406188850e+01   5.1304148908e+01    0.2224779    0.1738353  -8.43 0.0007085958    1.444    0.307
        24 -11.3734    116.0738      9.7062   2.8410232992e+01   5.5145844619e+01    0.4241186     0.293278  -1.52  0.001316924    1.695    0.410
        25  -9.7917    227.8595     10.1833   1.4799869597e+01   2.5979892563e+01    0.1587673    0.1433254 -10.67 0.0008176196    1.324    0.245
        26  -9.8407    162.9166     11.9421   2.1538503239e+01   4.2297215960e+01    0.2389286     0.150976 -60.03 0.0005478085    1.695    0.410
        27  -9.4052     26.5404      9.6117   6.3983483569e+01   7.3591498228e+01    0.2346943    0.1395617  -8.18 0.0008780874    2.090    0.522
        28  -9.7424    193.4583      8.1029   1.7019968713e+01   3.4591906394e+01    0.2405805    0.1632413  56.49  0.000833519    1.530    0.346
        29 -10.1930     47.1414      6.6592   5.0006672005e+01   7.1017123527e+01    0.3776702    0.2029373 -44.60  0.001809289    2.281    0.562
        30  -9.7740    173.3249      6.9629   1.8687721799e+01   3.9981554535e+01    0.1902232    0.1573769 -45.99 0.0005125039    1.208    0.172
        31  -9.9185    110.6129      7.1629   2.8465261916e+01   5.6817308458e+01    0.1961038    0.1736429  24.35   0.00110846    1.147    0.128
        32  -8.1966    110.3679      3.7046   2.6972278148e+01   5.7201882738e+01    0.1897565    0.1332558 -42.38 0.0009526432    1.587    0.370
        33 -10.5504    100.8984      6.8357   3.0563906267e+01   5.9328119851e+01    0.3528091    0.1844682  57.33  0.001580711    1.688    0.408
        34 -10.1324     95.2810      6.8751   3.2016132182e+01   6.0720328808e+01    0.3988824    0.1503704  53.30  0.001547874    2.234    0.552
        35  -9.9464      2.4185      6.5408   8.0171756987e+01   7.6306690529e+01    0.2111524    0.1083238  11.42  0.001190374    2.111    0.526
        36  -9.5336    145.4096      5.5058   2.1660015840e+01   4.7666235372e+01     0.141919     0.130797  72.31 0.0001240224    1.023    0.023
        37  -9.5578     42.5847      5.5244   5.1728853819e+01   7.1942552597e+01    0.1245792    0.1107442  -5.73 3.284409e-05    1.112    0.101
        38  -9.9299    126.3757      2.6633   2.3512326850e+01   5.3064104282e+01    0.3440059    0.1454384  -8.89  0.001251769    3.175    0.685
        39 -10.6145     55.9697      2.9917   4.3473110604e+01   6.9871872000e+01    0.3353474    0.2365914  30.55   0.00190696    1.310    0.237
        40 -11.5963    209.0124      2.1517   1.4098991255e+01   3.1253582947e+01    0.1956122    0.1723717 -51.03 0.0003585749    1.101    0.091
        41 -11.0741    155.4001      2.0848   1.9134740637e+01   4.5253195423e+01     0.301926    0.2006302  53.24 0.0006754765    1.461    0.315
        42 -10.2601     84.9615      1.4377   3.2101023219e+01   6.3740952225e+01    0.2434775    0.1447527  52.57  0.000540575    1.484    0.326
        43 -11.0012     10.4052     92.5487   9.5830763891e+01   5.6329094004e+01    0.2154086    0.1262718   5.12  0.001143641    2.208    0.547
        44 -10.9530    228.9763    249.4311   6.5151720805e+01  -4.7796161134e+00    0.1812022    0.1302373  -2.68 0.0003360779    1.285    0.222
        45 -11.0163    211.1031    250.0768   6.8197068751e+01  -2.5574011713e+00    0.2385073    0.1066832  31.52  0.001412868    1.663    0.399
        46 -11.4781    154.4853    249.4819   7.8150815822e+01   5.2909450170e+00    0.4110432    0.1715264  31.35  0.002134825    2.001    0.500
        47 -12.1896    164.5667    248.4040   7.6175961539e+01   4.0011702256e+00    0.4217172     0.233139  24.68  0.002523519    1.651    0.394
        48 -13.5712     37.8590    248.3166   9.9848854195e+01   2.0628792917e+01    0.7964407    0.5415456  35.88  0.005954837    1.411    0.291
        49 -12.1905     12.3801    247.1080   1.0432475096e+02   2.3418240797e+01    0.5987028    0.2213511 -87.37  0.003564584    2.754    0.637
        50 -11.5236    151.7793     96.4648   5.0552321842e+01   3.2328838561e+01    0.4917582    0.3026337  46.88  0.001421016    1.592    0.372
        51 -10.8557    106.5467     96.4682   6.2739711723e+01   4.2468450042e+01    0.2735971    0.1900361  13.81 0.0001330044    2.130    0.531
        52 -12.7701    105.8802     92.8534   6.1942991602e+01   4.3410289198e+01     0.728612     0.301408  43.21  0.001827649    2.397    0.583
        53 -12.4269    107.3080     89.1831   6.0460525852e+01   4.3922063469e+01    0.4581116    0.3386593  57.00  0.002131775    1.446    0.308
        54 -12.4798     62.5267     94.3950   7.6886954792e+01   5.0668447007e+01    0.5316206    0.3093497 -73.34 0.0006973614    1.987    0.497
        55  -9.7849    246.8340     94.8098   3.3328463122e+01   1.1443415411e+01    0.1704689    0.1428053 -52.13  0.000336938    1.301    0.231
        56 -11.5799    219.5419     92.4124   3.6561330127e+01   1.7332774343e+01    0.4515155    0.2194802 -28.12  0.001912698    2.022    0.505
        57 -11.5475    210.7171     94.2284   3.8388706528e+01   1.8979562667e+01    0.4580423    0.2407825  53.44  0.001227449    1.988    0.497
        58 -11.0533    213.5087     90.4864   3.7006708619e+01   1.8935929323e+01    0.2854993    0.1921666   5.35  0.001099451    2.072    0.517
        59 -12.9151    187.3347     90.7150   4.1514545942e+01   2.4890770145e+01     1.604982    0.6327385 -41.61  0.004309264    2.509    0.601
        60 -11.5602    111.8434    249.3390   8.6118779160e+01   1.1282770911e+01    0.2104938    0.1772185  47.03  0.001619535    1.161    0.139
        61 -11.7032    182.6024     35.7952   2.6475029353e+01   3.4316133760e+01    0.4811729     0.305812 -37.78 0.0003588239    1.525    0.344
        62 -11.0138    177.6741     94.6665   4.4433901199e+01   2.6501718729e+01    0.2628649    0.2514598  -3.22 0.0004070454    1.050    0.048
        63 -12.9730    175.2778     87.1112   4.2842350463e+01   2.8388441737e+01     1.117785    0.7786471   7.72  0.003050012    2.080    0.519
        64 -11.0281    214.8519    246.7899   6.7121640940e+01  -2.7121844495e+00    0.1755064    0.1332585  -0.99 0.0008298581    1.269    0.212
        65 -10.1071    235.3181    244.3097   6.3408532084e+01  -5.0824512448e+00    0.1113564   0.06144327  11.40 0.0003398658    1.639    0.390
        66 -12.2936    162.3640     58.4346   3.6887424154e+01   3.6413362048e+01    0.9206583    0.5455613 -35.57  0.003938373    1.684    0.406
        67 -12.9322    172.8206     55.6738   3.4093326020e+01   3.4118705733e+01    0.7119437    0.5499259  76.39  0.001581526    1.365    0.267
        68  99.0000    147.7444     39.2406   3.3384460222e+01   4.3139808981e+01     1.080218    0.6877205 -14.38  0.004642507    1.937    0.484
        69 -12.3407    194.1776     53.8304   3.0119138879e+01   2.8928594983e+01    0.7180508    0.3978399  63.77  0.001704898    1.832    0.454
        70 -13.2157    188.5199     46.7407   2.8895876109e+01   3.1342885475e+01    0.9751726    0.8545174  63.76  0.003526885    1.148    0.129
        71 -11.5635    227.5514    242.7595   6.4449744771e+01  -3.9516544161e+00    0.2103414    0.1954082  36.83  0.001695636    1.852    0.460
        72 -12.4864    188.5475     34.3314   2.5234827827e+01   3.2953009176e+01     1.128728    0.3828626  55.08  0.004016486    2.811    0.644
        73 -12.3263    154.6355     42.9090   3.3312679123e+01   4.0783058523e+01    0.8050675    0.4654486  25.93  0.002990094    2.687    0.628
        74 -12.9168    159.7786     37.8083   3.0670859778e+01   4.0113683703e+01    0.9426447    0.5639248  83.16  0.003890907    2.017    0.504
        75 -11.6976    115.9972     88.9663   5.7803404606e+01   4.2100111733e+01    0.2939748    0.2267927 -52.78  0.001388691    1.347    0.257
        76 -11.2512    113.4152     73.3891   5.3754035368e+01   4.5915393635e+01    0.4853925    0.3402291  -7.78  0.001402604    2.138    0.532
        77 -12.2092    127.4880     90.4315   5.4993668190e+01   3.9212785530e+01    0.4541112     0.383067  26.82  0.000576752    1.285    0.222
        78 -13.7147    123.4587     84.4398   5.4329133542e+01   4.1369441044e+01     1.404279    0.8300292 -20.53  0.004555653    2.741    0.635
        79 -10.3420    115.1282     56.1858   4.7331926914e+01   4.8804802311e+01    0.2571986    0.2289187 -36.82 0.0008436942    1.147    0.128
        80 -12.6189    121.7066     67.7247   4.9494549043e+01   4.5091410900e+01    0.7531499    0.4879828  65.20  0.002492579    1.839    0.456
        81 -12.7258    116.4704     62.8892   4.9324871700e+01   4.7252394680e+01    0.8116441    0.5761914 -20.21  0.003498102    1.694    0.410
        82  -9.6615     68.3280     94.9172   7.4942425625e+01   4.9691092965e+01    0.1962287    0.1791788 -60.56 0.0004422402    1.052    0.049
        83 -11.4371     48.5113     85.0868   7.9995202380e+01   5.4777253242e+01    0.3248076    0.2388021 -72.55 0.0009560814    1.342    0.255
        84 -12.7037     52.8169     89.8699   7.9427752717e+01   5.3077892564e+01    0.4203468    0.3687018  68.97 0.0006327135    1.201    0.167
        85 -12.1713     52.8338     86.3449   7.8620527550e+01   5.3934424000e+01    0.4654418    0.2230617  24.69  0.001218797    2.470    0.595
        86  -9.7954    241.1900     91.1091   3.3205731861e+01   1.3046590142e+01    0.1746138    0.1352147 -46.90            0    1.304    0.233
        87 -10.8540    224.7114     91.3395   3.5532689284e+01   1.6388330273e+01    0.2512811    0.2003455 -72.79 0.0007568462    1.581    0.368
        88 -11.2039    224.1630     87.1318   3.4581530825e+01   1.7117030211e+01    0.2485313    0.2254717 -16.45 0.0002932741    1.065    0.061
        89 -12.0832     95.1058     89.2918   6.4342260568e+01   4.6369480939e+01    0.3910218    0.3337683  56.66            0    1.214    0.176
        90 -12.5289     39.3680     88.1433   8.4178368778e+01   5.5056902116e+01    0.6629195    0.3109696 -72.84 0.0008658394    2.196    0.545
        91 -12.0468    180.1059    242.7263   7.2647326888e+01   2.4913338021e+00    0.2305441    0.1814051  50.65  0.001204596    1.613    0.380
        92 -12.9007     66.7568     83.1392   7.2552990697e+01   5.2749111503e+01    0.8889068    0.5937605  73.72  0.001697016    2.197    0.545
        93 -14.5391     42.6025     74.7882   7.9951190972e+01   5.7956288211e+01     1.726268    0.9908087  40.63  0.008381542    1.893    0.472
        94 -11.9467     52.9871     55.8215   6.9972043741e+01   6.1038978801e+01     0.552426    0.3744385  -4.72  0.001534943    2.002    0.500
        95 -13.2550     54.7118     71.6547   7.4120845920e+01   5.7197196809e+01     1.018896    0.5183105 -65.49  0.002764208    2.204    0.546
        96 -11.8408    219.3891    240.3540   6.5463008463e+01  -2.6466940793e+00    0.3223014    0.2218028   7.29  0.002330351    1.237    0.192
        97 -11.4841     15.9030    238.3447   1.0342811310e+02   2.4534995591e+01    0.2103538     0.189511 -56.56 0.0006480378    1.734    0.423
        98 -10.8839    110.3126    240.7699   8.5615879703e+01   1.2765556602e+01    0.1672166    0.1266193  64.18 0.0006029712    1.397    0.284
        99 -12.2771      3.6343    247.6138   1.0584528609e+02   2.4150376778e+01    0.6162525    0.2590487  70.61  0.004057327    1.920    0.479
       100 -12.7878     76.2033     41.9096   5.4796092909e+01   5.9960577260e+01    0.5260299    0.4940544 -18.37 0.0005583031    1.042    0.040
       101 -10.9978    159.9209    219.6917   7.3389936920e+01   8.5371252420e+00    0.1795872    0.1689376  26.06 0.0003376469    1.229    0.186
       102 -10.3493    166.4502     89.7804   4.5399984530e+01   3.0057609404e+01    0.3233506    0.2219093  69.97 0.0005138973    1.772    0.436
       103 -12.1125    162.4275     84.1432   4.4655346427e+01   3.2050934111e+01    0.6436461    0.5546525  47.23  0.002135265    1.151    0.131
       104 -11.9958    169.1302     80.8846   4.2313776383e+01   3.0970291303e+01     0.553992    0.4298603 -67.95  0.001427353    1.542    0.352
       105 -11.1004    170.2755     77.3496   4.1059636645e+01   3.1291291202e+01    0.3822384    0.2630146 -33.92  0.001206313    1.460    0.315
       106 -11.8990    149.5105     85.8149   4.8050214559e+01   3.4906670922e+01    0.6400743    0.4428821  74.49  0.001798859    1.888    0.470
       107 -11.9705    148.5148     81.2048   4.6917603695e+01   3.6013551363e+01    0.3717488    0.3417428 -89.47 0.0002815321    1.169    0.145
       108 -12.2271    138.8035     87.9454   5.1292865984e+01   3.7072468308e+01    0.7491572    0.3124251  51.05            0    2.386    0.581
       109 -11.6958    139.7443     80.4652   4.8817687405e+01   3.8298804706e+01    0.5653955    0.3273839 -41.25 0.0007493054    1.751    0.429
       110 -11.1100     24.1818     86.8719   8.9830924399e+01   5.6763946569e+01    0.3590083    0.2021671 -82.86  0.001771058    1.773    0.436
       111 -11.0737    237.6294     86.4760   3.2581587713e+01   1.4399799445e+01    0.2822055    0.2289248 -88.92  0.001082556    1.562    0.360
       112 -13.4969    204.8447     69.9122   3.2984949210e+01   2.4005292279e+01    0.8240682    0.6468657  88.80  0.001732887    1.479    0.324
       113 -11.8898     32.3046     84.8466   8.6294209468e+01   5.6562800771e+01    0.4230059    0.2877516  61.96  0.002228099    1.686    0.407
       114 -13.7093     79.2884     59.9960   6.0611612956e+01   5.5809396396e+01     1.980763    0.9519712 -45.10  0.008011562    2.035    0.509
       115 -11.9805    212.9554     83.2841   3.5265846171e+01   2.0143770188e+01    0.3792104    0.2461774  19.97  0.001677048    2.201    0.546
       116  -9.2719    251.0000     82.8334   3.0073836613e+01   1.2243123696e+01    0.2222528   0.06466436 -30.47 0.0004594997    2.964    0.663
       117 -11.4561    114.1294     80.8424   5.5908434251e+01   4.4226177691e+01      0.46067    0.3796446 -13.05  0.001212601    1.443    0.307
       118 -10.2292    118.5168     79.0450   5.4069488709e+01   4.3605080135e+01    0.2174496    0.2021832 -40.29 0.0003248786    1.092    0.085
       119 -11.0269    221.6004     82.2475   3.3736086563e+01   1.8379591055e+01    0.2393076    0.1777702  76.43  0.001100734    1.640    0.390
       120 -11.3340    131.3907     81.0420   5.1139483760e+01   4.0197134316e+01    0.3543772    0.2256908  53.79 0.0005766898    1.580    0.367
       121 -13.0168     96.0025     69.4170   5.7929456051e+01   5.0528983162e+01    0.9544218     0.796139  88.20  0.002511509    1.496    0.332
       122 -12.1092    100.6155     65.3785   5.5036918905e+01   5.0376437843e+01    0.6564285    0.3044349  61.50  0.001983249    3.850    0.740
       123 -11.3426     93.4756     59.9500   5.5496212226e+01   5.2989542337e+01    0.5913188    0.4090416 -74.23  0.001768073    2.285    0.562
       124  -9.6307     90.0396     55.0185   5.4871611570e+01   5.4680260311e+01    0.2607879    0.1807736  32.09 0.0008215608    1.548    0.354
       125 -11.9532    104.1452     75.0747   5.7139956278e+01   4.7621423403e+01     1.073531    0.6563239   8.88  0.003396692    3.853    0.740
       126 -11.9140     20.2477     75.3996   8.9466142737e+01   5.9864367518e+01    0.3481332    0.2200657 -66.26  0.001245708    1.345    0.257
       127 -11.2116     19.2900     80.9807   9.0809905923e+01   5.8574538209e+01     0.248137    0.1960054 -41.57 0.0004443408    1.301    0.232
       128 -11.5767     23.3526     78.3513   8.8703994921e+01   5.8913924091e+01    0.2756077    0.1985875 -54.61  0.001549278    1.243    0.196
       129 -10.8820     82.9552     78.6209   6.5360856576e+01   5.1075640382e+01    0.4109814    0.2297288  30.31  0.001684221    2.081    0.519
       130  -9.8490    232.1940     79.1264   3.1525286455e+01   1.6545424449e+01    0.2029982    0.1801376   0.68 0.0007760138    1.201    0.167
       131 -11.9406    219.9744     75.4744   3.2258956348e+01   1.9714352695e+01    0.3333408    0.2252375 -80.56  0.001506343    2.083    0.520
       132 -11.4172    134.1879     41.2890   3.6979221950e+01   4.6436827374e+01    0.7136517    0.5279276 -54.87  0.003369325    1.510    0.338
       133 -11.0409    128.3706     58.3594   4.4502875493e+01   4.5170901538e+01    0.5878882    0.3066316  49.37  0.002236215    1.849    0.459
       134 -13.0571    138.0090     71.6650   4.6500689783e+01   4.0377041316e+01      1.51664    0.7022753  41.82  0.004713252    2.368    0.578
       135 -12.2558    133.3156     53.1256   4.1433463927e+01   4.4809019805e+01       1.0277    0.6404822  68.60  0.004276836    1.838    0.456
       136 -10.6927    147.3772     51.7985   3.7774902652e+01   4.1374667740e+01    0.6317684    0.4650356  32.32  0.002913041    1.551    0.355
       137 -10.5512    133.3924     47.0739   3.9262637832e+01   4.5763190222e+01    0.4962964    0.3262491  69.07  0.002161873    1.661    0.398
       138 -13.0431    143.8579     61.7083   4.1865006900e+01   4.0667371280e+01       1.1299    0.8143997  67.22  0.002579336    1.477    0.323
       139  -9.3588    248.9679    118.2189   3.8272723424e+01   7.8804931923e+00    0.1505002    0.1045674  47.74 0.0008550286    1.619    0.382
       140 -11.0058    152.4522     58.9785   3.9074290515e+01   3.8904006295e+01    0.4224679    0.3028896  20.67  0.001774686    1.831    0.454
       141  -9.4233    163.9687    118.2396   5.3448122068e+01   2.5349323741e+01    0.1971845    0.1247535  47.50 0.0003446642    1.543    0.352
       142 -12.0484     72.3788     74.3991   6.7959777991e+01   5.3882356653e+01    0.6980766    0.5172551  67.61  0.002862721    1.744    0.427
       143 -11.2676     79.0928     73.0488   6.5045020915e+01   5.3024219411e+01    0.3927852     0.340873 -31.79 0.0004189187    1.175    0.149
       144 -10.4599    155.4018     76.8203   4.4026006522e+01   3.5102832434e+01     0.385914    0.2469379  48.20  0.001470622    1.542    0.352
       145 -11.9133     87.8149     73.1935   6.1966218605e+01   5.1366578221e+01    0.3691917    0.2970034  20.38 0.0004635692    1.403    0.287
       146 -13.1511    201.7135     60.3445   3.0846524410e+01   2.6145266456e+01    0.9199933    0.4886589 -38.22  0.004024525    1.751    0.429
       147 -12.0474    176.8421     69.8755   3.7621119770e+01   3.0879927076e+01     1.020661    0.5905339 -85.18  0.003406428    3.455    0.711
       148 -11.0879    164.6315     73.7420   4.1135432315e+01   3.3319918164e+01    0.4314398    0.2843911 -53.04  0.001050842    1.693    0.409
       149 -12.1634    163.0605     65.8477   3.9059595877e+01   3.5040745064e+01     0.808754    0.4997214  43.87  0.003457715    1.697    0.411
       150  -9.9350    237.4266     73.0225   2.9389020352e+01   1.6280997553e+01    0.1982564    0.1196232 -28.37 1.259063e-05    1.516    0.340
       151 -11.5695    231.6124     69.2059   2.9169228715e+01   1.8032888387e+01    0.2788821    0.2136911  38.49  0.001548512    1.504    0.335
       152  -9.9715    250.1772     67.9278   2.6724868204e+01   1.4345128045e+01    0.3001874    0.1565785 -23.17  0.001128579    1.907    0.476
       153 -11.0848    239.6599     66.9236   2.7656616949e+01   1.6626547581e+01    0.3669606    0.2193211 -31.08  0.001880536    1.484    0.326
       154 -10.1663    110.9762     52.5071   4.7184772461e+01   5.0453403190e+01     0.235116    0.1941801  31.17 0.0007039968    1.256    0.204
       155 -11.3186    109.5434     62.4885   5.1228594132e+01   4.8947175772e+01    0.2709137    0.2336362 -26.84  0.000757076    1.206    0.171
       156 -11.4450    105.4232     60.8164   5.1903852020e+01   5.0208122128e+01    0.4707192    0.2428001  43.15  0.001007416    1.948    0.487
       157  -9.8952    109.0000     56.0220   4.9072686834e+01   5.0286068199e+01    0.3107445     0.215333 -21.99  0.001380193    1.689    0.408
       158 -11.1735    238.3968     60.2209   2.6179828095e+01   1.7769711954e+01    0.5736145    0.3033606  28.95  0.002244488    3.510    0.715
       159  -9.9657    100.0015     74.4529   5.8265693796e+01   4.8634126785e+01    0.2265712    0.1492191  44.63  0.001003264    1.516    0.340
       160 -11.5747    229.1297     58.8522   2.6894190003e+01   1.9963433035e+01    0.5577304    0.2319207 -33.71  0.002356341    2.083    0.520
       161  -9.8169    231.9873     54.9442   2.5593980413e+01   1.9841928608e+01    0.3537093    0.2365113 -59.79  0.001118916    1.586    0.369
       162  -9.9943    230.3428     39.6584   2.1950509717e+01   2.2123999081e+01    0.3464064    0.2176685 -72.74  0.001217578    1.809    0.447
       163 -11.8464    229.9434     46.7061   2.3757929924e+01   2.1345579791e+01    0.5937001    0.4335499  76.42  0.002627083    1.478    0.324
       164 -11.5437    101.0201     53.3482   5.0558317690e+01   5.2610493415e+01    0.7031661    0.2825013  46.96  0.002151293    2.433    0.589
       165 -10.3278    121.6137     45.1295   4.1464034369e+01   4.9084445096e+01    0.3850457    0.3030538  59.85  0.001415703    1.257    0.205
       166 -10.4095    238.4317     51.9978   2.4178973842e+01   1.8812899760e+01    0.2471947    0.1919291  63.85  0.001449427    1.418    0.295
       167 -11.4153    212.6057     49.3704   2.6417750631e+01   2.5022112550e+01    0.6311651    0.4121723  53.34  0.002705431    1.629    0.386
       168 -12.0459    206.9241     45.8431   2.6166037089e+01   2.6855831571e+01    0.5947571    0.5451704 -49.08  0.002699967    1.030    0.029
       169 -11.1401    214.1183     42.3289   2.4360102436e+01   2.5568100203e+01    0.4781243    0.3003085 -48.54  0.002371367    1.506    0.336
       170  -9.9908    241.1239     47.9522   2.2928442341e+01   1.8738542107e+01    0.1821992    0.1670497 -43.79 0.0006516079    1.060    0.057
       171 -10.5631    100.0500     46.4477   4.8203014789e+01   5.4070587451e+01     0.410728    0.2941325  62.73   0.00177572    1.580    0.367
       172  -9.9902    104.5060     43.6496   4.5703949934e+01   5.3512415140e+01     0.298545    0.1806125  46.21  0.001305934    1.599    0.375
       173  -9.6313    250.1984     39.9809   2.0207835421e+01   1.7784570365e+01    0.1689598    0.1409733 -42.34  0.001075297    1.033    0.032
       174  -9.8837    204.8064    116.8045   4.4922999835e+01   1.6690939211e+01    0.1857373    0.1699551 -77.37 0.0005281552    1.347    0.257
       175 -12.0533    114.1483     28.1826   3.6687415217e+01   5.3477267188e+01    0.3784964    0.3025067 -78.29 0.0005866007    1.530    0.347
       176 -10.4438    113.4395     38.7984   4.1191862343e+01   5.2123854767e+01    0.5495601    0.2415771  42.70  0.001990352    2.410    0.585
       177 -10.6091    112.1180     34.0340   3.9629347713e+01   5.3167408487e+01    0.5284981    0.3755826 -20.12  0.002515522    1.544    0.352
       178 -10.8507    221.3322     41.3610   2.3308774584e+01   2.3984337133e+01     0.364664    0.3221163 -49.07  0.002195378    1.026    0.025
       179 -10.6111     40.8793     39.6885   6.9890969738e+01   6.6105702428e+01    0.3579678     0.204208  23.80  0.001761755    1.937    0.484
       180  -9.4153    236.7736     38.9546   2.1160758726e+01   2.0775060924e+01    0.1765197   0.09903337 -29.25 0.0008712212    1.640    0.390
       181 -11.3531    132.4153     33.4507   3.4461215126e+01   4.8017786474e+01    0.3516391    0.3063366 -41.04 0.0008862895    1.200    0.166
       182 -10.2174    215.9761     23.7699   1.9244680815e+01   2.7332892204e+01    0.4702066    0.2900019 -29.67  0.002399347    1.562    0.360
       183 -10.2886    216.0000     35.8979   2.2445820920e+01   2.5913541893e+01     0.296466    0.1840857 -22.02 0.0008784093    1.709    0.415
       184 -11.8673    217.2738     31.0397   2.1033474214e+01   2.6188713503e+01    0.4445997    0.3911013  82.66  0.001204354    1.152    0.132
       185 -10.4491    226.7654     49.5730   2.4823559186e+01   2.1699816375e+01    0.5437411    0.2951054 -62.43  0.002398221    2.258    0.557
       186 -11.6352     92.0395     33.3405   4.5351403467e+01   5.8069882063e+01     0.467389    0.4090617  -6.12  0.002563185    1.165    0.142
       187 -11.0821     86.7506     28.4867   4.4960055342e+01   6.0004862418e+01    0.4088254    0.2727467  54.28 0.0004448846    1.527    0.345
       188  -9.5697    211.9846     34.1593   2.2410303281e+01   2.7090111199e+01     0.181677    0.1638723 -78.53 0.0004510891    1.067    0.063
       189  -9.9773    206.1785     31.8322   2.2408259764e+01   2.8791278660e+01    0.2112437    0.1728946 -60.75 0.0004486306    1.149    0.130
       190 -10.7322    164.5777     30.9621   2.7611673665e+01   3.9711208417e+01    0.3864984    0.2321502 -61.70  0.001174556    1.972    0.493
       191 -12.1890    154.5624     64.0407   4.0251243876e+01   3.7524138544e+01    0.7514424    0.5265847 -11.06  0.002092244    1.842    0.457
       192 -11.0837     36.5375     24.5456   6.5699021853e+01   6.9662769311e+01    0.4925418    0.2937401  27.77  0.002611803    1.757    0.431
       193 -10.3825     38.6181     30.9741   6.7481798978e+01   6.8157644245e+01    0.3175724    0.1912088  33.59  0.001194249    1.772    0.436
       194 -10.9962     43.1885     28.6740   6.3993937733e+01   6.7992648401e+01    0.3369493    0.2217367  39.53 0.0009835805    1.681    0.405
       195 -11.3764    140.6939     29.4085   3.1246319737e+01   4.6344312918e+01    0.2643515    0.2480419 -87.46 0.0002604733    1.073    0.068
       196 -11.0266    106.0605     28.6043   3.9020687960e+01   5.5445836072e+01    0.4423956    0.3265359  87.89  0.001160219    1.797    0.443
       197 -10.7633     97.9852     22.0331   3.8424073611e+01   5.8303987450e+01    0.3265525    0.2991391 -70.61   0.00107551    1.271    0.213
       198 -10.0324    102.4348     19.7163   3.6115897310e+01   5.7512005269e+01    0.2792803    0.1953959   4.52  0.000926324    1.717    0.418
       199 -12.7480     26.9531     50.3232   8.0627304105e+01   6.5262746010e+01    0.6963504    0.4313217   6.52  0.003662579    1.940    0.484
       200 -10.2739    185.2928     27.4499   2.3599099793e+01   3.4632438580e+01    0.3651333    0.2313574 -55.71  0.001715263    1.619    0.382
       201 -10.4432    190.1391     24.5096   2.2139089911e+01   3.3712142228e+01    0.4246792    0.1827567  63.11  0.001726498    2.171    0.539
       202 -11.6561    132.7141    111.2828   5.9270229313e+01   3.3674946254e+01    0.3789473    0.3333595  88.84 0.0008281579    1.293    0.227
       203 -11.0044    198.0883     26.3956   2.1781312590e+01   3.1457426183e+01    0.3803081    0.3019108  42.61   0.00190509    1.444    0.307
       204  -9.8142    198.6239     22.1859   2.0528485925e+01   3.1799130044e+01     0.243483    0.1779242 -11.73 0.0008477104    1.619    0.382
       205  -9.3799    129.1073     18.5568   2.9394910451e+01   5.0754811451e+01    0.4453051    0.1169232  61.46  0.001388625    3.170    0.685
       206 -10.7607    119.6383     22.6008   3.3052400800e+01   5.2780254816e+01    0.2576329    0.2465433  49.90 0.0004150452    1.023    0.023
       207 -10.4494    123.0650     26.3256   3.3780049577e+01   5.1419235462e+01    0.2970649    0.2115905 -16.30 0.0007500205    1.570    0.363
       208 -10.2252     90.0314    113.0206   7.1946827356e+01   4.1789985072e+01    0.2117127    0.2082387  83.29            0    1.044    0.042
       209 -10.9860    225.3438     23.2618   1.8276869081e+01   2.5174747216e+01     0.301774    0.2489099  -1.44  0.001775892    1.498    0.332
       210 -10.6901    133.0096     23.7482   3.0639369136e+01   4.9106382526e+01    0.3839996    0.2782367 -56.03  0.001846476    1.552    0.356
       211 -10.4269    138.4912    112.4915   5.8085695537e+01   3.2155054764e+01    0.2852568     0.141716  35.82 0.0009069903    2.294    0.564
       212 -10.3188    139.5542     17.2635   2.6945785630e+01   4.8087425714e+01    0.2795827    0.1809824 -10.71  0.001184149    1.844    0.458
       213 -10.5711     32.0275     19.8012   6.6011558414e+01   7.1112104591e+01    0.3760092    0.2102848 -28.78  0.001869873    1.839    0.456
       214  -9.1446     27.7641     18.9663   6.8207367413e+01   7.1767471897e+01    0.2777748     0.200655 -38.55  0.001682096    1.214    0.176
       215  -9.6059    202.5032     18.4231   1.9079353575e+01   3.1232766267e+01    0.2929207    0.2214172   8.60  0.001538688    1.748    0.428
       216  -8.8065    136.2847     19.2798   2.8297348037e+01   4.8747442728e+01    0.1483762    0.1052296  36.58 0.0002024822    1.515    0.340
       217 -13.5827     40.0434     56.8364   7.6207190732e+01   6.2454399923e+01     1.416256    0.8786281  23.29  0.007258014    1.786    0.440
       218  -9.7882    226.4595     17.6200   1.6760727218e+01   2.5529649601e+01    0.3071598     0.150398 -77.34  0.001086683    2.432    0.589
       219  -9.5754    175.5507    110.9247   4.9117811857e+01   2.4102927305e+01    0.2149793    0.1326446 -10.73 0.0008078482    2.558    0.609
       220 -10.8578     96.9942    110.0439   6.9118191506e+01   4.1230278936e+01    0.2421128    0.2193269 -39.26  0.001288026    1.176    0.149
       221  -9.7673    122.4220     18.3164   3.0676999731e+01   5.2556519753e+01    0.1921707     0.136224 -37.94 0.0009311438    1.497    0.332
       222  -9.8002    189.2142     15.1467   1.9484951995e+01   3.4976379029e+01    0.1814334    0.1425302 -66.35 0.0003089953    1.211    0.174
       223 -10.6167    102.7642     14.9844   3.3879026955e+01   5.7993849816e+01     0.199323    0.1884211  26.34 0.0004918737    1.047    0.045
       224 -10.7704     33.0452     14.9219   6.2841360383e+01   7.1859867854e+01    0.1858331     0.154615 -11.66 0.0003004876    1.049    0.047
       225  -9.5904    216.6386    108.7976   4.0995167071e+01   1.5471683233e+01    0.2010322    0.1190697 -40.02 0.0006435657    1.642    0.391
       226 -10.1491    195.6645    107.3893   4.4285021325e+01   2.0203137596e+01    0.2695828    0.1661834 -44.09 0.0008045095    1.676    0.403
       227  -9.4239    235.3447    107.2637   3.7757509916e+01   1.1932702221e+01    0.1334266   0.09666134  15.20 0.0002296735    1.602    0.376
       228 -10.5272     92.0181    107.0243   6.9940273118e+01   4.2849124611e+01    0.2218668    0.2116414  81.96 0.0003215593    1.030    0.030
       229  -9.3117    199.9538    105.9846   4.3157533473e+01   1.9487501901e+01    0.1761286    0.1521412 -27.14 0.0003697622    1.115    0.103
       230 -10.2123    184.1248    105.7922   4.6076006648e+01   2.3065291595e+01    0.2186598    0.2042262 -88.38 0.0005355551    1.215    0.177
       231  -9.7851     95.0265     12.5656   3.4841889693e+01   6.0174967629e+01    0.2100466    0.1319879  59.63 0.0004877192    1.524    0.344
       232 -10.7281    166.0911    102.8583   4.9043642797e+01   2.7752889914e+01    0.3925803    0.2514086 -55.11  0.001661739    1.880    0.468
       233  -9.6972    130.7135    104.6936   5.8086056417e+01   3.5505473314e+01    0.1532452    0.1240724   2.30 0.0006984908    1.568    0.362
       234 -11.9969    110.8931    102.6296   6.3089893254e+01   4.0199963537e+01     0.427901     0.308957 -10.09  0.001807742    2.109    0.526
       235  -9.7433    143.7285    103.4199   5.4399756461e+01   3.2832515226e+01    0.2228447    0.1453583  39.14  0.000689444    1.567    0.362
       236 -12.7185    122.4906     98.9701   5.8783017323e+01   3.8534872280e+01    0.5913382    0.4019679 -18.64  0.002372137    2.141    0.533
       237 -10.3785     75.3488    102.2992   7.4246704562e+01   4.6818011706e+01    0.1475378    0.1142477 -19.16 0.0007036724    1.686    0.407
       238  -9.6377    234.1822    101.2017   3.6520474175e+01   1.3023705799e+01    0.1734835    0.1489829 -52.57  0.000444112    1.292    0.226
       239 -10.2238    226.1374    100.8095   3.7604343417e+01   1.4705520891e+01    0.3499631    0.1671319 -29.19  0.001051175    1.986    0.496
       240 -11.8225     52.8986    100.0288   8.1531068518e+01   5.0573533416e+01    0.3482208    0.2544725 -16.78  0.001137767    1.851    0.460
       241 -11.3493    170.1405     97.1617   4.6651343344e+01   2.7843498403e+01    0.5611241    0.3150257  57.55  0.002281952    1.915    0.478
       242 -10.4099    104.5842    100.1968   6.4335987244e+01   4.2027750284e+01     0.210519    0.1439686 -38.62 0.0005060245    1.588    0.370
       243 -11.4082     86.9063     97.9217   6.9341679929e+01   4.5906688599e+01     0.419734    0.3208639  32.78  0.001284003    1.376    0.274
       244 -11.5921    192.3803     99.1005   4.2787060884e+01   2.2320548739e+01    0.4722106    0.2203281  54.15 0.0009072611    2.226    0.551
       245 -12.8644    130.4836     96.4699   5.5906757883e+01   3.7279294934e+01    0.5006784    0.4548574  56.03   0.00199517    1.094    0.086
       246 -11.5384    200.3035     96.8124   4.0784182350e+01   2.0896068107e+01    0.3384792    0.2660249 -44.14 0.0008930779    1.282    0.220
       247 -11.3482    139.8826     97.8859   5.3854886340e+01   3.4834289909e+01    0.3393284    0.2181747  53.71 0.0005605561    1.582    0.368
       248 -11.9108     12.0311     97.0964   9.5765178021e+01   5.5120254226e+01     0.374418    0.1885081 -58.31  0.001123829    1.752    0.429
       249 -12.3066     26.6455     35.9953   7.6133863649e+01   6.8455187607e+01    0.4470391    0.2656953 -36.41 0.0006233297    1.574    0.365
