#   1 NUMBER                 Running object number                                     
#   2 MAG_AUTO               Kron-like elliptical aperture magnitude                    [mag]
#   3 X_IMAGE                Object position along x                                    [pixel]
#   4 Y_IMAGE                Object position along y                                    [pixel]
#   5 X_WORLD                Barycenter position along world x axis                     [deg]
#   6 Y_WORLD                Barycenter position along world y axis                     [deg]
#   7 A_WORLD                Profile RMS along major axis (world units)                 [deg]
#   8 B_WORLD                Profile RMS along minor axis (world units)                 [deg]
#   9 THETA_WORLD            Position angle (CCW/world-x)                               [deg]
#  10 FWHM_WORLD             FWHM assuming a gaussian core                              [deg]
#  11 ELONGATION             A_IMAGE/B_IMAGE                                           
#  12 ELLIPTICITY            1 - B_IMAGE/A_IMAGE                                       
         1 -14.1148     68.0260    145.1543   1.3412746212e+02   3.7478434649e+01     2.409606      1.25021  66.55   0.01059009    2.689    0.628
         2 -14.0755    186.7591     21.3404   7.2453393724e+01   3.5856967158e+01     2.098064     1.300139  -2.84  0.007186714    1.856    0.461
         3 -14.0387    193.2352     15.6789   6.9940759860e+01   3.4807990614e+01     1.763427     1.268275 -37.76  0.005488975    1.321    0.243
         4 -13.8556    199.3780      8.1808   6.7045576397e+01   3.3985821641e+01     1.574361    0.7073376  55.36  0.001477038    2.225    0.551
         5 -12.6554     32.6671      7.1478   1.0935234692e+02   7.2453595521e+01     1.038185    0.3566293 -46.06  0.004153963    2.857    0.650
         6 -11.6614     81.5087    248.5148   1.4102449344e+02   1.7532402812e+01    0.4279327    0.2150355  53.05  0.002329056    1.741    0.426
         7 -10.8084    248.8643    249.1284   1.1333055519e+02  -2.6594968436e+00    0.1800728    0.1323121  13.65  0.001548921    1.253    0.202
         8 -11.4870    162.7807    249.1848   1.2703262728e+02   7.7208765120e+00    0.2733921    0.1687761  32.44  0.001769277    1.180    0.153
         9 -12.0832    140.9824    249.8292   1.3081827408e+02   1.0357769360e+01    0.5957988     0.123802  38.71  0.002584816    3.378    0.704
        10 -11.2461    139.3930    245.7835   1.3069018675e+02   1.1044895360e+01    0.1883676    0.1496317 -43.71  0.001525927    1.672    0.402
        11 -11.9884    128.1566    244.5262   1.3253168507e+02   1.2596563274e+01    0.2784898    0.2126837 -15.53  0.002126084    1.779    0.438
        12 -11.8091    108.5338    249.2525   1.3638353340e+02   1.4352649071e+01    0.3306309    0.1765756  45.70   0.00221562    1.495    0.331
        13 -13.8642     32.6819    246.4241   1.4924935184e+02   2.2764145456e+01     1.417079    0.6773043  33.90   0.01004665    1.725    0.420
        14 -16.2094      3.2904    118.7205   1.4914829433e+02   4.9357186579e+01     14.96638     1.983508 -80.21   0.04136517    6.806    0.853
        15  -9.1553    152.6643    212.9276   1.2451265523e+02   1.3569484884e+01    0.1452776    0.1283411  25.94  0.000296545    1.130    0.115
        16 -12.2110     83.1451    244.2211   1.4044444521e+02   1.7950816388e+01    0.6522398    0.2739289  62.31  0.003330149    3.487    0.713
        17 -11.1560     77.4993    244.5263   1.4145677334e+02   1.8530937147e+01     0.283687     0.139725  37.22  0.001206904    1.525    0.344
        18 -12.0151     35.1706    206.2646   1.4695831969e+02   2.8972584781e+01    0.4887967     0.162118  49.11  0.001744163    2.314    0.568
        19 -10.9258    192.9991    194.9550   1.1440930204e+02   1.0108766060e+01    0.6588881    0.3561232 -57.34  0.002392538    6.535    0.847
        20  -9.9380    180.0267    232.5088   1.2211427628e+02   7.3879989125e+00    0.1645554   0.08293927  34.70  0.000429855    1.524    0.344
        21 -11.8681     73.9269    195.9541   1.3835690877e+02   2.6702414626e+01    0.3425674    0.2578656 -43.73  0.001634414    1.726    0.420
        22 -11.8883     78.4701    188.7056   1.3669722931e+02   2.7468869337e+01    0.2543185    0.2268059 -28.58 0.0007612911    1.440    0.306
        23  -8.4695     65.3472    195.2769   1.4009283531e+02   2.7812980033e+01    0.1012194   0.08601704  -6.94 0.0002911742    1.633    0.388
        24  -9.9166    120.0326    188.2816   1.2775575056e+02   2.2000539209e+01    0.3021612    0.1740054  18.81   0.00126946    2.275    0.560
        25  -9.4511    125.6450    186.3447   1.2631015267e+02   2.1514203397e+01    0.3088028     0.129329  29.20  0.001336513    2.602    0.616
        26 -11.2593     86.4420    176.5607   1.3361312372e+02   2.8732960253e+01    0.2126298    0.2041618  52.20 0.0006722182    1.109    0.099
        27 -13.3686     74.3869    174.0397   1.3606561078e+02   3.0742384101e+01    0.4223362    0.2636739 -39.04  0.001840766    2.226    0.551
        28 -13.9848     48.5992    130.0025   1.3739034116e+02   4.3079282505e+01     1.412119    0.6301123  40.53  0.004593375    2.150    0.535
        29  -9.6307    106.3043    146.6922   1.2462105863e+02   3.1804473367e+01    0.2922063    0.1892511 -39.02  0.001490486    1.779    0.438
        30 -12.2012     92.7793    150.5447   1.2860200339e+02   3.3032314947e+01    0.2575096    0.2351412  -7.46 0.0006273326    1.270    0.213
        31  -9.9440    134.3216    147.3451   1.1802476371e+02   2.7096970678e+01    0.5046079    0.1293218 -50.70  0.001543822    4.699    0.787
        32  -8.8053    192.0470    144.0218   1.0513027659e+02   1.7369434324e+01     0.159808    0.1366891  -1.47 0.0003655856    1.048    0.046
        33 -10.1904    113.0780    136.5605   1.2109567972e+02   3.2783301866e+01    0.3086642    0.2367472  -1.27  0.000993182    1.691    0.409
        34 -11.3081     71.1182    135.2235   1.3189841381e+02   3.9264540471e+01    0.4747769    0.1824971  41.43  0.002003211    2.470    0.595
        35 -13.2871     58.6360    133.1588   1.3501659876e+02   4.1251651923e+01      2.25481    0.7354751 -78.34  0.005650959    7.783    0.872
        36 -14.0549      9.5130    207.3364   1.5190649135e+02   3.1015260793e+01     1.328753    0.8112717   7.00  0.006497455    2.731    0.634
        37 -10.7736    100.9639    133.6369   1.2365418327e+02   3.5341248578e+01    0.2757906    0.2287727 -15.29 0.0007374833    1.454    0.312
        38  -9.1987    118.3836    128.8445   1.1821361804e+02   3.3461759891e+01    0.2013021      0.12484 -36.95 0.0008333629    1.787    0.440
        39 -13.1691     92.4207    167.8161   1.3114858223e+02   2.9619333588e+01     2.874996    0.3983725  42.07  0.001809274    5.612    0.822
        40  -9.6358    109.1713    123.6423   1.1951807207e+02   3.6116320121e+01    0.2020992    0.1866322 -69.19  0.000399578    1.139    0.122
        41 -10.9022    168.3725    113.4156   1.0288339756e+02   2.6839541395e+01    0.3788477    0.3043567 -76.18  0.001601229    1.887    0.470
        42 -10.9282    145.7861    245.0457   1.2950376443e+02   1.0334282772e+01    0.1592507    0.1178997  44.49  0.001224865    1.301    0.231
        43 -10.3109    103.9471    150.9698   1.2591434582e+02   3.1301568034e+01    0.2823987    0.2584325 -30.05 0.0008153141    1.206    0.171
        44 -15.5032     11.9306    239.9438   1.5248704291e+02   2.5537407106e+01     5.012207    0.9900703 -64.07   0.01200575    6.335    0.842
        45 -13.7257     52.3635    230.6755   1.4508068772e+02   2.3250445683e+01     1.008099    0.4512005  88.73  0.002929295    2.889    0.654
        46  -9.0906    184.6782     77.6529   9.0028670479e+01   2.9121616263e+01    0.1569748    0.1085227  13.61 0.0007049459    1.738    0.425
        47 -15.6222     59.9454    216.5023   1.4278844588e+02   2.4736344259e+01     7.328512     1.072161  38.75   0.03039251    3.667    0.727
        48  -9.7184    229.6930    230.0183   1.1357988171e+02   1.2519144915e+00    0.1435335    0.1054578   5.54 0.0004957271    1.137    0.121
        49 -10.3761     74.1701    250.1856   1.4239796679e+02   1.8097011493e+01    0.2700075    0.1780134 -35.85  0.001753097    2.652    0.623
        50 -10.6306    186.0472    239.0365   1.2191361494e+02   5.8830205215e+00     0.179247      0.15178 -79.78  0.001030177    2.493    0.599
