#   1 NUMBER                 Running object number                                     
#   2 MAG_AUTO               Kron-like elliptical aperture magnitude                    [mag]
#   3 X_IMAGE                Object position along x                                    [pixel]
#   4 Y_IMAGE                Object position along y                                    [pixel]
#   5 X_WORLD                Barycenter position along world x axis                     [deg]
#   6 Y_WORLD                Barycenter position along world y axis                     [deg]
#   7 A_WORLD                Profile RMS along major axis (world units)                 [deg]
#   8 B_WORLD                Profile RMS along minor axis (world units)                 [deg]
#   9 THETA_WORLD            Position angle (CCW/world-x)                               [deg]
#  10 FWHM_WORLD             FWHM assuming a gaussian core                              [deg]
#  11 ELONGATION             A_IMAGE/B_IMAGE                                           
#  12 ELLIPTICITY            1 - B_IMAGE/A_IMAGE                                       
         1 -14.0721      6.4441     17.9810   1.3609596929e+02   7.4568642941e+01     3.658276    0.6609822 -61.75   0.01370449    3.343    0.701
         2 -14.4550    196.4972     15.8776   6.9205692998e+01   3.3055991295e+01     2.861499     1.651257  28.86   0.01210112    2.464    0.594
         3 -10.4038    163.1477    248.9017   1.2588870294e+02   6.4974671885e+00    0.1698605    0.1161618  42.73  0.001234916    1.308    0.236
         4 -11.4969    138.5576    250.1532   1.3040759400e+02   9.6988892958e+00    0.4080562    0.1013518  38.02   0.00182801    2.736    0.635
         5 -11.1737    139.3771    245.7877   1.2982955216e+02   1.0127855051e+01    0.1902894    0.1451167  -7.59  0.001280407    1.832    0.454
         6 -11.9552    124.4619    249.5988   1.3291696978e+02   1.1668432669e+01    0.4620769    0.1455891  38.33  0.002336167    2.152    0.535
         7 -11.6550    109.0359    249.5034   1.3573939789e+02   1.3724698062e+01     0.407755      0.16665  48.55  0.002287895    1.983    0.496
         8 -11.9331     98.9500    250.0161   1.3763688167e+02   1.4960471119e+01    0.5304117    0.2264566  49.45  0.002999729    1.861    0.463
         9 -11.2010    102.0134    247.0221   1.3684050632e+02   1.4978850703e+01    0.2700895    0.1451352  53.89 0.0009240295    1.663    0.399
        10 -10.9609     89.2447    248.6945   1.3933252149e+02   1.6374352305e+01    0.2245909    0.1698159 -46.37  0.001478768    2.028    0.507
        11 -11.4850     81.5775    248.2953   1.4072363519e+02   1.7382468947e+01     0.333133     0.214532  60.04  0.001296374    1.402    0.287
        12 -11.9081     82.7370    243.7610   1.4020551018e+02   1.7897351808e+01    0.4720574    0.2179324  62.70  0.002663625    2.459    0.593
        13 -10.8380     73.9796    249.7606   1.4221525599e+02   1.8091791304e+01    0.2108591    0.1546199  51.32  0.001080101    1.100    0.091
        14 -11.3017     66.9871    250.2343   1.4352276400e+02   1.8848885346e+01    0.2771202    0.2091137  52.90  0.001178765    1.132    0.117
        15 -10.2482     63.4827    250.5396   1.4417822610e+02   1.9210520894e+01    0.2387615   0.06382976  38.31 0.0009989243    2.331    0.571
        16 -14.7434     32.6868    245.7300   1.4954658304e+02   2.3278834074e+01     9.315678     2.098757  27.29   0.02317251   13.061    0.923
        17 -15.1758     55.4892    218.9840   1.4393472913e+02   2.5132833405e+01     4.481447     1.086723  38.80   0.01436726    2.599    0.615
        18 -10.8671    120.4626    239.4993   1.3273511655e+02   1.3552235416e+01    0.1791786    0.1137549 -58.06  0.001214294    2.189    0.543
        19  -9.8370    186.3722    239.2209   1.2069502160e+02   4.3719169657e+00    0.1162834    0.1053014 -35.27 0.0006106505    1.651    0.394
        20 -11.0430     34.9808    229.9956   1.4852841529e+02   2.5540728163e+01    0.2582836     0.144415  51.50 0.0007128628    1.234    0.190
        21 -10.8964     37.2718    226.0576   1.4792138607e+02   2.5953822726e+01    0.2134983    0.1430474  78.13 0.0009271228    1.422    0.297
        22  -9.6362    229.2188    229.0561   1.1219315162e+02  -4.0141674688e-01    0.1301689    0.1281448 -32.01  0.001071677    1.989    0.497
        23 -11.3261    159.2128    227.1765   1.2409775004e+02   9.6632951162e+00    0.2881038    0.1305016  32.97  0.001551776    1.750    0.429
        24 -11.2797     66.4018    242.9354   1.4321837303e+02   1.9999926707e+01    0.2292514    0.1457345  42.16 0.0009108483    1.142    0.124
        25 -11.1134    173.6342    222.3365   1.2080895308e+02   8.1418328555e+00    0.2770772    0.1504798  39.60  0.001652911    1.440    0.306
        26  -9.0040    152.6965    212.9944   1.2356068320e+02   1.2539768576e+01    0.1534807    0.1317044  28.49 0.0003383448    1.132    0.117
        27 -15.9125      7.4853    239.1671   1.5387149873e+02   2.6708956229e+01     9.961793     1.441529 -80.63   0.04090352    6.680    0.850
        28 -10.8036     32.7149    205.6876   1.4792067181e+02   2.9987603656e+01    0.2471255    0.1618872  79.37  0.001719646    1.407    0.289
        29 -10.3458    191.9878    192.7558   1.1307607430e+02   9.0455503848e+00    0.4318739    0.2679608 -64.55  0.001728468    5.263    0.810
        30 -11.6711     75.8231    189.4585   1.3728174451e+02   2.7928473896e+01    0.2396708    0.2319582 -22.14 0.0007088071    1.406    0.289
        31 -11.6005     70.9949    196.8356   1.3903752600e+02   2.7178467150e+01    0.3188024    0.2502607 -39.54  0.001433895    1.884    0.469
        32  -9.5895     66.2645    195.4807   1.3998070598e+02   2.8037805006e+01       0.2218    0.1286183  49.48 0.0006071468    1.350    0.259
        33 -11.0934     84.3257    177.1729   1.3400862570e+02   2.9131650971e+01    0.2262269    0.2069307  62.74 0.0004165189    1.137    0.121
        34 -13.3449     71.9788    174.8514   1.3674549841e+02   3.1320731426e+01    0.4312623     0.277168 -42.47  0.001643915    2.270    0.559
        35 -13.8395     11.5418    206.9978   1.5232778238e+02   3.1779022100e+01     1.390243    0.8162693  20.98  0.009036751    2.105    0.525
        36 -11.5388     50.2351    129.9315   1.3757188091e+02   4.4011784459e+01    0.3138495    0.2455502  52.72 0.0006080891    1.168    0.144
        37 -12.5092     88.8797    166.9020   1.3165653706e+02   3.0525817744e+01     1.876619     0.551167  50.21  0.003451072    3.745    0.733
        38 -10.1574    102.1708    151.5197   1.2606924427e+02   3.1594536016e+01    0.3349903    0.2783866 -34.89 0.0009383429    1.511    0.338
        39  -9.3917    105.0005    147.0464   1.2460050222e+02   3.2052185732e+01    0.2407489    0.1822606 -34.34  0.001252976    1.707    0.414
        40 -12.0511     91.2330    151.0247   1.2885593737e+02   3.3485660302e+01    0.2664947     0.245851  18.80 0.0004846754    1.275    0.216
        41 -11.7014     46.1025    148.0445   1.4075284454e+02   4.0315121407e+01    0.4211845    0.2362411 -68.43   0.00223424    1.772    0.436
        42  -8.9539    134.0000    148.0414   1.1748520705e+02   2.6579352675e+01    0.2196692   0.08275858 -48.97 0.0008083708    2.984    0.665
        43  -8.5673    192.2442    144.0217   1.0404375378e+02   1.5890602505e+01    0.1616276    0.1132158 -29.95 0.0003455942    1.489    0.329
        44 -13.0398     47.3770    230.7674   1.4618291086e+02   2.4086735159e+01    0.4060375    0.3098373  51.33   0.00101735    1.114    0.102
        45  -9.8739    112.3071    136.7370   1.2083041358e+02   3.2929941922e+01    0.3213054     0.236743  -1.74   0.00118146    2.137    0.532
        46 -10.6283     99.9249    134.0597   1.2368949272e+02   3.5726526912e+01    0.2697355    0.2372364 -23.49 0.0005581565    1.419    0.295
        47 -13.4909     65.5748    141.5054   1.3455354081e+02   3.9380960175e+01     2.241893    0.9988509  80.24  0.003536705    4.729    0.789
        48  -9.3138    108.8267    123.8270   1.1921012069e+02   3.6356235811e+01    0.2015628    0.1908306  26.59 0.0003811786    1.142    0.124
        49 -11.0742    168.3408    113.3899   1.0196983895e+02   2.5906136284e+01    0.3842657    0.3159463 -80.05  0.001054222    1.615    0.381
        50 -10.1054    249.6102    248.8007   1.1178445696e+02  -4.5920200604e+00    0.1144975   0.08203686 -18.16 0.0009537847    1.679    0.404
