#   1 NUMBER                 Running object number                                     
#   2 MAG_AUTO               Kron-like elliptical aperture magnitude                    [mag]
#   3 X_IMAGE                Object position along x                                    [pixel]
#   4 Y_IMAGE                Object position along y                                    [pixel]
#   5 X_WORLD                Barycenter position along world x axis                     [deg]
#   6 Y_WORLD                Barycenter position along world y axis                     [deg]
#   7 A_WORLD                Profile RMS along major axis (world units)                 [deg]
#   8 B_WORLD                Profile RMS along minor axis (world units)                 [deg]
#   9 THETA_WORLD            Position angle (CCW/world-x)                               [deg]
#  10 FWHM_WORLD             FWHM assuming a gaussian core                              [deg]
#  11 ELONGATION             A_IMAGE/B_IMAGE                                           
#  12 ELLIPTICITY            1 - B_IMAGE/A_IMAGE                                       
         1 -14.1783      6.6032    185.0525   1.2113471087e+02   3.4169514104e+01     6.156083    0.9056298 -79.27   0.01359576   10.388    0.904
         2 -14.7818     18.1469    179.9489   1.1811995811e+02   3.4341841302e+01     6.655862     1.580573 -81.74    0.0175838    6.881    0.855
         3 -13.1625    227.8940     29.1533   3.6459345073e+01   2.5539408783e+01    0.8386375     0.724619  49.56  0.005571419    1.479    0.324
         4 -13.0990     49.5207     19.2897   7.0114104570e+01   6.6050271975e+01     1.366665     1.177791  38.99  0.007118807    1.434    0.303
         5 -12.5298     31.6149     11.2962   7.4384632402e+01   6.9641360149e+01    0.9853595    0.6357486 -21.97  0.006275834    1.389    0.280
         6 -11.5048     10.2455     17.2387   8.8368300036e+01   7.1110344931e+01    0.7014572    0.3347288 -26.71  0.003880159    1.913    0.477
         7 -11.7756     20.0060     11.4487   8.0366919824e+01   7.1018396734e+01    0.7482712    0.4711836  45.61  0.004268998    2.706    0.630
         8 -12.6491    169.0257      6.5330   3.7159610663e+01   4.1448087254e+01    0.8702186    0.6001164  53.63   0.00507282    1.433    0.302
         9 -11.0490     76.1715      7.8193   5.5387279811e+01   6.2546022620e+01    0.5773528    0.2888562  27.31  0.002772424    2.194    0.544
        10 -10.5752     93.1701      2.0677   4.8434801180e+01   5.9500005203e+01    0.4842058    0.1939217  64.88  0.002082883    2.571    0.611
        11 -10.3955     15.2763     20.3158   8.6972684646e+01   7.0180891663e+01    0.3243092    0.1994284 -19.20  0.001834305    1.409    0.290
        12  -9.4354      1.8474    249.5295   1.2561101572e+02   2.1199283322e+01    0.2177677    0.1161694 -78.53  0.001443146    1.739    0.425
        13 -13.6021     50.9564    201.5093   1.1261096693e+02   2.5860708481e+01     1.506616     1.070879  89.46  0.006969628    1.326    0.246
        14 -11.8106    114.9924    245.5813   1.0366245839e+02   7.8787872679e+00    0.4073263    0.2611597 -72.51  0.002260152    2.034    0.508
        15 -14.0038     32.4146    189.7261   1.1569465432e+02   3.0666629092e+01     2.489955    0.9254508 -87.50  0.009041823    3.694    0.729
        16 -11.3602    101.6340    247.5929   1.0661310813e+02   9.4737931869e+00    0.3121915    0.2144057  15.65  0.001733762    1.954    0.488
        17 -14.0500     21.9466    201.9659   1.1904505695e+02   2.8961740840e+01     1.267419    0.8066328  73.78  0.004430885    1.390    0.281
        18 -11.2485     54.1321    175.2538   1.0886549790e+02   3.1618056357e+01      0.27133    0.2405982 -42.53 0.0004561807    1.317    0.241
        19 -10.4081     66.4200    165.0052   1.0425821534e+02   3.2529197185e+01    0.2539259    0.2281417 -71.24 0.0003971291    1.063    0.060
        20  -8.6819    135.9454    164.5116   8.6053253836e+01   2.1091252287e+01      0.21011    0.1467786  40.61 0.0001768516    1.411    0.291
        21 -12.6851     51.9528    161.5768   1.0761649320e+02   3.5224291019e+01    0.5291755    0.3205122 -39.60  0.001664736    2.050    0.512
        22 -11.5571     75.1105    157.7054   1.0075053093e+02   3.3111456710e+01    0.5502246    0.5081781 -46.09  0.003163357    1.148    0.129
        23 -12.2653     33.9774    157.2417   1.1184131539e+02   3.8279510068e+01     0.557149    0.3215242  69.53   0.00268817    1.998    0.499
        24  -9.5512     44.6587    145.3298   1.0728873347e+02   4.0102592264e+01    0.1452519   0.09630997  69.54 0.0007051441    1.744    0.426
        25 -11.4668     78.6285    142.5450   9.7032347519e+01   3.6351807986e+01    0.3253528    0.2490762 -52.19 0.0005972827    1.249    0.199
        26 -12.3855     67.9071    143.7311   1.0034739889e+02   3.7607461008e+01    0.7540943    0.4830593  64.01  0.002887924    1.959    0.490
        27  -8.6451     94.3628    141.2771   9.2273034690e+01   3.4147943200e+01    0.1522843    0.1180748 -13.44 0.0005191074    1.668    0.401
        28 -11.1231     34.5248    139.4920   1.0934018080e+02   4.2615751516e+01    0.2479433    0.2176365 -74.12  0.001188559    1.014    0.014
        29  -9.3454     90.9952    144.2520   9.3836294303e+01   3.3979243868e+01    0.2634031    0.2163052 -56.94 0.0008897629    1.173    0.148
        30 -10.1338    105.8032    131.5309   8.6883157545e+01   3.4492300998e+01     0.336923    0.3097434 -11.04 0.0008248123    1.170    0.146
        31 -10.0576     91.5816    128.5029   9.0311291776e+01   3.7733349774e+01    0.2692967    0.2469016 -16.91 0.0006656607    1.167    0.143
        32 -13.5844     13.3274    208.4392   1.2129983097e+02   2.8377901986e+01     1.075156    0.5850761  39.26  0.001406971    1.765    0.433
        33 -10.3504     50.9375    123.5041   1.0173311912e+02   4.4826528602e+01    0.2022339    0.1409415  27.17  0.001037468    1.603    0.376
        34 -10.1406     40.9842    122.0099   1.0459578628e+02   4.6302116786e+01    0.2250902    0.1578922  71.16  0.001143941    1.756    0.430
        35  -9.0358    103.6833    120.1181   8.4774328840e+01   3.7589896808e+01     0.207805    0.1861696 -41.19 0.0003154915    1.088    0.081
        36  -9.8873     52.4914    117.5030   1.0006635793e+02   4.6121882526e+01    0.1417782    0.1263674 -52.81 9.468637e-05    1.021    0.020
        37 -11.5225     39.3922    106.8379   1.0224707057e+02   5.0175706412e+01    0.5739431     0.279116 -44.97  0.002582547    1.912    0.477
        38 -10.4702     33.0940     89.8411   1.0084401948e+02   5.4811653461e+01    0.3074591    0.1649358 -54.77  0.001287739    1.561    0.360
        39  -9.3358     52.5029     89.9678   9.3779821455e+01   5.2667661356e+01    0.2134554    0.1261126 -54.22 0.0006473892    1.550    0.355
        40 -10.8807     21.6714     81.5074   1.0326970144e+02   5.7694114232e+01    0.6107509    0.3115178 -53.15  0.002651772    1.568    0.362
        41 -10.6807     15.8203     79.2669   1.0503880854e+02   5.8625962395e+01    0.3126404    0.2515157 -38.78  0.002019588    1.097    0.088
        42 -11.0299     10.3164     83.4339   1.0799665696e+02   5.8037682626e+01    0.3595539    0.2542111 -18.59  0.002022359    1.528    0.346
        43 -10.3069      4.0424     74.9200   1.0874168345e+02   6.0305426710e+01    0.1985278    0.1511492 -48.93  0.001180953    1.043    0.042
        44 -11.0555      6.6686     87.5282   1.1010773483e+02   5.7312405157e+01    0.4620544    0.2932934 -17.01  0.002672704    1.807    0.447
        45 -10.4816     13.6642     68.6994   1.0350610355e+02   6.1105429406e+01    0.2530012    0.1439089 -17.70 0.0008806878    1.964    0.491
        46 -10.2148      9.3551     55.8471   1.0212061318e+02   6.4099012661e+01    0.4939184    0.1694626 -57.16  0.002252701    2.311    0.567
        47 -11.3236      3.1420     63.2240   1.0663417255e+02   6.2901637123e+01    0.5913226     0.213797 -65.97  0.002640092    2.541    0.606
        48 -11.0057      5.5105     58.0300   1.0438274446e+02   6.3872797133e+01    0.4475859    0.2525461 -70.95  0.002426575    1.968    0.492
        49 -12.0177    211.5435     42.5853   4.1203146394e+01   2.7410414447e+01    0.5076511    0.3022286 -51.36  0.002643156    1.569    0.363
        50 -11.9721    126.9753    246.4236   1.0130945136e+02   5.9351413049e+00    0.3849124    0.2574523  37.72  0.002252439    1.255    0.203
        51 -10.2143     50.7610    233.4198   1.1555835635e+02   1.9055591465e+01    0.4584257    0.2955768 -64.27  0.002266863    1.669    0.401
        52 -10.2645     11.7021    233.5008   1.2309819242e+02   2.3334174132e+01    0.3447036    0.1423664  75.88  0.001751416    2.410    0.585
        53 -12.1387    126.5880    230.3855   9.9304197669e+01   8.8950017114e+00    0.5238733    0.2907733  49.31  0.002580089    1.770    0.435
        54 -12.4306    119.1396    229.9712   1.0084545008e+02   1.0136301986e+01    0.5891795    0.3230568  33.57  0.002920507    1.682    0.406
        55 -10.0207     83.1415    228.4588   1.0838050816e+02   1.5796594530e+01     0.441966     0.140119 -59.30  0.001787638    3.253    0.693
        56 -12.5214     47.8292    184.0941   1.1148039402e+02   3.0264853717e+01    0.8473962    0.4683103 -88.36  0.001624686    1.970    0.493
        57  -9.5681      2.1136     15.8789   9.2380604407e+01   7.1956185413e+01    0.1619114    0.1357446 -25.93  0.001233479    1.255    0.203
        58 -12.5782     66.9499    200.5856   1.0884423258e+02   2.4022395986e+01     1.306002    0.8817509  64.89  0.005925674    1.474    0.322
