#   1 NUMBER                 Running object number                                     
#   2 MAG_AUTO               Kron-like elliptical aperture magnitude                    [mag]
#   3 X_IMAGE                Object position along x                                    [pixel]
#   4 Y_IMAGE                Object position along y                                    [pixel]
#   5 X_WORLD                Barycenter position along world x axis                     [deg]
#   6 Y_WORLD                Barycenter position along world y axis                     [deg]
#   7 A_WORLD                Profile RMS along major axis (world units)                 [deg]
#   8 B_WORLD                Profile RMS along minor axis (world units)                 [deg]
#   9 THETA_WORLD            Position angle (CCW/world-x)                               [deg]
#  10 FWHM_WORLD             FWHM assuming a gaussian core                              [deg]
#  11 ELONGATION             A_IMAGE/B_IMAGE                                           
#  12 ELLIPTICITY            1 - B_IMAGE/A_IMAGE                                       
         1 -13.3993    211.9914     26.0103   9.7793198073e+00   2.8582201729e+01    0.9039261    0.6515121  73.29  0.004178218    1.408    0.290
         2 -10.1829     60.8593     21.1648   3.9943254952e+01   6.6171873489e+01    0.1912503    0.1861912  31.15 0.0006288378    1.217    0.178
         3 -14.2621    245.3490    236.0692   5.0112446265e+01  -5.9781493007e+00     2.033523    0.7435755 -26.57   0.01089315    2.822    0.646
         4 -10.6177    160.5220    199.9354   5.9808825241e+01   1.0895606722e+01    0.2526353    0.1669242 -59.23  0.001334417    2.124    0.529
         5 -12.5616    121.0134    233.6551   7.2375067175e+01   1.1489654995e+01     5.563425     4.080486 -72.65   0.03634095    1.813    0.449
         6  -9.9028    211.0766    198.7828   4.9867655715e+01   3.0346044982e+00    0.1732352    0.1479089  21.02 0.0004821775    1.180    0.153
         7 -10.4049     55.7656    193.7003   8.2349343662e+01   2.7858262322e+01    0.1679366    0.1502234 -76.13 0.0006460471    1.271    0.213
         8 -10.8531      3.6854    191.5544   9.3822326271e+01   3.3662386262e+01     0.124075   0.09559562  49.70 0.0005776435    1.215    0.177
         9 -10.6122     51.1664    185.9570   8.2732488042e+01   3.0063775681e+01    0.1936393     0.161039  76.49 0.0005621193    1.076    0.071
        10  -7.9822     52.3517    182.7127   8.2155580630e+01   3.0626439747e+01    0.2559298    0.1027396  61.11  0.001024834    2.924    0.658
        11 -15.8515     68.6760    143.7429   7.3190366230e+01   3.7518524736e+01     2.277574     1.732427  68.78   0.01228882    1.317    0.240
        12  -9.9288     74.1627    180.6162   7.6663346440e+01   2.8257248617e+01    0.3927918    0.1720231 -72.32 0.0008680487    2.615    0.618
        13  -8.5536     56.1269    181.8866   8.1170270076e+01   3.0345912090e+01    0.1841774    0.1302323  63.10  0.000431543    1.257    0.205
        14 -11.8053     61.9400    179.1643   7.9483487513e+01   3.0209840520e+01    0.3682208    0.2780286 -29.56  0.001415557    1.970    0.492
        15 -11.8930    179.6460    168.8001   5.0398950104e+01   1.2845031072e+01    0.5735211    0.4967668 -16.59  0.002864762    1.151    0.131
        16 -10.4924    174.5689    179.4962   5.3444674936e+01   1.1929290600e+01    0.2366096     0.216311 -27.52 0.0007108983    1.192    0.161
        17 -11.9934    172.8629    174.9359   5.2957283111e+01   1.3006495955e+01    0.5007793    0.3787909  -9.83  0.001162836    1.489    0.329
        18 -10.9742     67.8019    213.7568   8.1426925402e+01   2.2318879401e+01    0.1518582    0.1179786  57.73 0.0002926835    1.050    0.048
        19 -11.1188      1.4868    177.1856   9.3713938720e+01   3.6879950577e+01    0.1405669   0.09994864  88.18 0.0003524291    1.195    0.163
        20 -12.0262    139.6761    171.9251   5.9659099272e+01   1.9506154085e+01    0.2949336    0.2660091 -82.87 0.0003915273    1.298    0.230
        21 -12.7521    233.5617    167.9830   4.0326631132e+01   3.7885931479e+00    0.5025142     0.321254 -46.95  0.002718614    2.085    0.520
        22 -10.3487      1.2995    164.5385   9.3188010876e+01   3.9673391998e+01       0.1643   0.08826265 -86.49 0.0004787192    1.569    0.362
        23 -10.5247     48.0452    164.1051   8.1402901607e+01   3.5331085960e+01    0.1914994    0.1615462  67.14 0.0002651456    1.032    0.031
        24 -10.5979     54.3326    166.0939   7.9988977064e+01   3.4116489753e+01     0.491948    0.1630957 -58.80  0.001958118    2.928    0.658
        25 -10.2455    138.9299    155.5654   5.6789044462e+01   2.2916968042e+01    0.2425152    0.2073782 -60.71  0.001313005    1.293    0.227
        26 -11.6408    112.6907    151.2823   6.2482808661e+01   2.8668585296e+01    0.5414039     0.333039  82.39  0.002053585    2.967    0.663
        27 -11.7184    108.8995    145.3602   6.2358166669e+01   3.0673809615e+01    0.3273225    0.3196902   7.59  0.000692785    1.118    0.105
        28 -11.9473     92.0963    148.4567   6.7437246757e+01   3.2836118416e+01     0.370278    0.3093995  83.48 0.0003688265    1.237    0.191
        29 -13.1362     97.5042    143.1775   6.5019404298e+01   3.3164179530e+01      1.10739    0.5457901 -45.37  0.004463431    2.294    0.564
        30 -11.9628    133.4487    145.7730   5.6149241822e+01   2.6003878790e+01    0.9257721     0.315013 -53.63  0.002956046    3.518    0.716
        31 -10.0380     61.5339    202.2990   8.1802246320e+01   2.5370775794e+01    0.1265683   0.08984207  53.28 0.0002327688    1.159    0.137
        32  -9.2989    114.0142    146.0254   6.1140185816e+01   2.9601564905e+01    0.1707894    0.1649192  69.10  0.000323096    1.024    0.023
        33  -9.8134    118.8157    139.9966   5.8676663670e+01   3.0057891638e+01    0.2182437    0.1964473 -13.74 0.0004408119    1.276    0.216
        34 -11.2809    106.3787    138.8084   6.1755872246e+01   3.2621812221e+01    0.4326276    0.2794606  72.41  0.001092821    2.211    0.548
        35 -12.3137    106.4963    131.3637   6.0195872010e+01   3.4319844205e+01    0.5926953    0.4730028 -68.08  0.002347781    1.322    0.244
        36  -9.3104    151.5377    135.4763   4.9565091908e+01   2.4533007969e+01     0.147418    0.1434892  60.38 0.0008078301    1.077    0.071
        37 -11.9513     96.9711    130.6931   6.2741291520e+01   3.6187883644e+01    0.2968133     0.282041   0.86 0.0003894944    1.190    0.160
        38 -11.3321    133.7590    128.4834   5.2295116740e+01   2.9646056015e+01    0.5555148    0.3936977  85.34   0.00163339    2.189    0.543
        39 -10.9640    135.4978    126.0002   5.1275860752e+01   2.9822439609e+01    0.4033072    0.2406155 -63.72  0.001584091    2.287    0.563
        40 -10.3923    115.3480    125.5868   5.6486243136e+01   3.3971167399e+01    0.2524666    0.2354781  -0.31 0.0005813169    1.192    0.161
        41 -10.6287    161.3643    118.5646   4.3298251068e+01   2.5828454304e+01    0.5074499    0.2937827 -63.84  0.001827693    2.896    0.655
        42 -10.7199    158.4613    120.0852   4.4328901304e+01   2.6160066918e+01    0.4553226    0.2731856 -71.18  0.001526069    3.505    0.715
        43 -10.6086    103.2159    120.3076   5.8699801720e+01   3.7505468022e+01     0.278702    0.2413342 -12.27 0.0006598802    1.395    0.283
        44 -10.2981     92.8396    121.1155   6.1928697564e+01   3.9191423716e+01    0.2308121     0.194262  76.92 0.0005033828    1.276    0.216
        45 -10.4592     53.8536    230.6198   8.5563269797e+01   2.0898029630e+01    0.2434563    0.1325096 -69.91   0.00136181    2.059    0.514
        46  -9.4896    110.5087    115.5009   5.5475205727e+01   3.7224455512e+01    0.1514773    0.1481646  82.23 0.0001645482    1.004    0.004
        47 -11.3886    116.8988    109.3152   5.2126197876e+01   3.7345172334e+01    0.4039534    0.3463855  51.54  0.002047515    1.171    0.146
        48 -11.9164    119.4367    104.6080   5.0186925767e+01   3.7866036589e+01    0.4142403    0.3078333 -57.90  0.001803846    1.426    0.299
        49  -9.9355     48.1884    227.9193   8.6515337171e+01   2.2046011093e+01     0.278854    0.1941975 -47.39  0.001798451    2.151    0.535
        50  -9.4538     51.2719    202.2590   8.4071679863e+01   2.6633349626e+01   0.09862567   0.09419523 -22.12 0.0002667602    1.460    0.315
        51 -11.9399    112.7053     99.7894   5.0802095269e+01   4.0347567372e+01    0.5286245    0.4096447  87.45  0.001706204    1.683    0.406
        52 -10.0887    106.4529     95.0607   5.1341820914e+01   4.2696017907e+01    0.2825324    0.2119443  61.96 0.0005940675    1.516    0.341
        53 -10.3872    129.7545     91.5281   4.3732120860e+01   3.8414849848e+01    0.3134494     0.255627 -79.37  0.001082464    1.489    0.329
        54 -10.1073    152.3422     91.0046   3.8009654705e+01   3.3268780508e+01    0.2207607    0.1983325 -41.22 0.0004900172    1.104    0.094
        55 -11.0946     90.3499    222.2148   7.7441333509e+01   1.7748368720e+01    0.2104638    0.1815041  86.92  0.001069752    1.272    0.214
        56  -9.9195     98.4771     88.5124   5.1935796049e+01   4.5777071934e+01     0.348089    0.2080151  68.35  0.001110437    2.854    0.650
        57 -10.0160     70.8016     97.2921   6.3531439262e+01   4.8624842813e+01    0.2291645     0.188055 -70.09  0.000368191    1.215    0.177
        58  -9.9452     92.8846     85.1921   5.2764947345e+01   4.7622289532e+01    0.3007243    0.2008054  55.38  0.001040799    1.701    0.412
        59 -10.8068     82.8070     83.7590   5.5741232651e+01   4.9830531549e+01    0.2821288     0.237523  56.62 0.0006039321    1.285    0.222
        60 -10.5841     76.9964     81.0537   5.6995541435e+01   5.1476573888e+01    0.2134639     0.206464 -52.77            0    1.016    0.016
        61 -11.2267    173.9312     75.3206   2.8981464307e+01   3.0895264030e+01     0.283007    0.2061794 -59.32  0.001317723    1.530    0.346
        62 -12.0413     89.4236    215.2337   7.6944548161e+01   1.9148342432e+01    0.5149686    0.2829519 -68.84    0.0019036    2.145    0.534
        63 -13.0490    171.3245     67.4072   2.7153743076e+01   3.2852333810e+01     0.743491     0.514932  54.61  0.001028898    1.458    0.314
        64 -10.2236    149.4394     66.4704   3.1269618688e+01   3.8483144769e+01    0.2926585    0.2372195 -74.77 0.0009128429    1.425    0.298
        65 -13.7390    188.1374     54.0976   2.0449835909e+01   3.0725205557e+01     1.270118     0.957526  26.05   0.00404941    1.692    0.409
        66 -11.9320    194.1044     48.4803   1.7995083258e+01   3.0050981958e+01    0.3835306    0.3097772  39.40 0.0009176318    1.428    0.300
        67  -9.6007     99.3226     52.2902   3.9512749613e+01   5.3060135676e+01     0.193628    0.1722065 -84.10 0.0008663601    1.333    0.250
        68  -9.2073    128.4523     49.5819   3.0404398809e+01   4.6589710670e+01    0.1496537    0.1453987  77.16 0.0001640072    1.036    0.035
        69 -12.4800    211.6636     32.5110   1.1526493930e+01   2.7887262619e+01      0.74732    0.3951409  72.21  0.003369663    1.959    0.490
        70 -18.5503     24.8627    124.0673   8.3640325233e+01   4.7392949621e+01     16.66827     3.214359 -75.63   0.04579569    5.524    0.819
        71 -10.5594     61.2173     26.9391   4.2688121536e+01   6.5195042931e+01    0.2688949    0.1766478  45.13 0.0008672337    1.593    0.372
