#   1 NUMBER                 Running object number                                     
#   2 MAG_AUTO               Kron-like elliptical aperture magnitude                    [mag]
#   3 X_IMAGE                Object position along x                                    [pixel]
#   4 Y_IMAGE                Object position along y                                    [pixel]
#   5 X_WORLD                Barycenter position along world x axis                     [deg]
#   6 Y_WORLD                Barycenter position along world y axis                     [deg]
#   7 A_WORLD                Profile RMS along major axis (world units)                 [deg]
#   8 B_WORLD                Profile RMS along minor axis (world units)                 [deg]
#   9 THETA_WORLD            Position angle (CCW/world-x)                               [deg]
#  10 FWHM_WORLD             FWHM assuming a gaussian core                              [deg]
#  11 ELONGATION             A_IMAGE/B_IMAGE                                           
#  12 ELLIPTICITY            1 - B_IMAGE/A_IMAGE                                       
         1 -13.2539     68.1138    144.6779   1.3425404703e+02   3.8316746967e+01     3.260698     1.176052  59.74  0.009061053    4.929    0.797
         2 -10.6564    155.2382     13.0992   7.3141497154e+01   4.4615856555e+01     0.442107    0.2350997  23.77  0.001625774    2.832    0.647
         3 -10.5381    188.8790     11.9997   6.8772602111e+01   3.5459911012e+01    0.2049472    0.1572718 -54.77 0.0003220876    1.245    0.197
         4 -10.8560    149.3597      5.7728   7.1215936086e+01   4.6980801741e+01    0.4861297    0.1809507 -46.73   0.00153247    2.960    0.662
         5 -11.5819    196.1224      9.9473   6.7458820642e+01   3.3741222893e+01    0.2760362    0.1940608 -27.68 0.0009772116    1.415    0.293
         6  99.0000    199.3656      6.7128   6.6213728799e+01   3.3199981362e+01    0.2595501     0.165612 -61.49  0.000806586    1.530    0.346
         7 -12.1743    196.2495      3.7371   6.5585179016e+01   3.4285682745e+01    0.3490889    0.2416753 -20.58  0.001397817    1.518    0.341
         8 -11.3567    114.1581      7.8415   7.8122333852e+01   5.6582820753e+01    0.2179256    0.1654191  34.18  0.001084074    1.354    0.262
         9 -11.1728    106.9509      7.6564   7.9657195446e+01   5.8532867122e+01    0.2652535    0.2147386 -35.67 0.0005774601    1.314    0.239
        10 -10.1985     38.6445      2.6773   1.0398729559e+02   7.4248729194e+01    0.1364432   0.09169059   0.98 0.0007046054    1.763    0.433
        11 -10.1732     89.0493    170.5371   1.3207327818e+02   2.9763154231e+01    0.1954778    0.1124224  38.65 0.0002785671    1.499    0.333
        12 -16.2825    162.0093     85.2055   9.5856387534e+01   3.2355620725e+01     7.887811     3.597741 -45.45   0.02083377    2.382    0.580
        13 -18.5215    247.8702    115.3347   8.8659107733e+01   9.2976516935e+00     14.03909      2.15291 -30.73   0.04143913    5.233    0.809
        14 -11.6519    162.7618    140.4191   1.0933607238e+02   2.2330902117e+01    0.2456246    0.2140849  75.13  0.001358165    1.413    0.292
        15  -9.9552    101.3917    136.7926   1.2378170383e+02   3.4873194930e+01    0.1814144    0.1334351 -46.73 0.0003881536    1.544    0.353
        16  -9.4244    107.6490    135.3468   1.2181501121e+02   3.4075187901e+01    0.1552594    0.1055715  70.40 0.0001137874    1.819    0.450
        17 -12.1073    131.3920     96.0996   1.0630458509e+02   3.7559906979e+01    0.3579951     0.324814 -87.13 0.0004291056    1.202    0.168
        18 -12.9161    143.8362     99.4621   1.0403325098e+02   3.4051043017e+01     0.471435    0.4615433 -62.62 0.0006392489    1.070    0.065
        19 -12.1006    138.9094    103.6576   1.0637240232e+02   3.4348211375e+01    0.4102236    0.3292319  -2.59  0.001368955    1.593    0.372
        20 -12.2560    135.7966    129.3940   1.1327958615e+02   2.9879769200e+01    0.6726612    0.2049653 -48.47  0.002147642    3.651    0.726
        21 -12.6588    135.2373    118.2525   1.1091227257e+02   3.2226207380e+01    0.8507935      0.21083 -44.31  0.002405337    4.353    0.770
        22 -13.6083    134.6023    107.8600   1.0855023190e+02   3.4461800854e+01     1.201247    0.3402677 -44.78  0.003582239    3.722    0.731
        23 -13.1288    152.7257    119.9064   1.0704240193e+02   2.8154347952e+01    0.5209545    0.3736521   5.56   0.00233408    1.979    0.495
        24 -11.1061     29.2993    117.4936   1.4270506276e+02   4.9163867490e+01    0.2511304    0.1635714  71.85  0.000593373    1.441    0.306
        25 -12.7735    118.5001    110.5160   1.1352432844e+02   3.7334728177e+01    0.5184047    0.3390158  56.71  0.002317186    1.617    0.381
        26 -10.5201    111.9426    113.5209   1.1607404059e+02   3.8007870057e+01    0.2282623     0.141651  42.19 0.0007709542    1.532    0.347
        27 -13.0163    178.8166     72.1027   8.8701764001e+01   3.0347594466e+01     12.38843     2.037559 -40.44    0.0264347    5.631    0.822
        28 -13.6571    120.7681    101.7352   1.1070114209e+02   3.8730874311e+01    0.7317964    0.6211602  30.33  0.003732391    1.245    0.197
        29 -12.0666    111.9076    104.1036   1.1382880923e+02   4.0073733990e+01    0.3891102     0.362154  36.95  0.001424365    1.094    0.086
        30 -11.6752    113.3277     95.0806   1.1107440005e+02   4.1739496441e+01     0.259012    0.2078179  34.10 0.0003961776    1.301    0.231
        31 -12.1513    136.5827     88.8004   1.0290080289e+02   3.7817929971e+01    0.3949241    0.3239032  69.02 0.0009570088    1.324    0.245
        32 -11.6975    142.8631     79.6156   9.8610189064e+01   3.8065060986e+01    0.2530812    0.2179099 -19.00 0.0003609569    1.279    0.218
        33 -10.6303    207.9945     77.8572   8.5427612226e+01   2.2438835983e+01    0.4016686    0.1997641 -13.32   0.00145981    2.944    0.660
        34 -16.6960    205.6449     19.1643   6.9292857025e+01   3.0355950993e+01     13.99379    0.4498609  63.90   0.03503827    6.173    0.838
        35 -10.9491    112.9880     71.7679   1.0425185121e+02   4.6720892804e+01    0.2137629    0.2011337  56.85 0.0002092045    1.043    0.041
        36 -13.9647    160.9319     67.2058   9.0704965441e+01   3.5684427844e+01    0.7257554    0.5589561  64.13   0.00234941    1.320    0.243
        37 -12.7381    121.8355     68.3779   1.0055709949e+02   4.5317676412e+01    0.4387977    0.3075703  52.91  0.001983657    1.400    0.286
        38 -11.6489    226.2179     62.5466   7.8922483480e+01   2.0322421346e+01    0.2285132    0.2117565 -73.55 0.0005740933    1.161    0.139
        39 -12.5441    190.6603     58.1317   8.2603719593e+01   2.9426108737e+01    0.8662414    0.6480022 -18.69  0.004276637    1.417    0.294
        40 -11.5529    185.2902     60.0317   8.4021266713e+01   3.0521025991e+01     0.338707    0.2532049 -44.49 0.0006472415    1.337    0.252
        41 -12.8682    167.1424    151.6380   1.1067070020e+02   1.9548166697e+01    0.5142274    0.4172494  -0.57  0.002888764    1.367    0.268
        42 -10.3044    204.8425     64.7550   8.2357637733e+01   2.5004835006e+01    0.1942161    0.1613137 -63.37 0.0006976944    1.308    0.236
        43 -12.7597    192.0152    152.7196   1.0586183027e+02   1.4628620193e+01    0.3971119    0.2371569 -50.18  0.001889604    2.324    0.570
        44 -11.2771    223.9039     53.9437   7.6956068922e+01   2.1918765172e+01    0.2214487    0.1686886 -52.06 0.0005739302    1.313    0.239
        45 -10.4571    205.5432     39.2180   7.5075603847e+01   2.8129139807e+01    0.5486388    0.3761919 -80.60  0.002665681    1.673    0.402
        46 -10.7986    207.5657     44.0517   7.6206625074e+01   2.7037431818e+01     0.340245    0.1712068 -45.81  0.001122757    1.963    0.490
        47 -12.5721    202.7744     48.5222   7.8084022714e+01   2.7666032648e+01    0.5364411    0.4403697  -5.11   0.00228187    1.351    0.260
        48 -11.1161    203.3315     43.1657   7.6477071884e+01   2.8201446332e+01    0.4005535    0.2834046 -75.97  0.001424951    1.618    0.382
        49 -10.0222    194.2074     48.7888   7.9329416746e+01   2.9793349935e+01    0.1854197      0.16321  30.69 0.0009921306    1.242    0.195
        50  -9.9125     35.4682     49.0697   1.2793156385e+02   6.5252343418e+01    0.1942057    0.1203202 -61.58 0.0003738703    1.472    0.321
        51 -11.5978    212.9419     47.6904   7.6570590862e+01   2.5274266941e+01    0.2589318    0.2116426  79.14 0.0009849517    1.300    0.231
        52 -10.4853    164.9871     45.5063   8.2929924658e+01   3.7938432106e+01    0.2217418    0.2021741 -37.01   0.00116039    1.112    0.100
        53  -9.8001    218.2006     43.4043   7.4788482038e+01   2.4532334044e+01    0.1686254    0.1291536 -84.25   0.00035697    1.438    0.305
        54 -10.9633    175.8811     38.4612   7.8830802452e+01   3.5954763142e+01    0.2321066    0.1867276 -52.86 0.0003402748    1.252    0.201
        55  99.0000    213.6156     36.8337   7.3487986126e+01   2.6413641141e+01     0.361339    0.2750782  79.02  0.001306873    1.377    0.274
        56 -12.5303    172.9397    150.9445   1.0931566872e+02   1.8542835026e+01    0.4044945    0.2588459 -48.97  0.002007711    1.913    0.477
        57 -10.8549    203.9374     30.7937   7.2833001261e+01   2.9521784622e+01    0.3370292    0.1732129 -52.83  0.001418516    2.051    0.513
        58 -11.0323    195.5891     29.1781   7.3302378222e+01   3.1853813667e+01    0.1941873    0.1515465 -33.03   0.00100891    1.245    0.197
        59 -11.4867     95.8000     25.1331   9.1229161516e+01   5.9173722571e+01    0.3263049    0.1697075 -36.02   0.00125998    1.944    0.486
        60 -14.1696     58.9574    174.5577   1.3989525303e+02   3.3068694331e+01    0.8215416    0.5973534   0.99 0.0009447078    2.238    0.553
        61 -12.1440    152.8198     19.9804   7.6039512564e+01   4.4554639042e+01    0.2902338    0.2534322 -27.36 0.0004289362    1.205    0.170
        62  -9.9528    168.8462    227.6336   1.2237035629e+02   8.1955766620e+00    0.1722546   0.08103444  43.22 0.0009443198    1.772    0.436
        63 -15.1437     21.2153    201.0594   1.5013589471e+02   3.1975822242e+01     2.111283    0.7283875  59.35   0.01103141    2.292    0.564
        64 -14.6073      9.1774    205.5734   1.5276560829e+02   3.2244413580e+01     1.258991    0.6055707  60.81  0.008184708    1.530    0.346
        65 -15.2211     34.5085    194.6533   1.4698595587e+02   3.1860858108e+01    0.9128889    0.7692453  44.11  0.003664284    1.253    0.202
        66 -11.4845    192.5191    194.6368   1.1328066037e+02   8.7175079963e+00    0.7582857    0.4181123 -61.15  0.002216639    9.922    0.899
        67 -11.4233    133.5519    145.4494   1.1710158495e+02   2.7165558105e+01    0.7829763     0.217072 -54.32  0.002195836    5.423    0.816
        68 -14.7846     65.5860    168.8987   1.3771497389e+02   3.3395642423e+01     1.459455     1.081065  21.71  0.003070732    1.618    0.382
        69 -14.1253     70.4030    162.5220   1.3580814108e+02   3.4096004472e+01    0.8588151    0.5139197  46.64  0.001621339    1.416    0.294
