#   1 NUMBER                 Running object number                                     
#   2 MAG_AUTO               Kron-like elliptical aperture magnitude                    [mag]
#   3 X_IMAGE                Object position along x                                    [pixel]
#   4 Y_IMAGE                Object position along y                                    [pixel]
#   5 X_WORLD                Barycenter position along world x axis                     [deg]
#   6 Y_WORLD                Barycenter position along world y axis                     [deg]
#   7 A_WORLD                Profile RMS along major axis (world units)                 [deg]
#   8 B_WORLD                Profile RMS along minor axis (world units)                 [deg]
#   9 THETA_WORLD            Position angle (CCW/world-x)                               [deg]
#  10 FWHM_WORLD             FWHM assuming a gaussian core                              [deg]
#  11 ELONGATION             A_IMAGE/B_IMAGE                                           
#  12 ELLIPTICITY            1 - B_IMAGE/A_IMAGE                                       
         1 -11.6865    215.7303     24.2893   3.8244426199e+01   2.8660276377e+01     1.014431    0.7257563  33.91  0.005537717    2.076    0.518
         2 -11.8592    202.2852     37.8494   4.3028123915e+01   3.0112187538e+01      1.07117    0.7758946  54.86  0.005884605    1.460    0.315
         3  -9.6963    240.4521      2.0624   3.1390898452e+01   2.5709804417e+01    0.6003357    0.1902937  76.85  0.002645946    2.970    0.663
         4  -7.9973     74.6724    237.5360   1.1319874219e+02   1.5518902565e+01    0.1947793    0.1092125 -71.90  0.001071132    1.941    0.485
         5  -8.2635    237.8934    250.5719   8.2654956932e+01  -1.0726834526e+01    0.1626719   0.09134295  28.19 0.0004242565    1.500    0.333
         6 -15.3320     36.2838    236.7259   1.2067224293e+02   2.0510687525e+01     1.846476    0.8433049  42.25  0.006894101    1.808    0.447
         7 -14.3857      2.3837    204.0736   1.2530869916e+02   3.0640629163e+01     2.074516    0.2026594 -71.99  0.006833281    5.564    0.820
         8 -14.7389     41.0968    247.7155   1.2047925321e+02   1.7846761289e+01     1.313935    0.3444543  37.65  0.005874483    2.985    0.665
         9 -15.3940     15.7552    215.2090   1.2329771432e+02   2.7061026775e+01     1.518229    0.5772827  64.32  0.007257562    2.534    0.605
        10 -14.3163     23.6498    238.5778   1.2314125881e+02   2.1546833325e+01     0.342623     0.251504  64.42  0.001563123    1.037    0.035
        11 -14.7774     20.3625    248.6886   1.2426518043e+02   1.9979428219e+01    0.4283345    0.3837645 -19.72  0.003293262    1.955    0.489
        12 -17.5761      8.5755    238.5440   1.2585325680e+02   2.3094209343e+01     2.497932     1.727859 -82.17   0.01833461    1.388    0.279
        13  -8.8197    120.0454    231.0299   1.0304015026e+02   1.0030423694e+01    0.2131359    0.1418186  62.63 0.0007880267    1.677    0.404
        14  -9.8566    113.8884    230.9892   1.0434260818e+02   1.1006100816e+01     0.369229    0.2090516  17.93  0.001576658    2.898    0.655
        15  -9.8138    104.5464    230.0826   1.0621741237e+02   1.2624548529e+01     0.266101    0.1669786  23.20  0.001346185    1.966    0.491
        16  -8.3212    156.6612    229.3499   9.5062662528e+01   4.4067438157e+00    0.1328422   0.09742225  63.87 0.0007045378    1.792    0.442
        17 -10.7924     84.2095    232.0430   1.1071164587e+02   1.5255182219e+01    0.4851958     0.376773 -81.38  0.001520155    1.360    0.265
        18 -10.6363     90.1285    232.9486   1.0957285090e+02   1.4223793036e+01    0.4965656    0.2781421  54.44  0.002625088    1.628    0.386
        19  -7.4749     73.6584    227.2977   1.1243978268e+02   1.7682641265e+01    0.1354411   0.07827838  61.83 0.0001968175    1.666    0.400
        20  -7.8853     66.3629    226.0696   1.1384525322e+02   1.8921234203e+01    0.1682972    0.1337551  76.75 0.0003225563    1.131    0.116
        21  -9.6878    112.3726    224.1503   1.0381068762e+02   1.2560663853e+01     0.435533    0.2079239  34.68  0.001162652    1.950    0.487
        22  -8.1802    207.2346    223.1122   8.3806402039e+01  -2.6998600087e+00    0.2077974    0.1774803 -54.76  0.001292046    1.692    0.409
        23  -7.9339    134.5102    221.5297   9.8643797716e+01   9.4768058742e+00    0.1355105    0.1175095  41.25 0.0002321296    1.007    0.007
        24  -7.8189     93.8328    220.8541   1.0743905898e+02   1.6083780584e+01    0.1885913    0.1348054  62.36 0.0008823239    1.334    0.250
        25  -9.6322    227.0872    216.4137   7.8878310104e+01  -4.7026535865e+00    0.2166391    0.1792027  -1.10 0.0001797001    1.049    0.047
        26  -8.6022    154.1813    214.6613   9.3324531215e+01   7.4496724163e+00    0.1825779    0.1743402  49.05  0.001121521    1.139    0.122
        27  -8.4766     98.8449    214.1538   1.0552050482e+02   1.6699128779e+01    0.1909622    0.1604892  63.58 0.0002626214    1.093    0.085
        28  -8.5782    101.3507    210.9392   1.0454587272e+02   1.6980543459e+01    0.2482059    0.2150493  10.15 0.0004761869    1.439    0.305
        29  -7.4374     74.4723    209.5576   1.1042511692e+02   2.1282551479e+01    0.1321506    0.1113459  64.86 0.0001828025    1.015    0.015
        30  -8.8043     75.2548    212.9828   1.1062610007e+02   2.0436300339e+01    0.3784608     0.225318  39.33  0.001738253    1.542    0.351
        31  -8.9400     59.4731    210.8160   1.1386785784e+02   2.3034044853e+01    0.3647515    0.2227405  20.14  0.001832316    2.326    0.570
        32  -8.1128    188.9854    210.0279   8.5176505564e+01   2.3427205041e+00    0.1985351    0.1752563  12.17 0.0003831038    1.026    0.025
        33  -7.1802     69.3754    209.2570   1.1152809486e+02   2.2053922027e+01    0.1175633    0.1022065  -7.67 0.0006970403    1.655    0.396
        34  -7.4466    128.6770    206.9774   9.7784516156e+01   1.3314433981e+01    0.1866031    0.1775047  64.13 0.0005337257    1.085    0.079
        35  -8.2757    121.0010    204.4423   9.9152880435e+01   1.5138486049e+01    0.4018439    0.1975074  24.84  0.001041316    2.850    0.649
        36  -8.4825    164.8713    202.4703   8.8954927983e+01   7.8698731928e+00    0.2360767    0.2054344  67.18 0.0004731036    1.401    0.286
        37  -8.9444    116.5114    200.8123   9.9645131098e+01   1.6659735216e+01    0.3560489    0.2353978 -41.74  0.001166708    1.807    0.447
        38  -8.8626     63.1277    203.0422   1.1226925911e+02   2.4259740158e+01    0.2397698    0.1629922  48.99 0.0007844105    1.319    0.242
        39  -8.7091    193.8225    198.4701   8.2090026582e+01   3.5118518080e+00    0.3305152    0.2817302 -55.86  0.001902443    1.497    0.332
        40  -7.7662     78.5582    198.4437   1.0819773780e+02   2.3149981968e+01    0.1327807    0.1197296  68.89 -2.550014e-05    1.046    0.044
        41  -7.9574     90.1414    196.8164   1.0526730698e+02   2.1788069027e+01    0.1762505    0.1643609  11.09  0.001054883    1.303    0.232
        42  -9.2867    152.0826    195.0144   9.0490083552e+01   1.1614456039e+01    0.2194605    0.2110974  14.33   0.00129005    1.057    0.054
        43  -9.0652     74.9571    190.2349   1.0802571568e+02   2.5533915592e+01    0.2791895    0.1849259 -66.81 0.0006952332    1.497    0.332
        44  -8.4535     63.8373    190.9151   1.1076213233e+02   2.6910430931e+01    0.1854855    0.1670496 -75.39 0.0003475545    1.167    0.143
        45  -8.4271     90.8729    189.4288   1.0407410658e+02   2.3345710211e+01    0.2150948    0.1775774  89.40  0.001202757    1.216    0.178
        46  -7.1273    136.3042    190.6722   9.3371579838e+01   1.5365324163e+01    0.1462802    0.1108337  72.03 0.0007034704    1.649    0.393
        47  -8.2224    186.9510    187.8401   8.1502277526e+01   6.6421544521e+00     0.252773    0.1798923  32.83 0.0008271931    1.334    0.250
        48  -8.2143     81.9512    186.4255   1.0582852105e+02   2.5395766720e+01    0.3425924    0.2461218  -2.45  0.001565465    2.309    0.567
        49  -8.4898     61.4860    186.7628   1.1083882622e+02   2.8183690535e+01    0.2519269     0.125232 -74.93 0.0006671567    2.064    0.515
        50  -7.8303    118.6651    183.6566   9.6394201914e+01   2.0041233590e+01    0.3307617    0.1883239  25.50  0.001362388    2.176    0.541
        51  -8.5181    147.2014    180.3983   8.8951844565e+01   1.5536980417e+01    0.4092561    0.2380167  67.44  0.001436627    3.287    0.696
        52  -9.5589     50.3173    181.2554   1.1290507697e+02   3.0881831115e+01    0.3622977    0.2239902 -46.63  0.001841655    1.975    0.494
        53  -9.5556     70.3872    173.6275   1.0695376901e+02   3.0092390993e+01    0.2627734    0.2350676 -61.82 0.0007309191    1.179    0.152
        54  -9.1598     40.4356    180.9378   1.1524855162e+02   3.2102735279e+01    0.2503564    0.2110799  18.33  0.001010433    1.523    0.343
        55  -8.0998     78.8140    182.1252   1.0600997265e+02   2.6864023463e+01    0.2087253    0.1658695 -29.61  0.001107137    1.683    0.406
        56  -7.6181    109.2400    178.7729   9.7898539428e+01   2.2788996877e+01    0.1820569    0.1680527 -11.98 0.0003737345    1.272    0.214
        57  -8.3379     60.8748    175.9615   1.0967162605e+02   3.0815891079e+01    0.2045979    0.1803274 -86.63 0.0005100209    1.052    0.050
        58 -10.1662     65.0360    179.4302   1.0907378806e+02   2.9438324986e+01    0.4711009    0.3477309 -31.95  0.001700548    1.888    0.470
        59  -9.6520    175.2939    172.4238   8.0951834732e+01   1.1798218718e+01    0.3439766    0.3082438  19.28 0.0007640722    1.075    0.069
        60 -10.9133     17.1365    169.5516   1.1975400949e+02   3.7097606411e+01    0.5224216    0.4047958  61.20  0.003407103    1.223    0.182
        61  -9.6994     24.0697    169.0000   1.1803280781e+02   3.6600410620e+01    0.3745798    0.1892151  20.90  0.001835969    2.576    0.612
        62  -7.3244    124.2932    172.6931   9.3065786715e+01   2.1507037932e+01    0.1497803    0.1145205  74.12 0.0004279727    1.582    0.368
        63  -8.4271     36.8935    171.2666   1.1510966048e+02   3.4779347568e+01     0.287281    0.1505361 -39.78  0.001260383    2.883    0.653
        64  -8.1425     75.1381    170.2031   1.0524210766e+02   3.0243459356e+01    0.1911508    0.1882693 -80.69 0.0004625733    1.147    0.128
        65  -6.8153    111.3319    168.3252   9.5548209622e+01   2.4853903929e+01    0.1501576    0.1183916 -14.25 0.0007050879    1.708    0.414
        66  -8.9170     88.9536    165.2129   1.0084223064e+02   2.9358672490e+01     0.515717    0.3153103   8.79  0.001538781    3.022    0.669
        67  -8.7051     85.4857    165.4375   1.0179483804e+02   2.9848193742e+01    0.4241896    0.2400081 -78.97  0.001633804    2.252    0.556
        68  -8.1733     42.7596    164.9129   1.1292145801e+02   3.5671759977e+01    0.3571041    0.2030059 -32.99  0.001561283    2.879    0.653
        69  -8.8156     24.7600    165.9694   1.1757631151e+02   3.7255927821e+01    0.3070379    0.1878193 -73.28 0.0009574844    1.400    0.286
        70  -9.2305     79.6281    164.2702   1.0315795592e+02   3.1024407535e+01    0.2396296     0.237278  63.64 0.0004486338    1.130    0.115
        71  -7.5865    106.8924    163.8939   9.5892157184e+01   2.6681561500e+01    0.1995325    0.1676672  76.64  0.001023553    1.270    0.213
        72  -7.9968     57.8332    163.4081   1.0880372259e+02   3.4247328170e+01    0.2101541    0.1783423 -43.49 0.0002021692    1.358    0.263
        73  -7.7796     53.2622    163.2250   1.0998171791e+02   3.4860220223e+01    0.5179142      0.16689  49.41  0.001780361    3.586    0.721
        74  -9.4373     19.2962    163.1814   1.1866416156e+02   3.8413802692e+01     0.250088    0.1585519  64.81 0.0008475995    1.524    0.344
        75  -7.0895     99.4503    163.4544   9.7768146052e+01   2.8065186023e+01    0.1461974    0.1394141  78.07  2.14534e-05    1.007    0.007
        76  -8.2476     96.1745    163.4189   9.8627406222e+01   2.8621361539e+01    0.2688769    0.1227664  47.28 0.0002845237    2.249    0.555
        77  -7.5938     28.4893    162.1140   1.1625666517e+02   3.7826093639e+01    0.1913919    0.1102245 -75.41  0.001002592    1.502    0.334
        78  -7.1874    108.2752    160.2913   9.4859603947e+01   2.7296451825e+01    0.1432942      0.11807 -18.91 0.0002528139    1.519    0.342
        79  -9.6041     67.4948    159.1124   1.0560576923e+02   3.4029036909e+01    0.3679456    0.2955485 -32.45  0.001501494    1.537    0.349
        80  -7.4790    172.2178    159.1012   7.8835315255e+01   1.5115683096e+01    0.1905239    0.1215833 -40.58 0.0003924267    1.582    0.368
        81 -10.0968     86.6965    157.0940   1.0006539449e+02   3.1693774341e+01    0.6250516        0.389 -32.06  0.002636259    2.301    0.565
        82  -7.3519    126.8619    158.1935   8.9604377472e+01   2.4359101737e+01    0.1955596     0.175421  -4.54 0.0002489873    1.270    0.212
        83  -7.6777     23.2482    157.9735   1.1716682123e+02   3.9309752318e+01    0.2083953    0.1142631  73.20 0.0005449277    1.942    0.485
        84  -9.0709     51.7664    157.0201   1.0954846654e+02   3.6564530934e+01    0.3012541    0.2248128   3.56 0.0006584791    1.875    0.467
        85  -8.0743     33.5316    155.0690   1.1417473971e+02   3.9041381904e+01    0.2642702    0.2064926   3.90  0.001540991    1.734    0.423
        86  -8.3692    240.5009    163.4843   6.6291257520e+01   1.4837168530e+00    0.1345526    0.1152148 -16.66 0.0001827562    1.001    0.001
        87  -7.9499     69.1576    152.5172   1.0411603786e+02   3.5430785864e+01    0.2452141    0.1864448  85.20  0.001269128    1.389    0.280
        88  -7.6691     80.4461    152.0204   1.0089775141e+02   3.3911157929e+01    0.2085229    0.1374443 -63.78 0.0003157415    1.468    0.319
        89  -7.4659     56.6589    151.8042   1.0747014244e+02   3.7257171864e+01    0.1930062    0.1203084 -77.80 0.0002574819    1.601    0.375
        90 -10.0512    135.6987    233.0024   9.9987526567e+01   7.1700345968e+00    0.4270608    0.1824943  35.43  0.001884022    2.065    0.516
        91  -9.5495    111.6856    150.0922   9.1947620493e+01   2.9121389019e+01    0.2578965    0.2379229  46.65 0.0002062669    1.077    0.072
        92  -6.6461    148.2978    149.6980   8.2398099747e+01   2.2027002875e+01    0.1531758    0.1239255  83.43 0.0003145943    1.581    0.367
        93  -9.0319    133.4975    146.1714   8.5344368161e+01   2.5838071965e+01    0.5596814    0.1899466 -44.89  0.001749762    3.058    0.673
        94 -11.1757     68.4940    144.4643   1.0295962690e+02   3.7527082995e+01    0.7314717    0.5182117  72.03  0.003598449    1.630    0.386
        95  -8.0234    126.8369    147.0255   8.7265378842e+01   2.6963990206e+01    0.2253006    0.2004188 -12.76 0.0003230296    1.274    0.215
        96  -7.9042     31.0795    145.8160   1.1372943855e+02   4.1546578548e+01    0.1982952    0.1553216  71.32 0.0006155687    1.259    0.206
        97  -8.9817    242.9059    144.3184   6.1895430675e+01   4.2621431453e+00    0.1948609     0.179056  78.80  0.001196088    1.419    0.295
        98  -8.9337     99.6270    142.8074   9.3775649979e+01   3.3047315612e+01    0.4768381    0.3548419   1.82  0.001918686    1.905    0.475
        99  -8.6855     86.8046    143.5444   9.7552293552e+01   3.5015578410e+01    0.3502671    0.1370979  38.49  0.001213667    2.535    0.605
       100  -8.2678     82.0098    142.0855   9.8645603258e+01   3.6133496974e+01    0.2187726     0.207911 -87.74 0.0005037627    1.018    0.018
       101  -8.2781    109.9472    137.8084   8.9821910996e+01   3.2394259123e+01     0.255805    0.2130214 -58.37 0.0005333877    1.198    0.165
       102  -8.2900     82.5462    137.2714   9.7557034877e+01   3.7244166145e+01    0.4113011    0.2489712  75.76  0.001295304    2.689    0.628
       103  -7.9270     24.6540    137.4133   1.1448902363e+02   4.4189034207e+01    0.2948791    0.1365668  57.55  0.001276224    2.674    0.626
       104  -9.6439     12.9587    136.6839   1.1768381022e+02   4.5291712936e+01    0.3832952    0.2272564 -50.97  0.001183092    1.656    0.396
       105  -7.2090    154.9729    137.0104   7.7862340663e+01   2.3425453540e+01    0.1831898    0.1731892  38.99 -0.003769674    1.055    0.052
       106  -8.9456     62.1617    136.2931   1.0338344183e+02   4.0422510509e+01    0.3057725    0.2261901  84.44  0.001175428    1.514    0.340
       107  -7.7849     52.7848    137.2212   1.0631040127e+02   4.1364340121e+01    0.1820403    0.1515405 -37.41 0.0003361532    1.332    0.250
       108  -8.7376    191.4375    134.2731   6.9061468901e+01   1.6148896692e+01      0.25355    0.2393535 -61.05 0.0003246877    1.134    0.118
       109  -8.7631    105.3365    133.9088   9.0258383131e+01   3.4187338837e+01    0.2493346    0.2165151  37.61 0.0003402423    1.177    0.151
       110  -7.8288     67.9703    134.4916   1.0133050516e+02   4.0089046428e+01    0.2095997     0.106898  54.88 0.0008098788    2.524    0.604
       111  -8.5036     29.0670    134.0340   1.1278782976e+02   4.4632595821e+01    0.1912033    0.1680973 -77.14 0.0004521217    1.036    0.034
       112  -8.7339      9.4443    132.5791   1.1822404460e+02   4.6529169684e+01    0.2622058    0.1624404 -27.38  0.001427269    2.165    0.538
       113  -7.9275    110.4177    131.8390   8.8351095041e+01   3.3737768913e+01    0.2208872    0.1410415 -40.45 0.0007833972    1.665    0.400
       114  -7.8797     72.0291    131.2972   9.9504461232e+01   4.0311226855e+01    0.3123602    0.1830956  88.45  0.001175914    2.811    0.644
       115  -7.5652    244.3379    131.3159   5.8893805621e+01   6.1906801335e+00    0.1366903    0.1006783  -1.19 0.0007047994    1.700    0.412
       116  -8.8636     15.7870    129.3963   1.1605596217e+02   4.6851611376e+01    0.2217347    0.1485615 -81.76 0.0006580351    1.304    0.233
       117  -7.3257    120.3035    128.2724   8.4754099812e+01   3.2657288435e+01    0.1525549    0.1242455  -4.86   0.00040278    1.537    0.349
       118  -7.5988      1.6826    126.3546   1.1976692394e+02   4.8507179108e+01    0.1284522   0.07788369  70.05 0.0007046057    1.746    0.427
       119  -7.4769     65.6524    125.6682   1.0034693129e+02   4.2604935758e+01    0.1518644    0.1053876 -29.53 0.0002306416    1.766    0.434
       120  -8.1322     89.0846    124.2550   9.2864713927e+01   3.9390852451e+01    0.2035102    0.1887355  60.92 0.0004051205    1.124    0.110
       121  -8.4746    125.5086    127.5081   8.3144203162e+01   3.1782417486e+01    0.3652398    0.2474063  83.36  0.001384539    2.495    0.599
       122  -7.4738     70.6423    122.2560   9.8103376220e+01   4.2752383323e+01    0.1458019    0.1081591  65.78 0.0002008866    1.615    0.381
       123  -7.9044    104.6284    120.5359   8.7356726673e+01   3.7525908353e+01    0.2047228     0.146381  51.24 0.0007947593    1.498    0.333
       124  -8.7404    247.2827    234.9772   7.8467423008e+01  -1.0008185864e+01    0.1628788    0.1221127  -7.56 0.0004439247    1.108    0.098
       125  -9.6926    246.9500    114.4977   5.4866597751e+01   8.5177889859e+00     0.327017    0.2604986 -73.41    0.0018645    1.540    0.351
       126  -7.2592     65.5804    116.4702   9.8486502836e+01   4.4886632306e+01     0.143693    0.1311108 -57.24 6.764443e-05    1.011    0.011
       127  -8.8529    109.3164    111.3506   8.3671876936e+01   3.8778693192e+01    0.2778025    0.2506906  77.97 0.0001369142    1.238    0.192
       128  -7.6061    126.7355    111.6664   7.8801493786e+01   3.5137584562e+01    0.1570212    0.1240989 -11.37 0.0006970488    1.581    0.368
       129  -7.4794     43.1586    110.8349   1.0467010230e+02   4.8983431205e+01    0.1880819    0.1402666 -43.16 0.0004306193    1.293    0.227
       130  -9.1463    249.4474    106.2003   5.2714872415e+01   9.4121344827e+00    0.3491788    0.1094647 -39.71  0.001309191    2.665    0.625
       131  -8.2349     69.2534    103.4154   9.4312917537e+01   4.7527802803e+01    0.1932617    0.1354298  43.25 0.0009446107    1.559    0.359
       132  -8.3985     34.8208     97.0040   1.0480241675e+02   5.3143259428e+01    0.3488617    0.1224458  47.93  0.001114726    4.983    0.799
       133  -7.1946     68.6889     96.7228   9.2838830148e+01   4.9184962981e+01    0.1441158    0.1063856 -21.07 0.0003083663    1.560    0.359
       134  -7.3143     90.7521     92.9656   8.4428681885e+01   4.6452071011e+01    0.1887541    0.1233942 -46.37 0.0003504434    1.478    0.323
       135  -7.7720     42.8617     92.8658   1.0103511445e+02   5.3325199453e+01    0.1701081    0.1537334  69.52 0.0004015836    1.302    0.232
       136  -7.1394     75.6820     88.2803   8.8158586737e+01   5.0048996480e+01    0.1384028    0.1151882  75.60 0.0002333149    1.579    0.367
       137  -7.6153     62.4807     82.3990   9.1202040188e+01   5.3325717826e+01    0.1375566    0.1278584 -28.56 3.041493e-07    1.035    0.034
       138  -7.7927     80.6762     78.6397   8.3594793647e+01   5.1320150708e+01    0.3439274    0.2132161   0.98  0.001347229    2.707    0.631
       139  -7.9495     11.5655     75.4766   1.0910763034e+02   5.9876942158e+01    0.1241614    0.1003402 -53.44  0.000806429    1.023    0.023
       140  -7.3744    105.9674     72.2046   7.3294676184e+01   4.7809979417e+01    0.1928098    0.1166059  44.85 0.0003439171    1.639    0.390
       141  -7.2073    120.2454     58.2437   6.4590173688e+01   4.7179344588e+01    0.1368412    0.1089338  18.44            0    1.399    0.285
       142  -7.2984     83.2794     58.7230   7.6140811947e+01   5.4778222529e+01    0.1267866    0.1143681 -89.77 0.0002052087    1.501    0.334
       143  -8.4816    122.9712     48.9659   6.0753552562e+01   4.8019929190e+01    0.2082767    0.1991569  42.17   0.00119369    1.034    0.033
       144  -8.1017    208.2825    240.2283   8.6427098402e+01  -5.3450083255e+00    0.1730299     0.133038  10.29 0.0003827467    1.092    0.084
       145 -10.7242    193.9969     43.6999   4.5615049513e+01   3.1322199014e+01    0.3900115    0.3118195 -58.12   0.00111739    1.203    0.169
       146  -9.4957     86.2094    238.6018   1.1095940614e+02   1.3701055312e+01    0.2694126    0.1987864  43.49  0.001686723    1.179    0.152
       147  -7.7771     28.8912     46.5350   9.3971864904e+01   6.4677830453e+01    0.1659363    0.1152801  13.54 0.0003560201    1.489    0.328
       148  -7.5209    127.4044     27.7679   5.2436704452e+01   4.9813483013e+01    0.1665423    0.1330908  -1.04 0.0001769528    1.448    0.309
       149  -8.0097    233.0644     19.3281   3.5539877824e+01   2.5370968598e+01    0.1734852      0.13663 -82.97 0.0004224313    1.099    0.090
       150  -7.5883    245.0358     14.0675   3.3498615172e+01   2.3432210981e+01    0.1415192    0.1104875 -61.10  0.000346043    1.077    0.071
