#   1 NUMBER                 Running object number                                     
#   2 MAG_AUTO               Kron-like elliptical aperture magnitude                    [mag]
#   3 X_IMAGE                Object position along x                                    [pixel]
#   4 Y_IMAGE                Object position along y                                    [pixel]
#   5 X_WORLD                Barycenter position along world x axis                     [deg]
#   6 Y_WORLD                Barycenter position along world y axis                     [deg]
#   7 A_WORLD                Profile RMS along major axis (world units)                 [deg]
#   8 B_WORLD                Profile RMS along minor axis (world units)                 [deg]
#   9 THETA_WORLD            Position angle (CCW/world-x)                               [deg]
#  10 FWHM_WORLD             FWHM assuming a gaussian core                              [deg]
#  11 ELONGATION             A_IMAGE/B_IMAGE                                           
#  12 ELLIPTICITY            1 - B_IMAGE/A_IMAGE                                       
         1 -10.0809      9.3062     19.8093   1.1347206172e+02   6.9184315718e+01    0.3419007    0.1796841   5.55 0.0005530817    1.967    0.492
         2 -10.0834     24.3481     16.6190   1.0540497868e+02   6.8287454103e+01    0.2787743     0.217263  21.82 0.0006598702    1.440    0.305
         3  -8.8530     74.5232     13.6907   8.5307428687e+01   6.1578319788e+01    0.3582855    0.2088066  11.85  0.001799981    1.968    0.492
         4  -8.7543     79.9104     12.8011   8.3335256567e+01   6.0701598090e+01    0.2835488    0.2150356  43.75 0.0008973963    1.239    0.193
         5  -9.7788     64.0077     14.1039   8.8869554751e+01   6.3313064836e+01    0.3588036    0.2299688  18.72 0.0007904189    1.452    0.311
         6  -8.3800    146.6908     14.1376   6.8767146033e+01   4.6351889829e+01    0.2105241    0.1555232  73.32 0.0003173481    1.258    0.205
         7  -8.9701    137.0000      8.8919   6.8875244513e+01   4.9089895212e+01    0.3652112    0.1665152 -27.02   0.00131335    2.503    0.600
         8  -8.8316     97.2303     12.0020   7.8310664378e+01   5.7449393664e+01    0.2460542    0.1577901  36.29  0.000536249    1.369    0.269
         9  -8.1015    134.4108     13.6302   7.0787036616e+01   4.9248070694e+01    0.2635179    0.1435087  36.65  0.001284493    2.001    0.500
        10  -9.8740     31.6731     10.8540   9.9796880110e+01   6.8207848746e+01    0.2654459    0.1581077 -16.74 0.0004126199    1.482    0.325
        11  -7.9503    157.3747     11.1632   6.6219027293e+01   4.4120250038e+01    0.1780278     0.108873 -44.39 0.0009463278    1.832    0.454
        12  -8.1976    106.0283     10.5414   7.5664337802e+01   5.5775449835e+01    0.1792534    0.1593137  19.27 0.0006402491    1.129    0.114
        13 -10.6054     20.1515      8.8181   1.0397621627e+02   6.9708447522e+01    0.2670518    0.1579796  15.69 0.0004043161    1.529    0.346
        14  -8.1817      1.8812      8.2210   1.1240448621e+02   7.1360672391e+01    0.1711159    0.1230859 -36.96  0.001328675    1.443    0.307
        15  -8.3775    128.2158      7.9228   7.0167688497e+01   5.1172931789e+01    0.2028976    0.1248252  26.25  0.001068821    1.922    0.480
        16  -7.7342     39.1077      8.4717   9.5684355067e+01   6.7561318863e+01    0.1595708   0.09324803  30.58  0.001015419    1.545    0.353
        17  -8.3777    119.0049      6.9906   7.1657728235e+01   5.3300191526e+01    0.2089062    0.1200707  39.28 0.0006451227    1.632    0.387
        18  -8.2477     76.6017      6.9035   8.1999815714e+01   6.1855512633e+01    0.1854335    0.1502208  52.46 0.0009186962    1.382    0.276
        19  -8.8439     56.2307      5.1339   8.7801113555e+01   6.5450872819e+01    0.3361921    0.1714102  14.47  0.001742392    2.348    0.574
        20  -8.0204     84.9811      6.0242   7.9290679596e+01   6.0380346287e+01    0.1937662    0.1076259  27.28  0.001051185    1.784    0.440
        21  -8.4211     68.4863      4.7450   8.3590355497e+01   6.3477669037e+01    0.2387874    0.1048132 -11.30  0.001119509    2.928    0.658
        22  -9.8261     49.0850      4.6858   9.0172825993e+01   6.6574980281e+01    0.2369836    0.1572519  12.24 0.0003953658    1.298    0.229
        23  -8.3611     12.5781      5.0513   1.0584484404e+02   7.0897539855e+01    0.2211924    0.1553349 -26.56  0.001547127    1.306    0.234
        24  -8.7748    110.9937      4.6577   7.2536551526e+01   5.5228507304e+01    0.1848068    0.1742414   6.49 0.0003763344    1.197    0.165
        25  -7.7820    103.4859      4.9817   7.4300849094e+01   5.6783415052e+01     0.165344    0.0891811  19.15 0.0006242165    2.341    0.573
        26  -8.2543    125.0281      3.7910   6.9457966664e+01   5.2233896835e+01    0.1958773    0.1392921  43.96 0.0008067613    1.247    0.198
        27  -8.0116    153.8068      3.3848   6.4595706635e+01   4.5667971048e+01    0.1808031   0.09355426  57.54 0.0003776264    1.590    0.371
        28  -8.1215    182.2088      2.1670   6.0608128406e+01   3.9090245393e+01    0.1824668    0.1446396  66.07 0.0003915476    1.156    0.135
        29  -7.9281    143.1906      2.1389   6.5846648297e+01   4.8242209890e+01    0.1848523     0.143307  49.17 0.0003860749    1.187    0.158
        30  -7.7863      3.0380      1.1697   1.0878563943e+02   7.2186922057e+01    0.1215908   0.06322946  18.35 0.0003901323    1.817    0.450
        31  -8.4465    195.0002    229.1386   1.1094679642e+02  -3.2330721776e+00    0.2511963    0.1644543  -9.66  0.001060688    2.123    0.529
        32  -8.1265    249.8406    250.1427   1.0423756386e+02  -1.4753438560e+01     0.167467    0.1426747  13.05  0.001212362    1.222    0.182
        33  -9.0130    212.6663    250.3420   1.1105662565e+02  -9.3750357689e+00    0.3212713   0.09770701  35.28  0.001255218    3.040    0.671
        34 -10.2304    200.5741    249.1020   1.1315227440e+02  -7.2896131690e+00    0.4350389    0.2340958  25.87  0.001458255    1.911    0.477
        35  -8.1766    123.5165    250.4931   1.2839434914e+02   5.3431579446e+00    0.2650246    0.1086576  40.96  0.001110264    2.089    0.521
        36  -7.3763    175.3214    228.2630   1.1476258857e+02   3.6102711998e-01    0.1324793   0.09913456  13.14 0.0002229511    1.555    0.357
        37  -8.2028    186.5198    226.6218   1.1221528064e+02  -1.3328404681e+00    0.3058185    0.1844849  11.97 0.0008848202    2.596    0.615
        38  -8.3176    237.7525    227.6728   1.0250704158e+02  -9.9577925187e+00    0.2671927    0.1678668 -47.26  0.001137709    2.043    0.510
        39  -8.7746    248.0292    225.3495   1.0023036550e+02  -1.1151236660e+01    0.2739173    0.2164829  41.81  0.001746229    1.535    0.348
        40  -7.6239     70.3148    226.1831   1.3608833818e+02   1.8472212432e+01    0.1687206    0.1430117  60.49 0.0007012491    1.163    0.140
        41  -7.6713    223.6839    224.8326   1.0461657077e+02  -7.3307182129e+00    0.1997691    0.1432214 -10.73  0.001134651    1.455    0.313
        42  -7.3999    100.5073    229.4973   1.3038602135e+02   1.3154469792e+01    0.1332337    0.1123249  65.67 -0.0001182974    1.005    0.005
        43  -7.3056    206.4461    222.4824   1.0752122837e+02  -4.0934941758e+00    0.1345492    0.1153449  11.18 0.0003720322    1.070    0.066
        44  -8.0095    216.1163    220.7480   1.0532622724e+02  -5.4435769626e+00     0.244567    0.1556603 -10.77 0.0007121487    2.000    0.500
        45  -7.9116     51.4962    221.5383   1.3932725772e+02   2.2039397721e+01    0.1248523    0.0997396  78.27  2.82359e-05    1.026    0.025
        46  -8.3623    182.3334    219.8448   1.1190092103e+02   6.0340310273e-01    0.2660986    0.1801429  29.45 0.0008695335    1.451    0.311
        47  -7.4927     40.5570    220.4762   1.4134369870e+02   2.3647792257e+01    0.1217939    0.0958786  81.57  0.000192255    1.040    0.038
        48  -8.2128    240.2711    218.8883   1.0045058569e+02  -9.0348196996e+00    0.2116203    0.1665234  38.57  0.001305356    1.399    0.285
        49  -8.2782    227.1562    218.3477   1.0278232160e+02  -6.8777476956e+00    0.2248846    0.1602197 -19.13 0.0009224627    1.407    0.289
        50  -7.7160    130.4735    220.4860   1.2289926626e+02   9.8883166806e+00    0.1384282    0.1233329  56.57 0.0001850444    1.012    0.012
        51  -8.6924    193.4326    215.8428   1.0892832958e+02  -6.8090284601e-01    0.3959522    0.2373586  13.34  0.001677052    2.542    0.607
        52  -7.8056    203.9491    216.2806   1.0689718797e+02  -2.6202817305e+00    0.1942102    0.1573525  27.24  0.000474209    1.133    0.117
        53  -8.1712    162.1760    214.4394   1.1517616248e+02   5.3062461633e+00    0.2127613    0.1839748  79.71 0.0006251911    1.341    0.254
        54  -8.1954    122.1453    213.1912   1.2359186565e+02   1.2873217084e+01      0.20435    0.1859436  30.73 0.0006922138    1.242    0.195
        55  -8.8493    249.1462    211.7569   9.7526779284e+01  -9.3105270436e+00    0.3472986     0.162079  39.65  0.001680592    2.198    0.545
        56  -8.1354    232.5861    211.8715   1.0056173532e+02  -6.7310277292e+00    0.2405168    0.1626267  19.38 0.0007791646    1.509    0.337
        57  -8.0035    186.1524    210.4714   1.0944575729e+02   1.6116693598e+00    0.2704448    0.1759199 -25.66 0.0008619993    1.887    0.470
        58  -7.6508    169.6961    211.6792   1.1310457442e+02   4.4391336884e+00    0.1402209    0.1088831   1.89 0.0003047059    1.633    0.387
        59  -7.8125    162.7569    208.1709   1.1396551488e+02   6.4243723627e+00    0.1953613    0.1616238  15.27 0.0005173757    1.364    0.267
        60  -7.8088    147.7666    205.9594   1.1683143314e+02   9.6975285508e+00    0.1891131    0.1207394 -51.01 0.0008926415    1.680    0.405
        61  -9.2008    124.1210    205.9433   1.2203982699e+02   1.4066172525e+01    0.2333795    0.1914234  38.49            0    1.239    0.193
        62  -7.9510    226.5934    205.1915   1.0042082513e+02  -4.6503722923e+00    0.1980133    0.1165125 -26.28  0.000955595    1.811    0.448
        63  -7.8393    216.0446    205.4712   1.0250005981e+02  -2.8838522819e+00    0.1943887    0.1097158  18.31 0.0008089127    2.474    0.596
        64  -7.8677    117.8212    205.1799   1.2331625254e+02   1.5357619805e+01    0.1847683    0.1647398  26.16 0.0006094428    1.313    0.238
        65  -8.4480    237.0019    203.0446   9.8066478875e+01  -6.0282492966e+00    0.2840203    0.1797236 -33.19 0.0008963322    1.502    0.334
        66  -7.9990    196.5172    200.4588   1.0543998281e+02   1.5423571478e+00    0.2535664    0.1264344  31.25  0.001024669    2.255    0.557
        67  -8.1100    185.0082    199.9398   1.0772584631e+02   3.8078997824e+00    0.2313757    0.1704703   6.98  0.001121113    1.718    0.418
        68  -8.4381    244.0021    197.9671   9.5812438830e+01  -6.3411402823e+00    0.3746625    0.1414096 -29.56  0.001246264    3.253    0.693
        69  -8.2973    165.9710    197.3598   1.1131135234e+02   7.9809469579e+00     0.308698    0.2130123  22.39  0.001120617    1.754    0.430
        70  -8.0521    192.9198    193.8630   1.0490285414e+02   3.4648906654e+00    0.2837629    0.2051348 -12.52  0.001364707    1.739    0.425
        71  -7.0353    203.3433    194.3161   1.0285790314e+02   1.4081252746e+00    0.1477923    0.1072199   3.03 0.0007048335    1.713    0.416
        72  -7.2934      1.6771    194.3021   1.4670464919e+02   3.3388420680e+01    0.1206243   0.06575588  70.69 0.0007028728    1.633    0.388
        73  -7.6488    150.4425    193.4833   1.1402504319e+02   1.1807015746e+01    0.1466507    0.1379955  61.24 0.0001619734    1.028    0.028
        74  -7.0695    133.3235    192.3116   1.1768961225e+02   1.5347182842e+01    0.1434807    0.1184954  -5.11 0.0007039179    1.655    0.396
        75  -7.8154     99.5389    198.9590   1.2645986914e+02   1.9896078098e+01    0.2074915    0.1330578 -64.43  0.001019586    1.562    0.360
        76  -8.3777    250.3687    199.3027   9.4939622663e+01  -7.5671287749e+00    0.2693403    0.1455263 -40.41  0.001355577    1.794    0.442
        77  -7.5394    186.3494    189.2887   1.0537698036e+02   5.6258821218e+00    0.1492476    0.1126007   6.29 0.0005275608    1.663    0.399
        78  -7.4010    161.6962    189.6831   1.1080104538e+02   1.0407235508e+01    0.1471651    0.1175027  -1.96 0.0004177229    1.624    0.384
        79  -8.2229     64.8103    189.5276   1.3298529813e+02   2.7410874654e+01    0.2267774    0.1339616  32.03 0.0009712365    2.004    0.501
        80  -7.6041     44.9985    187.4765   1.3714645427e+02   3.0458805862e+01    0.1568858     0.114877 -11.80 0.0006150042    2.544    0.607
        81  -7.4429    149.3040    185.6795   1.1282332904e+02   1.3715315066e+01    0.1519634    0.1161658  80.08 0.0002950695    1.632    0.387
        82  -7.5557    217.3163    184.3318   9.8085158204e+01   6.4727775858e-01    0.1463888    0.1062062  -1.47 0.0003515093    1.686    0.407
        83  -7.4249    139.6868    184.6801   1.1484153334e+02   1.5821859270e+01    0.1473223     0.120451  -6.69 0.0005453906    1.651    0.394
        84  -7.8821    130.0641    183.4577   1.1685309002e+02   1.7951683591e+01    0.2262339    0.1430303  40.29  0.001015518    1.566    0.361
        85  -7.7562    165.8006    182.3838   1.0846284350e+02   1.1130899682e+01    0.2166432    0.1384212  32.73 0.0007345926    1.685    0.407
        86  -7.9735    156.6147    181.2017   1.1029295556e+02   1.3234116697e+01    0.2139545    0.1405295 -38.25 0.0008923773    1.692    0.409
        87  -7.6815     96.5431    178.4614   1.2394500019e+02   2.5159105706e+01    0.1438823    0.1324229  88.90 3.819763e-05    1.031    0.030
        88  -7.4386    138.3044    175.3116   1.1337387898e+02   1.8204461867e+01    0.1485201    0.1223774  -8.21 0.0003696862    1.614    0.380
        89  -8.2040    149.2855    174.2385   1.1058868272e+02   1.6248081339e+01    0.3418414    0.1831109  27.11  0.001212284    2.749    0.636
        90  -8.0040    183.3896    171.7866   1.0242719817e+02   9.7701917638e+00    0.2156275    0.1397236 -33.15 0.0009426161    1.699    0.411
        91  -8.5760    176.7347    168.1285   1.0309835650e+02   1.1916283477e+01    0.5289674    0.2969575 -15.83  0.001465168    5.065    0.803
        92  -7.5072    168.6631    163.6885   1.0394114452e+02   1.4563861332e+01    0.1570721    0.1235194   1.17 0.0007045107    1.686    0.407
        93  -7.7263    123.1117    162.8246   1.1456928692e+02   2.4078106449e+01    0.2050737    0.1869198  -6.04  0.001063459    1.323    0.244
        94  -7.3425    160.4707    159.5468   1.0491063829e+02   1.7207715066e+01    0.1527865    0.1512087  18.13 0.0004340459    1.045    0.043
        95  -7.4957    139.4937    158.5002   1.0965553839e+02   2.1828594052e+01    0.1542456    0.1499076  85.49  0.000810654    1.007    0.007
        96  -7.4542     21.3308    156.6843   1.3901646719e+02   4.0170752744e+01    0.1292714   0.08070016  73.39 0.0007046107    1.682    0.405
        97  -7.8726    133.2330    147.9682   1.0890629168e+02   2.5561145137e+01    0.2531858    0.1762671 -25.40  0.001055841    1.958    0.489
        98  -9.7302    222.2962    145.5289   8.8869799825e+01   7.0165821050e+00    0.2642503    0.2425549 -33.17 0.0002385183    1.029    0.028
        99  -9.4080     67.1737    144.6437   1.2556098763e+02   3.7870484099e+01    0.5211856     0.311814  63.14  0.002339834    2.152    0.535
       100  -7.7287    250.3187    138.6625   8.2573297929e+01   2.8224426176e+00    0.1399477    0.1025623 -67.05 0.0007049296    1.706    0.414
       101  -8.2284    139.3586    138.3545   1.0518311581e+02   2.6512865718e+01     0.241028    0.1938186  -5.77 0.0007528504    1.663    0.399
       102  -7.8593      4.8520    134.3667   1.4043260965e+02   4.6645268119e+01    0.1456684     0.110347 -13.85  0.000950338    1.822    0.451
       103  -7.9496     68.6438    133.6793   1.2310410844e+02   4.0319186921e+01    0.1458884    0.1039276 -29.03 0.0007045676    1.759    0.432
       104  -7.7214     22.2967    131.3379   1.3548296573e+02   4.6022114724e+01    0.1301842   0.07804432 -45.92 0.0007031464    1.655    0.396
       105  -7.8714     41.7444    129.1997   1.2981098185e+02   4.4682813702e+01    0.1779116     0.108034  10.77 0.0008112035    2.402    0.584
       106  -7.4469    143.7954    126.4056   1.0120378988e+02   2.8267340781e+01    0.2245605    0.1499127  34.15 0.0009434792    1.690    0.408
       107  -7.7818     84.8227    121.4376   1.1590819207e+02   4.0811855198e+01    0.1995409    0.1426164  16.96 0.0009421674    1.792    0.442
       108  -9.5047     13.8016    119.7339   1.3611076999e+02   4.9364565209e+01    0.4335553    0.1865183 -30.64  0.001780608    3.832    0.739
       109  -7.9174    119.5127    118.9961   1.0562196826e+02   3.5066176350e+01    0.3480187    0.1829513  17.89 0.0008105189    6.726    0.851
       110  -7.7484    100.8747    118.6762   1.1067817283e+02   3.8711984899e+01    0.2964059    0.1412217  31.68  0.001088447    2.583    0.613
       111  -7.8604     59.7518    114.2180   1.2167724558e+02   4.6110695049e+01    0.1984671    0.1147614  15.91 0.0008807064    2.425    0.588
       112  -9.1549      2.7051    109.4761   1.3774075971e+02   5.2396999517e+01    0.3618539     0.191954 -30.30  0.001988479    2.299    0.565
       113  -8.3782    133.9757    107.5482   9.8846732798e+01   3.4551926187e+01    0.4743715    0.1864772 -35.68  0.001454271    3.292    0.696
       114  -9.6013     13.8062    106.0665   1.3396366114e+02   5.2450287255e+01     0.346651    0.1470612 -42.18  0.001199756    2.293    0.564
       115  -8.8324     17.6114    103.1814   1.3231807047e+02   5.2822567057e+01    0.1772356    0.1556811 -47.03 0.0005529526    1.129    0.114
       116  -7.8673    109.4783    106.0501   1.0504105254e+02   3.9939968926e+01    0.2139817    0.1267595 -25.71 0.0008080809    2.431    0.589
       117  -7.7310    196.1393    104.1806   8.4096519642e+01   2.0826895135e+01    0.2099563    0.1717092 -71.73 0.0003803747    1.302    0.232
       118  -7.9796     66.5366    104.5342   1.1740389408e+02   4.7425648106e+01    0.1388071    0.1242205 -44.22 0.0001916672    1.006    0.006
       119  -7.6955     93.9926    103.5277   1.0883370039e+02   4.3355078728e+01    0.2154908    0.1454196  36.71   0.00102036    1.562    0.360
       120  -7.8884    129.5289     97.4524   9.7261124587e+01   3.7637771227e+01    0.2714795    0.1415273  36.00 0.0007617127    2.225    0.550
       121  -9.9386     11.2828     95.7721   1.3295414238e+02   5.4887327212e+01    0.3246321     0.171502   5.12  0.001750062    2.581    0.613
       122  -8.9002     44.4813     92.0161   1.2144525255e+02   5.2881125609e+01    0.3751279    0.2259943 -11.01  0.001805012    2.368    0.578
       123  -7.5176    110.4519     91.0256   1.0063888026e+02   4.2924793632e+01    0.2100269    0.1263392 -21.32 0.0008071969    2.454    0.593
       124  -8.1565     96.8492     89.9980   1.0429326592e+02   4.5725579659e+01    0.3515731    0.2008937  21.48  0.001387728    2.556    0.609
       125  -8.4340     67.3494     86.0484   1.1240252321e+02   5.1315415624e+01    0.3401038     0.181014  14.13  0.001355432    3.027    0.670
       126  -9.2986     35.5341     82.2591   1.2209500832e+02   5.5857158553e+01    0.5838216    0.2460381 -32.22  0.002396068    3.027    0.670
       127  -7.6229    126.7774     83.4005   9.3993691158e+01   4.1020716780e+01    0.2135614    0.1361296  36.16 0.0009290071    1.680    0.405
       128  -7.8099     21.9619     83.7464   1.2707070959e+02   5.6711578360e+01    0.1331735    0.1031246   8.29  0.000368459    1.497    0.332
       129  -8.4228    180.5810     81.9609   8.1426494854e+01   2.8672810660e+01    0.2529503    0.1987671  41.31 0.0004096247    1.397    0.284
       130  -8.2569    184.5971     78.6425   7.9802351228e+01   2.8285059160e+01    0.4045919    0.1921102 -60.12  0.001326249    3.327    0.699
       131  -9.8952      7.8148     77.6840   1.3060276322e+02   5.8931962157e+01    0.5018899    0.1837628 -38.18  0.002374973    2.570    0.611
       132  -8.4956     89.4023     78.6183   1.0323571033e+02   4.9323777013e+01    0.3579895    0.2382279  15.38   0.00167842    1.911    0.477
       133  -8.8117     48.7208     76.8405   1.1613678154e+02   5.5582177388e+01    0.3295199    0.2205108 -21.96  0.001471629    1.587    0.370
       134  -9.9762     24.1536     73.2589   1.2386284804e+02   5.8699586259e+01    0.7700438    0.3010081 -30.08  0.003108155    3.485    0.713
       135  -8.4026     23.4604     69.4821   1.2316609704e+02   5.9509142916e+01    0.2037683    0.1689291 -27.16 0.0005303312    1.105    0.095
       136  -7.7038     74.9815     74.5113   1.0658665607e+02   5.2493388746e+01    0.1789316    0.1134733   5.48 0.0003700242    2.229    0.551
       137  -9.5260    236.3588     71.4296   6.9962736796e+01   1.7408407293e+01    0.2405247    0.2250027 -81.10 0.0003498064    1.141    0.123
       138  -9.1780     62.0000     66.9815   1.0865529430e+02   5.5816848921e+01    0.7461487    0.1281509 -43.02  0.002096884    5.323    0.812
       139  -9.4941     65.3703     61.2619   1.0569008232e+02   5.6381135851e+01    0.4287579    0.2620308 -21.42  0.002159099    1.827    0.453
       140  -8.6291     43.5201     68.0269   1.1549661379e+02   5.7900224453e+01    0.2930167    0.1803435  -7.98  0.001526131    2.025    0.506
       141  -8.1802     80.4833     68.0400   1.0280614620e+02   5.2824079051e+01    0.2237624    0.1794654  12.60 0.0003664442    1.268    0.212
       142  -8.6725     83.7282     64.2458   1.0055924754e+02   5.2958305306e+01    0.3456173    0.2260788  15.35  0.001686617    1.860    0.462
       143  -9.7428     17.6468     62.1042   1.2340935854e+02   6.1390674079e+01    0.4067269    0.1895572 -42.01  0.001362849    1.698    0.411
       144  -7.1504    121.3323     62.3395   8.9068997753e+01   4.5939163553e+01     0.150814    0.1086645  14.67 0.0001945978    1.746    0.427
       145  -8.6896     51.8378     60.9390   1.1036448280e+02   5.8256673455e+01    0.3011924     0.251864 -34.09  0.001638983    1.125    0.111
       146 -10.8555     38.4147     57.5422   1.1425744844e+02   6.0406643604e+01    0.4689284    0.2665938  -5.70 0.0005385769    2.312    0.567
       147  -9.4132      2.6582     55.5606   1.2745327538e+02   6.3582136166e+01    0.4573067    0.1705301 -42.82  0.002441576    1.978    0.495
       148  -7.7130    111.2102     58.5756   9.0574707247e+01   4.8696045383e+01    0.2009509    0.1233093  36.83 0.0007791418    1.634    0.388
       149  -7.9271     99.2477     54.5721   9.2646752941e+01   5.1733209786e+01    0.1932174    0.1209985  34.88 0.0005440538    1.578    0.366
       150  -8.0372    118.4449     51.1147   8.6262170834e+01   4.8312945610e+01    0.2245406    0.1850702  78.09  0.001216975    1.507    0.336
       151  -8.9227     75.1484     50.3353   9.8724013060e+01   5.6712808848e+01    0.2707784    0.1851128   3.92  0.000384636    1.671    0.402
       152 -10.3246     45.2648     49.0722   1.0894272127e+02   6.1126224787e+01    0.2748931    0.2025958   1.70 0.0006467669    1.311    0.237
       153 -10.1040      9.7564     47.6972   1.2253733162e+02   6.4605070236e+01    0.5412853    0.2596864 -22.28  0.001961442    2.229    0.551
       154  -9.0575      2.1072     45.5807   1.2505346087e+02   6.5443199745e+01    0.2478869    0.1825664 -30.47  0.001179006    1.085    0.078
       155  -8.7206      3.5973     39.8096   1.2277833800e+02   6.6372062876e+01    0.2551467    0.1126411 -53.46  0.001452403    1.929    0.482
       156  -9.6549     38.4503     41.9621   1.0913959166e+02   6.3075557120e+01    0.5317846    0.2348086  16.08  0.002373888    3.141    0.682
       157  -8.9366     31.0467     44.5053   1.1294424551e+02   6.3428804300e+01    0.3516715    0.1834554   0.73  0.001753399    2.594    0.614
       158  -7.8429    106.8977     48.1246   8.8341904328e+01   5.1182504601e+01    0.1907431    0.1823633  63.62  0.000444645    1.207    0.172
       159  -8.1488     91.3127     47.6208   9.2657976662e+01   5.4305101726e+01    0.2375755    0.1180704 -33.63  0.001087729    2.051    0.512
       160  -8.4184     93.7347     42.4588   9.0152475211e+01   5.4594742327e+01    0.4212432    0.1333997  41.26  0.001542311    3.078    0.675
       161  -8.0770    122.6823     40.8897   8.1919649807e+01   4.8818450344e+01    0.2167771    0.1648863  10.85 0.0008580011    1.527    0.345
       162  -9.9460     83.5025     39.9288   9.2366784063e+01   5.6835773917e+01    0.3097472    0.2076575  26.40  0.001710536    1.453    0.312
       163  -9.9065     17.3311     38.7097   1.1664046411e+02   6.5611459709e+01    0.4711017    0.1655321 -30.28  0.002038803    3.255    0.693
       164  -8.7685    106.3433     36.8359   8.4687837178e+01   5.2844359705e+01    0.3572738    0.1940464  26.86  0.001574295    2.326    0.570
       165  -9.5203     54.7642     36.7273   1.0100633228e+02   6.1850359539e+01    0.2890345    0.2272227  16.11 0.0007622116    1.170    0.145
       166  -8.3942     92.3912     36.8363   8.8574675642e+01   5.5615369333e+01     0.256345    0.1600154  31.19  0.000675136    1.562    0.360
       167  -9.5454     96.0181     33.3187   8.6287661114e+01   5.5367292275e+01    0.2859138    0.2143145   8.58 0.0003038618    1.391    0.281
       168  -9.3157     38.0918     35.3787   1.0692935852e+02   6.4146907095e+01    0.2897321    0.1853856   3.33  0.001035095    1.586    0.369
       169  -9.4947     24.1993     47.3224   1.1659785037e+02   6.3578395199e+01    0.4272943    0.2185264   3.60  0.001584806    2.480    0.597
       170  -8.2869     70.4997     35.8974   9.5129742387e+01   5.9605645883e+01    0.2940209    0.1232246  29.66  0.001224228    2.837    0.648
       171  -8.2950     76.7735     34.3276   9.2475904857e+01   5.8773580729e+01       0.2618    0.1639112 -17.34  0.001422099    1.682    0.405
       172  -7.1847    143.7324     34.2695   7.5269740693e+01   4.4839390275e+01    0.1271917    0.1017919 -79.07 0.0006857853    1.470    0.320
       173  -9.0681      7.5722     33.8334   1.1920876409e+02   6.7129582016e+01    0.3429717    0.1561094   7.17  0.001588526    2.556    0.609
       174  -7.9529    105.0393     31.8755   8.3329923337e+01   5.3733058566e+01    0.2067387       0.1649   9.55 0.0007959263    1.288    0.224
       175  -8.2462     81.9390     32.2578   9.0075476102e+01   5.8139659734e+01    0.2463132    0.1561517  18.50 0.0008503069    1.708    0.414
       176  -9.1774    127.8467     30.2222   7.7317121886e+01   4.8991487395e+01    0.2260702    0.1908284  33.08 0.0002183726    1.151    0.132
       177  -9.1170      1.5531     29.7667   1.2052835256e+02   6.8173318694e+01     0.270352    0.1053533 -49.63   0.00142691    2.066    0.516
       178  -8.5318    112.7570     29.8373   8.0679205693e+01   5.2356520191e+01    0.3077376    0.1496302  41.25  0.001362845    1.936    0.483
       179  -7.9680     89.1733     30.6449   8.7299685451e+01   5.7013856879e+01    0.1934547    0.1003791  38.47 0.0009484587    1.772    0.436
       180  -9.5437     71.5686     26.3033   9.1160595910e+01   6.0677451003e+01    0.3580374     0.221889  31.65  0.001674586    1.464    0.317
       181  -7.5399    123.9716     26.9413   7.7114119162e+01   5.0237210911e+01    0.1535601     0.142609  29.06 0.0005898235    1.082    0.076
       182  -8.8375     61.8803     26.9131   9.4701040496e+01   6.2154583862e+01    0.3298562    0.1433628  34.65  0.001224592    2.198    0.545
       183  -8.8843     57.3879     25.1795   9.5629344054e+01   6.3050968371e+01    0.2633635    0.1847523  33.21  0.000850589    1.372    0.271
       184  -8.9725     48.1276     25.9474   9.9389094563e+01   6.4253506282e+01      0.37708    0.1467989  29.03  0.001736504    2.752    0.637
       185  -7.5194    102.2881     25.3222   8.1766448836e+01   5.5061245465e+01    0.1326916   0.08787028  22.93 0.0006928492    1.603    0.376
       186  -8.8820    229.1297     23.0496   6.0336096124e+01   2.5947131329e+01     0.290046    0.1972626 -42.37  0.001123412    1.501    0.334
       187  -8.1779     80.4911     23.5062   8.7259593057e+01   5.9459674413e+01    0.2216184    0.1547642  -2.15 0.0008379366    1.477    0.323
       188  -8.9638     84.8327     21.8265   8.5325108795e+01   5.8855200254e+01    0.2580719    0.1898062  41.03 0.0004481938    1.228    0.185
       189  -8.1501     27.3191     22.2829   1.0640335980e+02   6.7215030964e+01    0.3171069    0.1300702 -22.34  0.001417261    3.203    0.688
       190  -7.6094    130.9186     21.7409   7.3986823865e+01   4.9235482914e+01    0.1681264   0.09910264  56.01 0.0003514021    1.457    0.314
       191  -8.5946     92.0931     20.4821   8.2759190491e+01   5.7621315236e+01    0.2657767    0.2042138 -17.69  0.001387081    1.366    0.268
       192  -7.5623     48.9877    249.7628   1.4221428022e+02   1.6635502085e+01    0.1450636   0.08241571  46.09  0.000287845    1.571    0.364
       193  -6.9973    117.0038     20.2359   7.6464480601e+01   5.2495693785e+01    0.1607404   0.09602544  55.26 0.0003466879    1.468    0.319
       194  -7.6106     45.7383     20.3822   9.8083361342e+01   6.5289257631e+01     0.152756   0.09253744  22.32 0.0003451058    1.524    0.344
       195  -7.8196    112.3024     19.3218   7.7229911891e+01   5.3605258096e+01    0.1342308   0.08572273  29.09 0.0007028228    1.631    0.387
       196  -7.4853     32.3295    247.2903   1.4491049784e+02   1.9192463332e+01   0.09427878   0.08573791 -67.23 0.0007017824    1.623    0.384
       197  -8.0893    127.6762     16.9553   7.3128429757e+01   5.0457755239e+01    0.1690544    0.1550571  45.62  0.000297147    1.068    0.064
       198  -7.6614     18.3393    247.7027   1.4727551861e+02   2.0726584778e+01    0.1194459   0.05839066  66.88 0.0003368071    1.660    0.397
       199  -9.4524    210.3633    245.9199   1.1077220842e+02  -8.3800169828e+00    0.2063642    0.1555222  38.78 0.0005713619    1.278    0.217
       200 -10.0697    192.6860    243.7964   1.1382829561e+02  -5.1988723844e+00    0.2905371    0.2227529  15.39 0.0009960602    1.295    0.228
       201  -8.8222     50.7151     15.1385   9.4022733462e+01   6.5229832005e+01    0.2617544    0.1446756  25.36 0.0009374084    1.684    0.406
       202  -9.5423    156.9070    245.1606   1.2109542913e+02   6.3885985751e-01    0.2495087     0.167309  26.06  0.001338632    1.620    0.383
       203  -8.1420    243.3806    243.9259   1.0433223258e+02  -1.3053488511e+01    0.2330212    0.1505864  22.47  0.001414011    1.365    0.267
       204  -9.0153    224.8965    243.6168   1.0765741192e+02  -1.0300338130e+01    0.2064126    0.1709241 -28.23 0.0004377118    1.329    0.248
       205  -8.4869     88.9711     13.0432   8.0860786457e+01   5.8978166117e+01    0.2941959     0.117661  35.77    0.0012636    2.542    0.607
       206  -9.2709    176.6240    243.3551   1.1691221837e+02  -2.4300343786e+00    0.2586648    0.1755574   7.51  0.001195706    2.028    0.507
       207  -9.0262    218.7260    245.7141   1.0916041947e+02  -9.6540435322e+00    0.3111932    0.1600974 -30.12  0.001595587    2.164    0.538
       208  -7.9969    233.7887    243.3945   1.0597941912e+02  -1.1598163647e+01    0.1747699   0.09710341  25.25 0.0003754964    1.692    0.409
       209  -7.8135     95.5476    243.5052   1.3301186227e+02   1.1162965374e+01    0.1279358    0.1043849  64.34 0.0002445997    1.007    0.007
       210  -8.8145    150.4844    249.8146   1.2302334975e+02   9.3935063986e-01    0.2550645    0.1530445  28.15  0.000974029    1.855    0.461
       211  -9.8567    248.8154    235.9097   1.0197242969e+02  -1.2741912079e+01    0.4949117    0.2343238 -38.95   0.00205883    2.212    0.548
       212  -7.8225     25.6922    241.0377   1.4561766158e+02   2.1192714535e+01    0.1601858    0.1158917  80.71  0.000749293    1.054    0.052
       213  -8.8547    170.5716    239.5435   1.1752672504e+02  -7.5759040116e-01    0.2783422    0.1970918  -1.34  0.001181287    2.027    0.507
       214  -7.7005     74.2168    247.6155   1.3747884132e+02   1.3583554854e+01     0.163246    0.1066476  36.77 0.0009477945    1.696    0.410
       215  -7.9135    121.7900    239.3981   1.2733345104e+02   7.6800522163e+00    0.1794214    0.1139861  35.67 0.0006573066    1.575    0.365
       216  -8.4916    242.5142    236.9216   1.0327811649e+02  -1.1979460362e+01    0.2919621      0.17365 -16.65  0.001616437    1.792    0.442
       217  -7.8919    224.3906    238.1589   1.0682374869e+02  -9.4419086574e+00    0.1551536    0.1156365 -43.91 0.0006022577    1.645    0.392
       218  -7.9911     79.9563    238.4753   1.3548696080e+02   1.4537034814e+01    0.1891285    0.1097234  42.96  0.001027598    1.589    0.371
       219  -7.6980    148.5297    237.5444   1.2167132917e+02   3.4287357031e+00    0.1331492    0.1156884  41.96 0.0001538308    1.046    0.044
       220  -7.3615    112.3263    237.3449   1.2897209981e+02   9.6545200832e+00      0.12176    0.1044233  -3.12 0.0007050518    1.744    0.427
       221  -7.7616    231.9367    236.1761   1.0507851010e+02  -1.0309298520e+01    0.1761955    0.1549296  30.28 0.0004550561    1.282    0.220
       222  -8.1428    195.5244    235.9632   1.1199430110e+02  -4.4353613505e+00    0.2527723    0.1615034  23.85 0.0009283129    1.592    0.372
       223  -9.6456    188.4779    234.2842   1.1310864319e+02  -2.9644557423e+00    0.3120681    0.2728795  73.99  0.001303303    1.497    0.332
       224  -7.7944    137.9823    235.1556   1.2347445964e+02   5.7072075548e+00    0.2132838    0.1444715  21.18  0.001060379    1.966    0.491
       225  -8.2467    162.0703    234.1632   1.1840885129e+02   1.6607716008e+00    0.2043484    0.1693658  21.71 0.0005875743    1.257    0.205
       226  -7.5067    204.6770    230.7131   1.0931115271e+02  -5.1318538518e+00    0.1324584   0.09302484   8.46 0.0003099965    1.602    0.376
