#   1 NUMBER                 Running object number                                     
#   2 MAG_AUTO               Kron-like elliptical aperture magnitude                    [mag]
#   3 X_IMAGE                Object position along x                                    [pixel]
#   4 Y_IMAGE                Object position along y                                    [pixel]
#   5 X_WORLD                Barycenter position along world x axis                     [deg]
#   6 Y_WORLD                Barycenter position along world y axis                     [deg]
#   7 A_WORLD                Profile RMS along major axis (world units)                 [deg]
#   8 B_WORLD                Profile RMS along minor axis (world units)                 [deg]
#   9 THETA_WORLD            Position angle (CCW/world-x)                               [deg]
#  10 FWHM_WORLD             FWHM assuming a gaussian core                              [deg]
#  11 ELONGATION             A_IMAGE/B_IMAGE                                           
#  12 ELLIPTICITY            1 - B_IMAGE/A_IMAGE                                       
         1 -15.9670     11.8388     34.0581   9.4032324027e+01   3.9274929160e+01  0.004094231  0.003029414 -56.32  0.005653498    1.291    0.226
         2 -14.5201    165.2827     48.1391   9.4166726351e+01   3.9283945042e+01   0.00496727  0.001969461 -46.30  0.006688515    2.368    0.578
         3 -14.5412    178.9651     32.6901   9.4179206725e+01   3.9273231051e+01  0.002582474  0.002194247 -67.29   0.00373732    1.134    0.118
         4 -13.6064    183.1364     26.0407   9.4183068189e+01   3.9268627995e+01  0.001452896  0.001316626 -21.36  0.001383948    1.093    0.085
         5 -13.1515    200.4168     19.6521   9.4198437628e+01   3.9264136762e+01  0.001471593 0.0005902863 -59.29  0.002296065    2.332    0.571
         6 -13.0145    189.5593     14.7565   9.4189043715e+01   3.9260819672e+01 0.0008374736 0.0007772981  54.40 0.0008152178    1.119    0.106
         7 -13.8684    198.5873      3.4485   9.4197306801e+01   3.9252980992e+01   0.00213543  0.001531434 -13.93  0.003123868    1.388    0.280
         8 -10.5889     20.7447    228.5276   9.4034118223e+01   3.9408886674e+01 0.0004866035 0.0003418669  -6.43 0.0008769897    1.432    0.302
         9 -16.6907    124.5640    242.0794   9.4125103321e+01   3.9417775580e+01   0.00437451   0.00303235  35.31  0.008835956    1.508    0.337
        10 -11.9126     81.6940    188.1085   9.4089007044e+01   3.9380781788e+01  0.001304088 0.0009593062  30.23  0.002185432    1.417    0.295
        11 -10.5407    180.0547    193.0233   9.4175414893e+01   3.9383704199e+01 0.0006142613 0.0003681213  45.74  0.001133866    1.750    0.428
        12 -12.0292    207.8078    183.8157   9.4200108431e+01   3.9377217035e+01  0.001009316 0.0007598203  58.20  0.001046187    1.377    0.274
        13 -11.7234    211.1014    179.9453   9.4203120315e+01   3.9374532855e+01  0.001257707  0.000683573 -69.16  0.002263103    1.759    0.431
        14 -11.1911     25.6908    184.9599   9.4039823682e+01   3.9378847975e+01 0.0005077532 0.0004279335 -34.09  0.001120029    1.151    0.131
        15 -10.1426     88.1404    182.7175   9.4094843928e+01   3.9377038742e+01 0.0005919049 0.0004394047  81.75 0.0009805197    1.355    0.262
        16 -10.4710     99.1407    180.9287   9.4104577574e+01   3.9375756966e+01 0.0005503013 0.0004663425 -45.38 0.0008169145    1.133    0.117
        17 -12.3186    197.8140    175.0287   9.4191574034e+01   3.9371214207e+01  0.001385264 0.0008089879  82.63   0.00197119    1.722    0.419
        18 -10.8807    125.6336    172.4131   9.4128145320e+01   3.9369767546e+01 0.0006412612 0.0005224381 -41.95 0.0007361152    1.181    0.153
        19 -11.6586    117.1294    172.7784   9.4120652046e+01   3.9370058848e+01 0.0008989867 0.0004184117  16.92 0.0009277926    2.225    0.551
        20 -10.7826    137.3377    170.9313   9.4138487325e+01   3.9368691198e+01 0.0005010313 0.0004546182 -73.55 0.0005818924    1.073    0.068
        21  -9.7666     23.3368    169.2194   9.4038240501e+01   3.9368011916e+01 0.0003645245 0.0002308311 -36.56 0.0002529083    1.522    0.343
        22 -11.2795    203.5286    167.1772   9.4196833230e+01   3.9365774446e+01  0.001031319 0.0007543169   4.70  0.001873826    1.396    0.284
        23 -10.3661    225.6354    166.3185   9.4216307203e+01   3.9365066076e+01 0.0003928283 0.0002320174  44.19 0.0007040082    1.776    0.437
        24 -10.2160    121.3964    164.8020   9.4124646868e+01   3.9364542956e+01 0.0005632098   0.00045402  23.76 0.0004325638    1.289    0.224
        25 -12.0289     97.7910    162.5156   9.4103949161e+01   3.9363075783e+01   0.00067242 0.0005924612 -74.22 0.0002681047    1.103    0.094
        26 -10.2902     23.2766    162.6463   9.4038391393e+01   3.9363483181e+01 0.0006739154 0.0004198314  -7.24  0.001281957    1.612    0.380
        27 -10.0402      6.6768    161.4748   9.4023824198e+01   3.9362741681e+01 0.0004613578 0.0003142461 -24.66 0.0009091048    1.439    0.305
        28 -13.9945    193.9644    194.7154   9.4187605369e+01   3.9384799354e+01   0.00377838  0.001316224  65.32  0.005302806    3.068    0.674
        29 -10.4858    174.8622    149.1493   9.4172148592e+01   3.9353498708e+01 0.0005511004 0.0004652039  47.21 0.0005813009    1.235    0.190
        30 -13.0657    133.8693    144.7038   9.4136223895e+01   3.9350635753e+01  0.002898468 0.0005902444  82.11  0.003069264    5.266    0.810
        31 -12.1853    144.8339    145.9621   9.4145830478e+01   3.9351450272e+01 0.0009911099 0.0006105911  41.11  0.001873683    1.701    0.412
        32 -13.2362      4.5372    131.3746   9.4022879852e+01   3.9342010497e+01  0.003965575  0.001410918  79.36  0.005681329    2.898    0.655
        33 -11.9505      7.7870    145.3071   9.4025304285e+01   3.9351597551e+01  0.001946089 0.0006307659 -21.48  0.002716235    3.005    0.667
        34 -12.4888     15.2200    136.5993   9.4032112850e+01   3.9345568407e+01 0.0007524412 0.0006564113 -43.25 0.0005412356    1.102    0.093
        35 -12.6995    105.6253    127.1432   9.4111912510e+01   3.9338667313e+01   0.00111919 0.0006654118 -55.02 0.0008526619    1.600    0.375
        36 -12.8035    135.4012    122.3201   9.4138243251e+01   3.9335205044e+01    0.0016577 0.0004965595  85.64  0.002179549    3.386    0.705
        37 -12.9937    106.0000    130.9899   9.4112125635e+01   3.9341316071e+01 0.0009335757 0.0008507022 -55.98  0.001279441    1.051    0.049
        38 -10.9661    160.2306    127.0913   9.4159935768e+01   3.9338372347e+01 0.0006887771 0.0004563538  64.54  0.001003587    1.558    0.358
        39 -12.0090    204.0364    199.0130   9.4196342255e+01   3.9387708549e+01 0.0007983531 0.0005510152  -2.05  0.001205005    1.466    0.318
        40 -11.5577      2.4986    112.6724   9.4021669805e+01   3.9329132348e+01   0.00135259 0.0005955255 -16.44  0.002186059    2.245    0.555
        41 -11.1255    125.7826    117.4000   9.4129932836e+01   3.9331860389e+01  0.000505058 0.0003071989 -20.61 0.0004640285    1.619    0.382
        42 -12.1851     10.7526    206.2245   9.4026016773e+01   3.9393558955e+01  0.001487006 0.0007117653  -0.05  0.002498242    2.118    0.528
        43 -10.9449    168.6563    113.4540   9.4167750914e+01   3.9328933731e+01 0.0008465538  0.000512804  52.15 0.0008966601    1.727    0.421
        44 -11.7109    142.8895    127.7315   9.4144666340e+01   3.9338897901e+01 0.0008561893 0.0005332348  38.23  0.001272334    1.682    0.405
        45 -10.3680    163.1197    110.3645   9.4162974540e+01   3.9326832398e+01 0.0009420749 0.0003550519  36.63  0.001373345    2.828    0.646
        46 -10.6414    164.9148    205.6424   9.4161715734e+01   3.9392474999e+01  0.001182028 0.0003246697  73.66  0.001448817    3.918    0.745
        47 -10.5592    205.6260    110.1307   9.4200356358e+01   3.9326454913e+01 0.0006728895 0.0004923673 -17.06  0.000693913    1.354    0.262
        48 -10.2147    130.2892    109.6717   9.4134127903e+01   3.9326513991e+01 0.0003737795 0.0002416437  48.78 0.0003829603    1.618    0.382
        49 -12.2853     82.8833    106.7406   9.4092533933e+01   3.9324711284e+01 0.0008365799 0.0005923944  29.39  0.001452736    1.472    0.321
        50 -10.5914    134.5227    102.9371   9.4138052476e+01   3.9321853439e+01 0.0005436941 0.0003388701 -85.71 0.0007430751    1.577    0.366
        51  -9.9272    211.0095    201.9828   9.4202391619e+01   3.9389718521e+01 0.0004188662   0.00040211 -49.13 0.0003508997    1.007    0.007
        52 -11.1990    240.1408    233.9971   9.4227095586e+01   3.9411622899e+01 0.0009260747 0.0006758798 -63.40  0.001170919    1.312    0.238
        53 -18.9783     70.7693    233.4645   9.4078004634e+01   3.9412080947e+01   0.02026485   0.01762517 -76.66   0.04085746    1.121    0.108
        54 -10.8266     83.8649     76.8262   9.4094307708e+01   3.9304094940e+01 0.0005370059 0.0004450096 -44.58 0.0003730439    1.159    0.137
        55 -11.1908     61.7714     71.3655   9.4075054638e+01   3.9300428685e+01 0.0005882634  0.000491584 -69.86 0.0004768521    1.155    0.134
        56 -19.1008     36.4265     99.5242   9.4051908932e+01   3.9319937254e+01   0.04508997  0.002986267 -87.48   0.02876469   14.366    0.930
        57 -14.2847      2.7686     45.3392   9.4024003670e+01   3.9282737713e+01  0.001914136  0.001003441 -82.11  0.003377681    1.859    0.462
        58 -13.1639    175.8308     57.8190   9.4175708661e+01   3.9290562138e+01  0.002943693  0.001292776  11.46  0.004733027    2.345    0.574
        59 -10.5316    168.4538    248.4559   9.4163555066e+01   3.9421958136e+01 0.0003434887 0.0003382808 -75.11 3.166513e-05    1.034    0.033
        60 -11.4525     81.0053    193.0407   9.4088250508e+01   3.9384183269e+01  0.001554973 0.0009137423  32.90  0.002637021    1.781    0.438
        61 -12.2281    210.3441    238.0037   9.4200746261e+01   3.9414542614e+01  0.001150257 0.0006174573 -36.88  0.002057207    1.789    0.441
        62 -11.0604    198.0802     56.1517   9.4195311107e+01   3.9289299402e+01 0.0008302307 0.0006409711 -53.09  0.001404447    1.239    0.193
        63 -11.1912    197.2845     52.7085   9.4194713132e+01   3.9286930924e+01  0.001060776 0.0005363809 -29.26  0.001838213    1.917    0.478
        64 -10.6290     21.1448     51.6961   9.4039954630e+01   3.9287044864e+01 0.0006290561 0.0004719062  73.19  0.001094979    1.359    0.264
        65 -14.6679      3.4530     57.0413   9.4024240998e+01   3.9290797967e+01  0.002418718  0.001890342 -12.05  0.003353748    1.278    0.218
        66 -13.3415    250.3720    231.5772   9.4236173019e+01   3.9409899481e+01  0.001434632 0.0005127972 -86.39   0.00208335    2.745    0.636
        67 -15.7268    249.5597    214.3874   9.4235957810e+01   3.9398058992e+01  0.006061521   0.00139259 -86.09  0.007110175    4.238    0.764
