#   1 NUMBER                 Running object number                                     
#   2 MAG_AUTO               Kron-like elliptical aperture magnitude                    [mag]
#   3 X_IMAGE                Object position along x                                    [pixel]
#   4 Y_IMAGE                Object position along y                                    [pixel]
#   5 X_WORLD                Barycenter position along world x axis                     [deg]
#   6 Y_WORLD                Barycenter position along world y axis                     [deg]
#   7 A_WORLD                Profile RMS along major axis (world units)                 [deg]
#   8 B_WORLD                Profile RMS along minor axis (world units)                 [deg]
#   9 THETA_WORLD            Position angle (CCW/world-x)                               [deg]
#  10 FWHM_WORLD             FWHM assuming a gaussian core                              [deg]
#  11 ELONGATION             A_IMAGE/B_IMAGE                                           
#  12 ELLIPTICITY            1 - B_IMAGE/A_IMAGE                                       
         1 -14.8049     11.1608     24.2512   4.5055087113e+01   7.4485370519e+01     3.093608     1.388117 -37.75   0.01386142    2.375    0.579
         2 -14.7479     26.7899     77.1635   5.2773661426e+01   6.0589166232e+01     2.097395     1.451873 -38.91   0.01033964    1.496    0.332
         3 -14.6492      6.0074     72.8759   6.3019568565e+01   6.3447369283e+01     2.456581    0.9652526 -71.34  0.009844848    2.316    0.568
         4 -13.6975    131.2995     13.2451   3.5449858031e+02   5.0260461581e+01     1.474906    0.7409097  70.09  0.007137444    1.786    0.440
         5 -16.0469     55.0678     42.1013   2.6372869066e+01   6.4250047011e+01     5.074424     2.041812  35.68    0.0180711    2.995    0.666
         6 -12.8609     66.8249     20.8480   1.1511097500e+01   6.5123440417e+01     1.116225    0.8201849  51.86  0.006172177    1.238    0.192
         7 -15.0192     89.6460      7.0056   3.5875676894e+02   6.1208705947e+01     3.038876    0.9416519  64.04    0.0117856    2.602    0.616
         8 -12.5641    133.9404     32.7356   5.1866770947e-01   4.7307159448e+01    0.8442628    0.5801851 -44.85  0.002952541    1.404    0.288
         9 -10.9057    241.8943     23.2077   3.4816559838e+02   2.5732276916e+01    0.3821446     0.135966 -54.45  0.002042647    2.132    0.531
        10 -11.0966    143.6278     25.1582   3.5673514418e+02   4.5919613732e+01    0.2854349    0.2140302 -61.62  0.001042662    1.202    0.168
        11 -11.1872     28.5782     21.3860   3.0542907398e+01   7.2674324138e+01     0.417838    0.2976252 -27.43  0.002344413    1.510    0.338
        12 -11.9202    174.6429     13.3644   3.5020827129e+02   4.0068833850e+01     0.306519    0.2178325 -80.96 0.0009529574    1.219    0.180
        13 -11.4071    186.1005      3.5829   3.4693617176e+02   3.8585854593e+01    0.3258102    0.2412047 -20.91  0.001863847    1.709    0.415
        14 -13.0117    185.3713     10.0549   3.4858278793e+02   3.8079577001e+01     0.756801    0.3922127 -62.88  0.003266034    1.646    0.392
        15 -11.4047    178.8027      8.3997   3.4861338217e+02   3.9675100217e+01    0.2572075    0.1840467  77.53  0.001495498    1.394    0.283
        16 -10.3898    202.0735     11.3706   3.4784626720e+02   3.4462020811e+01     0.175122    0.1456155 -45.86 0.0005250337    1.253    0.202
        17 -11.3171    155.6131     10.4288   3.5101148208e+02   4.4720211102e+01    0.3277497    0.1729799 -48.90 0.0009675063    1.656    0.396
        18 -12.6744    148.7041      6.7519   3.5056098648e+02   4.6717507423e+01    0.5431194    0.3321048 -72.12  0.001394296    1.474    0.322
        19 -10.4315    162.0707      9.3519   3.5014184839e+02   4.3333694215e+01    0.1792445    0.1360146 -76.10 0.0005539485    1.094    0.086
        20 -12.3710    137.7410      4.5099   3.5091933526e+02   4.9558700325e+01    0.4517678     0.303535 -75.94 0.0007431571    1.320    0.242
        21 -10.5208    131.4668      1.4970   3.5057181003e+02   5.1357140680e+01    0.2422414    0.1615996  86.38 0.0006021257    1.300    0.231
        22 -12.6434    165.0058      2.2888   3.4796281929e+02   4.3362347527e+01    0.7996725    0.2308785  80.03  0.003152824    3.270    0.694
        23 -10.5150    215.6485      2.4809   3.4516932845e+02   3.2713751154e+01    0.1913082    0.1336229 -60.23  0.000227737    1.040    0.039
        24 -13.8830    119.3114     10.2316   3.5504933141e+02   5.3525449843e+01     1.198034     0.582115  66.99  0.005692713    1.812    0.448
        25  -9.5925    124.0103    206.0014   4.3735424883e+01   1.4602657320e+01    0.1470599     0.134816   7.84 0.0009216415    1.030    0.029
        26 -10.2947    100.9899    176.0048   4.4966440576e+01   2.4315773862e+01     0.197312    0.1884388  31.06            0    1.004    0.004
        27 -10.5344    128.6852     82.2027   1.6763536349e+01   4.0386779370e+01    0.2483029    0.1979875  71.72 0.0006562467    1.304    0.233
        28 -11.7604    234.9283     75.7674   3.5920527602e+02   2.0238975944e+01    0.2439225    0.2173368 -62.56 0.0007911896    1.202    0.168
        29  -9.3723    122.3011     76.3108   1.6559129555e+01   4.2972746401e+01    0.1424457    0.1211228   8.80 0.0002978341    1.605    0.377
        30 -10.4870    250.2911     74.2166   3.5754063737e+02   1.8031641738e+01     0.182574    0.1174546 -36.17 0.0005089178    1.299    0.230
        31 -11.2661    104.3588     73.5865   2.0417252102e+01   4.7576886587e+01    0.4365463    0.2558811  49.05  0.001887877    1.701    0.412
        32  -9.8103     76.8190     71.1817   2.8552015359e+01   5.4021170000e+01    0.2042868    0.1798297  12.55 0.0004973155    1.336    0.252
        33 -11.7826     58.9160    144.5116   5.2524144613e+01   3.8410269862e+01    0.6274219    0.4554817  51.43  0.002393906    1.363    0.267
        34 -10.8167    132.1420     62.7127   1.0265970819e+01   4.3176943563e+01    0.3836478    0.2089529 -44.62  0.001691836    1.759    0.432
        35 -11.7712    214.7740     60.9100   3.5801322052e+02   2.5819911310e+01     0.361219    0.2747736 -82.33  0.001330107    1.357    0.263
        36  -9.9534    170.0444     61.5086   3.4241496495e+00   3.4749091591e+01    0.1943167    0.1298745  67.21  0.001024077    1.566    0.361
        37 -11.0169    125.0872     57.2364   1.0048563045e+01   4.5772554278e+01    0.3337621    0.2332304  61.72  0.001067952    1.402    0.287
        38  -9.3448    163.9862     55.9862   2.8270426742e+00   3.6934887328e+01    0.1616751    0.1383244 -63.96 0.0009539109    1.015    0.014
        39 -10.9344    152.2742     53.7860   3.9871262777e+00   3.9932771757e+01    0.3772322    0.3026479  -0.75  0.001991902    1.871    0.465
        40 -10.0222    232.5940     54.7870   3.5513949854e+02   2.3476800755e+01    0.1690278   0.07829494 -45.93 0.0004463045    1.597    0.374
        41 -12.5841     51.7607    142.8806   5.4689886869e+01   3.9799835781e+01     0.559168    0.4621531  81.23  0.002311564    1.214    0.176
        42 -10.6534    210.1042     54.1666   3.5697057012e+02   2.7627194749e+01    0.2288882    0.1662748  77.77 0.0006840642    1.509    0.337
        43 -10.1394    170.5318     52.7759   1.0675196657e+00   3.5961855849e+01    0.2119683    0.1835019 -44.55 0.0008991833    1.188    0.159
        44  -9.4595    133.9954     52.2512   6.6915553587e+00   4.4464015792e+01    0.1759427      0.11669  65.86 0.0002416339    1.478    0.323
        45  -9.9496    213.6854     50.1023   3.5573829449e+02   2.7499777633e+01     0.171003    0.1262357 -48.25 0.0004311336    1.096    0.088
        46 -10.8356    197.6165     40.5143   3.5499921082e+02   3.1911688228e+01    0.2194086    0.1870233  -4.31 0.0009269478    1.722    0.419
        47 -11.3642    196.4732     46.7620   3.5658821503e+02   3.1314024124e+01    0.3516898    0.3136043  30.86  0.002015857    1.620    0.383
        48 -10.9947    201.6528     42.8083   3.5516792945e+02   3.0799103376e+01    0.3049521     0.194013  77.40  0.001687402    1.663    0.399
        49 -12.2801    120.3439     43.5277   6.5501305095e+00   4.9099208221e+01    0.4169418    0.3050157  66.62  0.001712998    1.300    0.231
        50 -11.4192    115.0935     40.5012   6.6037968785e+00   5.0829443540e+01    0.4315943    0.2543517  52.22  0.002014997    1.713    0.416
        51 -11.3771    156.9802     42.8202   1.7183943035e-01   4.0455487159e+01    0.2954167    0.2374708 -86.08 0.0007574009    1.150    0.130
        52  -9.7448    247.4390     42.4558   3.5161301761e+02   2.2548592395e+01    0.1120571   0.08022489 -50.88 8.816795e-05    1.017    0.017
        53 -11.9797    173.2807     40.6959   3.5754385240e+02   3.7056745583e+01    0.4836782    0.3563867  61.96  0.002829452    1.501    0.334
        54 -11.8355    106.7447     39.4489   8.0839162751e+00   5.3021163037e+01    0.6120726     0.457471 -32.43  0.003206134    1.481    0.325
        55 -11.2146    228.9778     40.5301   3.5246552277e+02   2.5932907814e+01    0.2142911    0.1869977 -72.09 0.0006106663    1.236    0.191
        56 -13.3287    213.3432     39.2503   3.5336601737e+02   2.8976127790e+01    0.3013423    0.2395459 -77.67   0.00067826    1.197    0.165
        57 -11.6428    130.5070     36.9953   2.4672356618e+00   4.7567258842e+01    0.4966272    0.3086693 -52.46  0.001614455    1.565    0.361
        58 -12.8530      3.3114    139.3739   7.1371947105e+01   4.5464498475e+01    0.7538588      0.37491 -85.20  0.003053471    1.866    0.464
        59 -10.6088    124.0749     36.9123   3.5874247322e+00   4.9148501651e+01    0.2555519    0.1792632  63.08 0.0007971344    1.364    0.267
        60 -10.9800    160.0656     35.4334   3.5768249170e+02   4.0745901129e+01    0.2834804    0.1856036 -34.91 0.0005114859    1.548    0.354
        61 -11.6732    240.9725     34.6053   3.5047164942e+02   2.4569031166e+01     0.200665    0.1558179 -56.35 0.0003020571    1.097    0.088
        62 -11.7954    179.8408     23.1232   3.5230916713e+02   3.7825059507e+01     0.339554    0.2652441 -46.32  0.001404498    1.202    0.168
        63 -12.0542    176.6380     29.5034   3.5425428757e+02   3.7760248123e+01    0.5689587     0.397751 -85.95  0.003372779    1.333    0.250
        64 -12.0965    168.4941     27.5191   3.5454375376e+02   3.9822693707e+01    0.5212962    0.3094248  85.85  0.001872698    1.648    0.393
        65 -11.5927    151.6678     31.1125   3.5749345640e+02   4.3265248379e+01    0.3983807    0.2973681  83.77  0.001079796    1.247    0.198
        66 -11.6923    154.9924     25.2931   3.5538798600e+02   4.3204240461e+01    0.7072362    0.1741119  63.45  0.002174424    3.511    0.715
        67 -12.2097     90.3558     99.8172   3.2415691974e+01   4.4742841815e+01    0.7177531    0.4369918 -48.69  0.003067123    1.641    0.391
        68 -11.4546    106.7832     28.4973   3.9938017799e+00   5.4540540277e+01      0.44279    0.3858022 -52.26   0.00213352    1.177    0.150
        69  -9.8468    145.3389     31.2786   3.5838173315e+02   4.4746977977e+01    0.1288591    0.1002751  43.94  0.000270509    1.619    0.382
        70 -10.8481    175.0172     81.1031   7.6557262541e+00   3.0516567097e+01    0.3435233    0.1832933 -39.91 0.0008235706    1.696    0.410
        71 -11.7545    139.0655    126.8882   2.5715671069e+01   2.8940434021e+01    0.3255308    0.2147014 -67.48  0.001436568    1.919    0.479
        72 -13.3513     20.9955    123.7440   6.3350619273e+01   4.8462265795e+01    0.6869245    0.6025704  67.77  0.003807346    1.095    0.086
        73  -9.3697    169.2965     18.3134   3.5197561774e+02   4.0721412954e+01    0.1136194   0.09660178  42.88   0.00062177    1.601    0.375
        74 -10.5236    208.1719     17.0099   3.4876153073e+02   3.2629172873e+01    0.1928924    0.1448598 -74.13 0.0006320981    1.153    0.133
        75 -13.9324     13.5493    116.4642   6.5478836149e+01   5.1097213863e+01    0.9452826    0.5411083 -75.61  0.004312339    1.615    0.381
        76 -13.1760      4.6971    113.3129   6.8793854976e+01   5.2569309596e+01    0.7890438    0.5718404 -26.75  0.004082432    1.576    0.366
        77 -10.2999    122.1916    127.1751   2.9928626524e+01   3.2100672251e+01     0.214789    0.1810872  83.72 0.0009694237    1.362    0.266
        78 -12.4416    106.8051    103.5405   2.8366003269e+01   4.0565726076e+01    0.7590464    0.5739067  66.31   0.00357503    1.480    0.324
        79 -13.1210     97.0133    100.4700   3.0477373973e+01   4.3264418815e+01     1.470239    0.7508969 -41.44  0.005595832    2.180    0.541
        80 -13.0695     76.7587    106.6771   3.8790008144e+01   4.5604964289e+01     1.220387    0.7903128  24.75  0.003952631    1.833    0.454
        81 -11.0134    166.8148    106.3459   1.5148452301e+01   2.7670028185e+01    0.2762928    0.2367564  38.55  0.001576957    1.348    0.258
        82  -9.2746    167.9981     94.7725   1.2163634488e+01   2.9565380261e+01    0.1633472     0.116166  57.09 0.0003438455    1.538    0.350
        83 -10.1174    204.7910     93.4112   6.2760472617e+00   2.2759928972e+01    0.1726552    0.1289891  61.71 0.0007634916    1.581    0.367
        84 -11.4478    144.0225     91.5292   1.5933170216e+01   3.5197688232e+01    0.3445022    0.2512233  55.27  0.001201086    1.435    0.303
        85 -11.7149    245.4213    249.3557   2.7525133321e+01  -4.9775388323e+00    0.1777387    0.1032312  18.38   0.00137876    1.615    0.381
        86 -12.4546    193.6870    248.7071   3.5641373084e+01  -4.1274057123e-01    0.3343196    0.1731831  20.87  0.002118744    1.684    0.406
        87 -10.7359    200.7883    236.3895   3.2750875286e+01   5.4476403568e-01     0.152526   0.08533031  12.57 0.0005230155    1.673    0.402
