#   1 NUMBER                 Running object number                                     
#   2 MAG_AUTO               Kron-like elliptical aperture magnitude                    [mag]
#   3 X_IMAGE                Object position along x                                    [pixel]
#   4 Y_IMAGE                Object position along y                                    [pixel]
#   5 X_WORLD                Barycenter position along world x axis                     [deg]
#   6 Y_WORLD                Barycenter position along world y axis                     [deg]
#   7 A_WORLD                Profile RMS along major axis (world units)                 [deg]
#   8 B_WORLD                Profile RMS along minor axis (world units)                 [deg]
#   9 THETA_WORLD            Position angle (CCW/world-x)                               [deg]
#  10 FWHM_WORLD             FWHM assuming a gaussian core                              [deg]
#  11 ELONGATION             A_IMAGE/B_IMAGE                                           
#  12 ELLIPTICITY            1 - B_IMAGE/A_IMAGE                                       
         1 -13.0179    236.5684     29.7695   1.5336141409e+01   2.2278422980e+01    0.6080371    0.4178334 -27.59  0.003032676    1.613    0.380
         2 -13.2259    222.8721      4.2576   1.0579230465e+01   2.8577418116e+01     1.079289    0.5502757  63.84  0.005327812    1.845    0.458
         3 -12.2633    248.7115     24.3148   1.2899686393e+01   2.0173764083e+01    0.8619242    0.4039122 -56.64  0.003959583    2.072    0.517
         4 -13.2014    227.5367     14.9158   1.2696498217e+01   2.6260668498e+01    0.9140941    0.4307065 -30.70  0.004200099    2.187    0.543
         5 -14.3990    239.1778     17.0310   1.2107316275e+01   2.3257792141e+01     2.061856    0.6620668 -33.84  0.008272564    2.816    0.645
         6 -11.8906    248.1510     15.4136   1.0959136911e+01   2.1393410216e+01    0.6682724    0.3612579 -76.93   0.00329779    1.942    0.485
         7 -12.3247    249.9916      7.9939   9.1815872653e+00   2.1847743753e+01     1.044254    0.3325783 -39.21  0.004507218    2.545    0.607
         8 -11.7133    111.2084     19.2149   3.2453064165e+01   5.4625014665e+01     0.408709    0.2805921 -14.53   0.00123043    1.562    0.360
         9 -11.9803    192.1262     18.4001   1.7530935261e+01   3.4674053715e+01    0.5493954    0.2800317  51.69  0.002435332    1.983    0.496
        10 -12.3710    187.0065     13.7531   1.6890038095e+01   3.6505712285e+01    0.3027175    0.2638436 -71.82 0.0004018494    1.111    0.100
        11 -11.8366    182.7661     12.5929   1.7109504364e+01   3.7717259852e+01    0.3589683    0.2778867  74.74 0.0006509327    1.165    0.141
        12 -10.8790    123.4244     11.0741   2.6551834990e+01   5.2705653327e+01    0.4086529    0.2507705  52.74  0.002015733    1.434    0.303
        13 -10.2815    103.0345     13.1855   3.2163219545e+01   5.7083119119e+01    0.2141228    0.1768383   0.33 0.0006300137    1.203    0.169
        14 -10.3119     39.5030      9.4540   5.2310013804e+01   6.8552258263e+01    0.2050361     0.158754  -0.31 0.0007147843    1.079    0.073
        15 -11.5480     43.6178     12.1499   5.1799374479e+01   6.7658568820e+01    0.2271389    0.1853003   7.05 0.0003729182    1.129    0.114
        16 -10.7297     45.9525      9.2515   4.9457915989e+01   6.7728222868e+01    0.1907238    0.1473781  -5.97 0.0002775864    1.048    0.046
        17  -9.8912    176.3272     12.1096   1.7831218276e+01   3.9419421660e+01    0.1841562    0.1709251 -72.41 0.0003997552    1.095    0.087
        18 -10.5484    157.8468     11.1502   2.0256530004e+01   4.4239727419e+01    0.2991239    0.1959831 -53.51  0.001193065    1.732    0.423
        19 -10.7939    149.4518     11.9943   2.1908327237e+01   4.6272102612e+01    0.2604499    0.1850879  62.46 0.0003589739    1.260    0.207
        20 -10.6981    153.1027      9.5136   2.0490324958e+01   4.5603092926e+01    0.2563166    0.2212136  75.94 0.0006479325    1.097    0.089
        21 -10.5693    150.2639      6.0070   1.9807168551e+01   4.6653895800e+01    0.2921809    0.2425623  40.92 0.0005733174    1.202    0.168
        22 -10.9068    153.7820      3.4064   1.8414457510e+01   4.6010961030e+01    0.3416701    0.2352514  70.76  0.001769948    1.316    0.240
        23 -12.6592    199.5072      3.2244   1.2579568722e+01   3.4439608229e+01      1.19315     0.303654  74.82  0.003711257    4.123    0.757
        24 -11.9151    208.4697     10.5021   1.3522689439e+01   3.1431284520e+01    0.2987854    0.2784902  66.16 9.545292e-05    1.192    0.161
        25 -12.4702    211.3183      5.2447   1.1900965868e+01   3.1290983180e+01    0.5662442    0.3924716 -56.14  0.002335412    1.368    0.269
        26 -10.3851    134.9655      9.8890   2.3802114087e+01   5.0063331096e+01    0.1981042    0.1738932  52.88 0.0003035417    1.019    0.019
        27  -9.6956     63.1639     10.1612   4.3165400937e+01   6.5021887400e+01     0.147246    0.1306882 -17.58            0    1.262    0.208
        28  -9.2698     76.4817      9.4552   3.8274886574e+01   6.2789430217e+01    0.1262964    0.1060653  14.32 0.0001019462    1.003    0.003
        29 -10.5876    188.8521      8.1528   1.5099986640e+01   3.6630175720e+01     0.184401    0.1556217  40.13 0.0006630633    1.356    0.263
        30 -12.0941    127.7163      4.4483   2.3251896718e+01   5.2320080387e+01    0.3448375    0.2892809 -62.88    0.0020433    1.419    0.295
        31  -9.8144    115.7056      8.0187   2.7082937259e+01   5.4794387900e+01    0.1710047    0.1559404  21.43 0.0003151303    1.076    0.071
        32 -11.7510     30.7691     11.5656   5.7221552008e+01   6.9292125059e+01    0.3004706    0.1899184 -36.82  0.000985894    1.441    0.306
        33 -11.1917    167.8582      5.4862   1.7023760940e+01   4.2252162269e+01    0.3916738    0.3068692  -9.02   0.00220537    1.538    0.350
        34  -9.9618    179.0178      5.9704   1.5693369519e+01   3.9358403773e+01    0.1948559    0.1724012  82.49 0.0004321492    1.009    0.009
        35 -10.4495    176.1002      3.0899   1.5229665970e+01   4.0381252260e+01    0.2170066    0.1987263 -29.38 0.0006126364    1.244    0.196
        36 -10.1722     76.8411      4.8907   3.6109437442e+01   6.3208151567e+01    0.2539677    0.1762574 -54.38  0.001148537    2.367    0.577
        37 -11.6854      3.4623      4.2646   6.7558295988e+01   7.2809237763e+01    0.2386877    0.1816382 -32.39  0.000278862    1.166    0.142
        38 -10.8398      7.6662      2.4178   6.4462502482e+01   7.2781472824e+01    0.2184718    0.1335579 -23.62  0.001155549    1.286    0.223
        39 -10.4719     48.6492      5.0514   4.6326753717e+01   6.7868925113e+01    0.3521676    0.1603859  30.12  0.001794708    2.253    0.556
        40 -10.8694     34.1484      3.0663   5.1596512694e+01   7.0049901502e+01     0.311292    0.1888736 -32.31  0.001476965    1.518    0.341
        41 -10.7515     16.7071      3.2479   6.0129975340e+01   7.1897961587e+01    0.2796419    0.1865414 -57.11  0.001679114    2.690    0.628
        42 -10.8981     89.1442      3.0176   3.1644180557e+01   6.1001257755e+01    0.3605612    0.1752819  57.35  0.001044214    2.067    0.516
        43 -10.9937     40.5992      2.6852   4.8537821643e+01   6.9271903133e+01     0.251903    0.1924965  51.11  0.001268583    2.048    0.512
        44  -9.1365     29.2783      1.3124   5.2976512368e+01   7.0851869625e+01     0.114026     0.069527  -6.99 0.0002423103    1.564    0.361
        45  -9.8302    116.2431      1.0000   2.4278585463e+01   5.5307055101e+01     0.371434   0.06722434  62.53  0.001055276    4.970    0.799
        46  -9.3303     71.5175    112.5707   7.3619330859e+01   4.4322543784e+01    0.1385533     0.124169 -74.51 4.488881e-05    1.047    0.045
        47 -13.2863    246.0529    247.4210   6.0360518305e+01  -1.1717143039e+01    0.7622731    0.3755765  35.83   0.00452816    1.657    0.397
        48 -10.4815      5.6538    109.2219   9.1820972409e+01   5.1726614085e+01    0.1998731    0.1084938 -64.60 0.0003901523    1.404    0.288
        49 -12.2240    249.4187    103.6853   3.1238322971e+01   8.2487123148e+00    0.4683444    0.2324946 -33.28  0.002035869    1.873    0.466
        50 -12.0737     45.6596    102.2937   7.9153492394e+01   4.9945959649e+01    0.2752516     0.194514 -65.24  0.000282591    1.218    0.179
        51  -9.4472     28.7026    109.6563   8.5431685124e+01   4.9896986288e+01    0.1290647   0.07830127 -45.78  0.000242312    1.670    0.401
        52 -11.6271    120.3549    107.9476   5.8867605909e+01   3.6881096276e+01    0.3349735     0.229621  45.10  0.001535353    1.494    0.331
        53  -9.7412    114.2110    104.3899   5.9602665415e+01   3.8910138482e+01    0.2067423     0.142164  54.97 0.0004024164    1.584    0.369
        54  -9.0289     67.6992    104.6768   7.3038285061e+01   4.6696245591e+01    0.1392355   0.09966434 -32.52 0.0003186114    1.631    0.387
        55  -9.9132     16.7322    104.3917   8.8066088292e+01   5.2063767648e+01    0.1353361     0.114243 -16.46 0.0002879826    1.525    0.344
        56  -8.9570    131.2930    103.6844   5.4880875161e+01   3.5511334815e+01    0.1558993    0.1223475 -84.70 0.0004836636    1.599    0.374
        57  -9.3703    106.4647    103.4469   6.1496426044e+01   4.0624699094e+01    0.1479143    0.1417544 -55.88 0.0001065883    1.013    0.013
        58 -11.7746     81.1215    103.2317   6.8731028503e+01   4.5060904558e+01    0.2755247    0.2436544 -78.86            0    1.156    0.135
        59  -9.2068    143.5117    100.4922   5.0936535322e+01   3.3468435772e+01    0.1543196    0.1535633 -29.70 4.075548e-05    1.034    0.032
        60 -11.2632    101.3748     97.8838   6.1484647540e+01   4.2819054437e+01    0.3425891    0.2305802  54.87  0.001588601    1.687    0.407
        61 -10.3240     86.5928     97.1022   6.5601239298e+01   4.5578102982e+01    0.4247677     0.121096 -48.69  0.001368085    3.185    0.686
        62 -10.0915     26.8791     96.9661   8.3867376059e+01   5.2958005200e+01    0.1824869    0.1485232 -67.85 0.0003756022    1.032    0.031
        63 -10.2812     46.0461    108.2112   8.0161630633e+01   4.8532479085e+01    0.3959195    0.2082647  88.24  0.001564345    3.248    0.692
        64 -10.8104    107.9424     95.9914   5.9110049813e+01   4.1994083734e+01    0.2575218    0.2078398  42.98 0.0003654075    1.291    0.226
        65  -9.4833     81.7590     94.5804   6.6409053688e+01   4.6926341822e+01    0.1891437    0.1329989  51.25 0.0009402176    1.615    0.381
        66 -10.5719     16.9551     92.1220   8.6085765236e+01   5.4814934962e+01    0.1799448    0.1380189 -84.39 0.0007192427    1.265    0.210
        67 -12.3964     34.9157     89.3887   7.9923197102e+01   5.3965007030e+01    0.2833534    0.1993946 -68.63  0.001029894    1.273    0.215
        68  -9.8303     33.8974     83.8731   7.9105943657e+01   5.5291344765e+01    0.1960946    0.1560665 -59.74 0.0005422627    1.054    0.051
        69 -10.1468     53.9774     89.0295   7.3724822351e+01   5.2030599932e+01    0.2097641    0.1423181 -31.36 0.0006516405    1.661    0.398
        70 -11.4165     12.9443     88.1194   8.6668096498e+01   5.5980047123e+01     0.189269    0.1469567 -70.64            0    1.081    0.075
        71  -9.7136    120.5421     87.9961   5.3371242567e+01   4.1150118315e+01    0.2268021    0.1466484 -44.14 0.0003781395    1.512    0.339
        72 -10.1190     84.3168     87.3161   6.3711114530e+01   4.8124461524e+01    0.2703626    0.1680442 -53.74 0.0006275444    1.537    0.349
        73  -9.3153    131.4485     86.4246   5.0016902240e+01   3.9100645448e+01    0.1503937    0.1494142 -63.52 0.0001257725    1.008    0.008
        74 -12.1909    105.4665     80.5282   5.5417790883e+01   4.5767655053e+01    0.6599036    0.3828973 -27.10  0.001692296    2.264    0.558
        75  -9.6111    187.8622     82.9062   3.6315392884e+01   2.6146824324e+01    0.2051662    0.1740375 -69.99  0.001011592    1.256    0.204
        76 -10.8455     79.4091     81.5476   6.3646331245e+01   5.0163466346e+01    0.3623288    0.2534334 -16.94  0.001748304    1.882    0.469
        77  -9.0911     20.3243     83.6606   8.3515935777e+01   5.6455033866e+01    0.1193766   0.08493761  78.93 0.0007051142    1.724    0.420
        78  -9.6238    111.5496     82.5438   5.4271356783e+01   4.4141941393e+01    0.1478779    0.1423755 -28.16 5.816692e-05    1.018    0.017
        79 -11.1849     53.9988     81.0819   7.1787196047e+01   5.3792165138e+01    0.2461303    0.1682123 -54.34 0.0003672461    1.273    0.214
        80 -10.0499     86.8897     80.5087   6.1003977924e+01   4.9161661739e+01    0.2431175    0.1749777 -39.63 -0.0001541599    1.321    0.243
        81 -10.3832     75.5851     75.3525   6.3100876538e+01   5.2074522522e+01    0.3088357    0.1337113  32.13  0.001170707    2.744    0.636
        82 -11.5073     45.1956     73.1938   7.2762413946e+01   5.6503638564e+01    0.3393241    0.2742936 -34.39  0.002129549    1.169    0.144
        83 -11.3764    250.4024     72.7697   2.3894755759e+01   1.2957640695e+01    0.3502921    0.1283447 -32.34  0.001298139    2.675    0.626
        84 -12.3032    238.6373     73.4372   2.5600530412e+01   1.5479374808e+01     0.341639    0.2923276 -78.31  0.001447666    1.192    0.161
        85  -9.9708     56.7139     72.8164   6.8687272811e+01   5.5242166074e+01    0.3358564    0.1260178 -47.58 0.0006787429    2.273    0.560
        86 -10.7110     60.8366     70.8351   6.6717256325e+01   5.5128778424e+01    0.2307186    0.2015395  26.10 0.0004658511    1.273    0.215
        87 -11.3740      8.1950     73.9573   8.5735889548e+01   5.9367762789e+01    0.1936552    0.1756448 -42.96 0.0005014422    1.208    0.172
        88  -9.8654    151.9185     73.1300   4.1038558940e+01   3.6864404638e+01     0.226142    0.2018329 -76.30 0.0003300944    1.216    0.178
        89  -9.6392     83.7570     73.3693   5.9878612306e+01   5.1177423703e+01    0.2088459    0.1888722 -58.23 0.0003102374    1.170    0.145
        90  -9.8080     81.9860     70.2734   5.9500979216e+01   5.2102522684e+01     0.180369    0.1720829  -6.63  0.000220637    1.069    0.064
        91  -9.2439     23.9646     72.9465   8.0103407256e+01   5.8520459294e+01    0.1415633    0.1117413 -53.81 0.0009354046    1.012    0.012
        92  -9.8816    137.4841     72.5118   4.4298533103e+01   4.0432226785e+01    0.1507522    0.1494762  17.86 0.0008103579    1.005    0.005
        93 -10.5493     30.7393     71.0684   7.7297848443e+01   5.8366119766e+01    0.1748777    0.1589135 -37.20 0.0003304196    1.135    0.119
        94 -10.7671     17.5062     70.5966   8.1853595140e+01   5.9499034169e+01    0.2197111    0.1839887 -63.50 0.0006781888    1.115    0.103
        95 -10.9979    156.0742     69.7528   3.9081547063e+01   3.6450866411e+01    0.3166286    0.2440518 -12.71            0    1.579    0.367
        96 -12.1231     51.3484     70.0275   6.9772595029e+01   5.6482750740e+01    0.2852091     0.217459 -59.35 0.0004328199    1.281    0.220
        97  -9.3236    213.3273     68.7268   2.8099098697e+01   2.2234277083e+01    0.1518088    0.1093267 -72.05 0.0003910214    1.584    0.369
        98 -10.5264     74.0964     67.6465   6.1278947312e+01   5.3890742229e+01    0.2475893    0.1770224 -42.85 0.0005926918    1.271    0.213
        99  -9.9348     35.5995     68.0212   7.4817600841e+01   5.8573594288e+01    0.1789881    0.1631369 -82.87  0.000702325    1.290    0.225
       100 -10.1041    194.8549     65.7081   3.0305058521e+01   2.7338685622e+01    0.2320421    0.2020397 -26.93 0.0002863908    1.230    0.187
       101 -11.1539    111.0891     65.8216   4.9207329116e+01   4.7531336967e+01    0.2386751    0.2138259 -24.00 0.0002349759    1.098    0.089
       102  -9.9653     89.3937     65.7376   5.5701981859e+01   5.1734835590e+01    0.2489871    0.1658218  52.81  0.000664652    1.789    0.441
       103 -10.5211    180.9008     64.2524   3.2392483782e+01   3.1128541276e+01    0.2919317    0.2694331 -37.11  0.001553162    1.115    0.103
       104  -9.3860    177.1652     64.1147   3.3057500525e+01   3.2104239780e+01    0.2048808    0.1965507 -66.95            0    1.032    0.031
       105 -10.9874    161.4582     63.7727   3.6107408321e+01   3.6144960884e+01    0.4329103    0.1264316 -40.65  0.001306314    3.338    0.700
       106  -9.9738    153.0307     64.9740   3.8301570849e+01   3.8041157587e+01    0.2270805    0.1803771  18.97            0    1.523    0.343
       107 -10.1319      2.3176     64.8154   8.6056017238e+01   6.1626739709e+01     0.211549    0.1521647  84.93  0.001103199    1.673    0.402
       108  -9.3512     62.2756     64.3352   6.4293741182e+01   5.6272241936e+01    0.1364458   0.09249679 -24.73 0.0006596988    1.605    0.377
       109 -10.9482     59.0439     58.4450   6.3598416080e+01   5.7879497955e+01    0.4278419    0.3641304  83.20  0.002549579    1.684    0.406
       110 -10.0759    147.0014     61.6906   3.8643301116e+01   4.0087297086e+01    0.2106861    0.1930754  52.83 0.0003698848    1.070    0.065
       111 -12.4902    150.7839     57.5635   3.6492087787e+01   3.9848061772e+01    0.3424614    0.2963115 -53.53  0.000536293    1.213    0.176
       112  -9.2153    167.5087     61.5903   3.4204604140e+01   3.4981222672e+01    0.1515569    0.1452189  67.01 0.0001081232    1.020    0.020
       113 -12.2252    248.1208     59.2745   2.1015798997e+01   1.5502092848e+01    0.3974825    0.2879852 -33.60  0.002149092    1.349    0.259
       114  -9.3722    109.2501     60.0089   4.7815071805e+01   4.8980243513e+01     0.183254    0.1211158 -37.22 0.0005474865    1.488    0.328
       115  -9.8407    218.3137     59.0999   2.4857639325e+01   2.2527821692e+01    0.2055676    0.1767839 -54.67 0.0006672356    1.090    0.083
       116 -10.6385    160.5527     57.2121   3.4294608203e+01   3.7460258940e+01     0.387836    0.3100857  68.99  0.001925788    1.278    0.218
       117  -9.4845     26.9832     56.4648   7.4962857931e+01   6.1731096137e+01    0.1997594    0.1178226  13.32  0.001079854    2.074    0.518
       118 -11.8273     30.5638     53.7421   7.2822267600e+01   6.1969543536e+01    0.3645233    0.2604529 -83.16  0.001680649    2.096    0.523
       119 -10.8524     19.8530     55.4498   7.7431614846e+01   6.2494884975e+01    0.2096384    0.1508371 -54.53 0.0003847617    1.150    0.130
       120  -9.9010    200.7856     55.2088   2.6447924132e+01   2.7497360166e+01     0.194428    0.1715076  31.32 0.0003173785    1.322    0.244
       121 -11.9997    122.5431     50.1050   4.0807780960e+01   4.7786704245e+01    0.4251556    0.2441994 -41.19  0.001289974    1.794    0.443
       122 -10.1711     81.0320     62.2473   5.7263926878e+01   5.3849332785e+01    0.2433533    0.1837938 -41.74 0.0005364668    1.239    0.193
       123 -10.4143    135.4472     52.9611   3.8541938078e+01   4.4328129823e+01    0.2979803    0.2091891  49.41  0.001046019    1.379    0.275
       124 -10.1797    128.0142     52.7617   4.0308208259e+01   4.6103570618e+01    0.2266649    0.2017527 -81.31  0.001208028    1.317    0.241
       125  -9.2821     44.4609     53.5315   6.7425054463e+01   6.0619761983e+01    0.1271265    0.1046714 -33.64 3.031244e-06    1.021    0.020
       126 -11.4713     10.7207     52.3478   8.0193218107e+01   6.3733530812e+01     0.247817    0.2204612 -88.27  0.000711099    1.404    0.288
       127 -11.4599      2.1638     50.9043   8.3198696686e+01   6.4495397829e+01    0.3717045    0.1093739 -53.90  0.001258146    2.189    0.543
       128  -9.7670    117.7517     51.4114   4.2524389721e+01   4.8643799173e+01    0.1906652    0.1322066  38.86 0.0001574346    1.448    0.309
       129  -9.7890     35.2388     50.7838   7.0123294758e+01   6.2117166068e+01     0.167262    0.1165288 -30.32 0.0003604954    1.305    0.233
       130 -10.9451    211.6317     49.3401   2.3263224931e+01   2.5645849917e+01    0.3072769    0.2183762 -87.41 0.0008696698    1.533    0.348
       131  -9.9614     44.4606     63.2735   7.0335092754e+01   5.8666046146e+01    0.1714402    0.1120494 -61.04 0.0005164215    1.554    0.357
       132 -10.6167     19.5142     49.8652   7.6069814362e+01   6.3640055234e+01    0.3253497    0.2064473  54.12  0.001835442    2.570    0.611
       133  -9.3606     21.7042     47.3193   7.4470240693e+01   6.3975627642e+01     0.126363   0.09364909 -38.37  0.000445346    1.090    0.083
       134 -11.4946    248.9960     48.9778   1.8514452164e+01   1.6799925826e+01    0.2179744    0.1893293 -60.06  0.001316348    1.012    0.012
       135  -9.9153    201.2633     49.5966   2.4843802701e+01   2.8220248914e+01    0.2658564     0.140526  67.92  0.001102762    1.932    0.482
       136  -9.6905    103.8283     49.1596   4.5644958716e+01   5.1975555057e+01    0.1973302    0.1864403 -47.64 0.0004252473    1.178    0.151
       137 -10.8006    233.7412     48.2434   2.0100664982e+01   2.0422546270e+01    0.1827926    0.1682901  28.03  0.001068578    1.354    0.261
       138 -10.0568    194.0943     48.2734   2.5584078149e+01   3.0244209832e+01    0.2097246    0.1834632  84.29 0.0004652663    1.103    0.093
       139 -11.7628    138.2830     47.5976   3.6091704385e+01   4.4496103678e+01    0.2558428    0.2487072 -63.37 0.0002989977    1.088    0.081
       140 -10.3453     27.0339     47.8955   7.2494886086e+01   6.3429442748e+01    0.2113705    0.1409722 -46.60 0.0005418326    1.205    0.170
       141 -12.1913    163.4319     42.5909   2.9199173496e+01   3.8959795220e+01    0.3157831    0.2650404  89.74  0.001647922    1.266    0.210
       142 -10.2515    134.5101     43.7226   3.5667965036e+01   4.5989867106e+01    0.2545693    0.1883247  53.98 0.0004528842    1.303    0.233
       143 -11.7001     90.8476     43.8003   4.7646531387e+01   5.5405460910e+01     0.265161    0.2197079  30.27 0.0002790782    1.189    0.159
       144 -12.4390    249.1777     40.3523   1.6503431444e+01   1.7961391693e+01     0.462249    0.3573529 -20.71  0.002613402    1.562    0.360
       145  -9.8093     38.0167     43.5148   6.6684199765e+01   6.3222853145e+01    0.1564604   0.09969547  52.81 0.0008104991    2.633    0.620
       146 -12.3113    239.6123     40.7964   1.7628724345e+01   2.0091603051e+01     0.308126    0.2719497 -40.78  0.001306938    1.182    0.154
       147 -10.1135    218.1145     41.3328   2.0312874705e+01   2.5179309397e+01    0.2163673    0.1920533 -30.69 0.0002617648    1.239    0.193
       148 -10.4874     27.9692     41.3047   7.0052154859e+01   6.4605668397e+01    0.2255318    0.1358051 -41.26 0.0006598916    1.330    0.248
       149  -9.9725    209.3762     40.7868   2.1317554201e+01   2.7432277628e+01    0.1985484     0.139102 -19.64 0.0009566662    1.727    0.421
       150 -12.3509    229.8380     38.5044   1.8178936030e+01   2.2715411032e+01    0.4522145    0.2904314 -72.12  0.001145861    1.662    0.398
       151 -10.7799    114.8663     36.3493   3.7946149559e+01   5.1600538677e+01    0.5360392    0.2506056 -20.27  0.002024395    2.851    0.649
       152 -12.4369    140.2326     37.8481   3.2381886525e+01   4.5452444768e+01    0.2943425    0.2895946  -7.82 0.0003828779    1.061    0.058
       153 -10.7203     84.8886     39.0290   4.7766422322e+01   5.7272734964e+01    0.1958922    0.1784425  -3.59 0.0003532109    1.037    0.036
       154 -10.4827     55.3883     38.5881   5.8079319608e+01   6.2026446519e+01    0.2211583    0.2042524 -45.36 0.0008590585    1.321    0.243
       155 -11.1989     34.1101     37.8821   6.6343898089e+01   6.4654062136e+01    0.3622954    0.2779298  24.21 0.0009774759    1.479    0.324
       156 -10.1478    194.5331     37.8557   2.2610132006e+01   3.1608493704e+01    0.2292645    0.1858407 -68.64  0.001160096    1.233    0.189
       157 -11.0392    126.7451     36.5074   3.5014620175e+01   4.8869823716e+01    0.4588643    0.2776938 -30.56  0.002145738    1.710    0.415
       158  -9.5463     88.9769     38.2897   4.6171155287e+01   5.6633452875e+01    0.1835748    0.1604861  24.32 0.0001553197    1.104    0.094
       159 -12.5984    244.7117     32.0101   1.5035017283e+01   2.0094886476e+01    0.5924057    0.3702727  46.16  0.001252501    2.074    0.518
       160 -13.1033     23.8986    248.3269   9.8938244914e+01   2.1153555719e+01    0.4859738    0.2725088  60.78  0.003520402    1.264    0.209
       161 -13.5820      8.1371    248.3723   1.0133819040e+02   2.2827247246e+01    0.7273318    0.4717447  68.07  0.005884085    1.046    0.044
       162  -9.6658     50.4879    111.9517   7.9561525580e+01   4.7164107122e+01    0.1940755    0.1128337 -61.91 0.0003552183    1.463    0.317
       163 -10.4731     34.9871    110.0511   8.3694829535e+01   4.9231100885e+01    0.1994151    0.1647068 -76.52  0.001007746    1.066    0.062
       164 -11.5742    221.1011     15.5781   1.3491528130e+01   2.7740366579e+01     0.288525    0.2226587  84.23 0.0002846035    1.179    0.152
       165 -10.2050    226.6546    232.3226   6.1264425248e+01  -7.0947187897e+00    0.1086351   0.09242016  60.51 0.0004235479    1.736    0.424
       166  -9.3566    196.2995    229.6769   6.6292835114e+01  -1.7952014704e+00    0.1152956   0.09364069  65.39 0.0005593071    1.628    0.386
       167 -10.3206     62.9175    110.8071   7.5739795460e+01   4.5908525000e+01    0.4560866    0.1400017 -57.30  0.001073478    2.754    0.637
       168 -10.6631    154.5088     35.0184   2.8508548017e+01   4.2281038565e+01    0.2748471    0.2513191  55.83 0.0006407418    1.035    0.034
       169 -10.6230    170.0399     33.6388   2.5254276107e+01   3.8491347988e+01    0.2386601    0.1903946 -49.94  0.000509303    1.303    0.233
       170 -10.4036     54.0880     33.3591   5.6575870305e+01   6.3079759190e+01    0.2047482    0.1466143 -23.13 0.0003739372    1.247    0.198
       171  -9.1876    149.3821     33.4800   2.9014065927e+01   4.3777397804e+01    0.1415522    0.1347343  42.81 0.0003321411    1.043    0.041
       172  -9.5390     12.4946     33.5280   7.4164074859e+01   6.7258106896e+01    0.1146332   0.08677365 -37.97 7.271596e-05    1.002    0.002
       173 -11.9924    132.2822     29.5147   3.1268824604e+01   4.8494397120e+01    0.3196761    0.2697098 -39.13 0.0001693594    1.274    0.215
       174 -10.8829    123.7465     30.5345   3.3603288939e+01   5.0378367111e+01    0.2385271    0.2292841  46.36 0.0003132234    1.071    0.067
       175  -9.6176    217.2950     30.6927   1.7693950030e+01   2.6813266180e+01    0.1463237   0.09462707 -65.20  0.000198742    1.586    0.369
       176 -10.5590      1.8002     29.3262   7.7649667977e+01   6.8671875727e+01    0.2275199   0.08504508 -39.79 0.0009583661    2.070    0.517
       177 -10.2967     47.2254     28.7696   5.7485278281e+01   6.4725679148e+01    0.1677338    0.1461008 -14.36  0.001150269    1.114    0.102
       178 -10.7196     34.8987     26.6044   6.1795588073e+01   6.6520675576e+01    0.3753611    0.1753056 -46.36  0.001734483    1.984    0.496
       179  -9.5685     82.4842     27.5064   4.4016166497e+01   5.9427701725e+01    0.1318612    0.1157618   4.55 0.0001427874    1.005    0.005
       180  -8.9629     70.7042     26.6875   4.7679254509e+01   6.1601436803e+01    0.1311458   0.08973367   2.99 0.0007009482    1.598    0.374
       181 -11.2234     68.8615    217.8874   8.9105288341e+01   2.1171501296e+01    0.3904904    0.1927777 -85.31  0.001319698    2.269    0.559
       182  -9.7285     99.7687     23.4097   3.7128191030e+01   5.6583343400e+01    0.1896898    0.1141154  41.14 0.0003803143    1.555    0.357
       183 -10.3903    211.5375     22.3055   1.6217360912e+01   2.9299147938e+01    0.2459958    0.1160472  69.21 0.0006843028    1.985    0.496
       184 -11.0044    178.3973     19.9511   1.9840935863e+01   3.8022018602e+01    0.4367167    0.1962996 -46.36 0.0009884352    2.386    0.581
       185 -10.9623      7.6868     21.0081   7.2122612573e+01   6.9805778793e+01    0.2748662    0.1960305 -16.05  0.001354828    1.288    0.224
       186 -10.3632      1.4449     21.4288   7.5273423564e+01   7.0107405438e+01     0.209099   0.08418716 -54.73  0.000496258    2.003    0.501
       187 -10.0513     74.0134    221.2107   8.8448590986e+01   1.9809924023e+01    0.2272351    0.1727825  14.82  0.001322646    2.413    0.585
       188 -11.5254     55.3168     19.4946   5.0339809507e+01   6.5023679471e+01    0.2098622    0.1715084  -9.38 0.0003580542    1.028    0.027
       189 -11.1257    151.4021     18.8761   2.3831720639e+01   4.5047628470e+01    0.4082324    0.2532246  75.19  0.001698887    1.695    0.410
       190 -10.2922     38.2830     17.1650   5.6367037532e+01   6.7614995990e+01    0.2490903    0.1200865  18.22 0.0009684928    2.650    0.623
       191 -10.5604     10.6180     15.7405   6.8694655342e+01   7.0488673432e+01    0.1815487    0.1186979 -49.34 0.0006601889    1.472    0.321
       192 -10.1249     78.7161    218.7886   8.7329345615e+01   1.9602464430e+01    0.2240726    0.1540667  41.33 0.0009102428    1.494    0.330
       193  -9.7207     55.9896    216.9902   9.1426797475e+01   2.3071568192e+01    0.1372171    0.1025409  82.30 0.0009314715    1.107    0.097
       194  -9.9607    131.9628     13.9756   2.5835931951e+01   5.0376789135e+01    0.2172393    0.1621942 -70.11  0.001128482    1.715    0.417
       195  -9.8559    125.7013     14.2925   2.7249685157e+01   5.1838556432e+01    0.2057425    0.1652543  85.02 0.0001989336    1.459    0.314
       196  -9.2568    123.9634    206.0223   7.6856805277e+01   1.4855147400e+01    0.1450455    0.1269112  66.95 0.0008946084    1.047    0.045
       197  -9.6366    100.9880    176.0304   7.7427781416e+01   2.4983406478e+01    0.1562786    0.1371535  81.90            0    1.029    0.028
       198 -10.8856     24.5120     13.0122   6.0802433095e+01   6.9730855766e+01    0.2201817    0.1498254  10.45 0.0004385597    1.454    0.312
       199 -10.3855     20.2257     13.6081   6.3114851286e+01   7.0044449783e+01    0.1825729    0.1213114   1.11 0.0003588603    1.480    0.324
       200 -10.8067     83.5704     13.0337   3.7607387598e+01   6.1060349525e+01     0.210463    0.1590148  31.51 0.0003519075    1.189    0.159
       201 -10.7553     57.4699     13.2574   4.6714249375e+01   6.5541181671e+01    0.3914283    0.1443152  41.27  0.001777483    2.693    0.629
       202  -9.7718    234.5214    175.5116   4.9509290627e+01  -4.8934092925e-01    0.1343491    0.1187057   3.88 0.0004586116    1.001    0.001
       203 -10.8527      4.6859    162.9808   9.7173680584e+01   3.9845706500e+01    0.1766714    0.1331835  69.24 0.0003638921    1.204    0.169
       204  -9.1421      6.3106    159.3150   9.6554559295e+01   4.0509818373e+01    0.1086348    0.0732213 -57.18 0.0007031387    1.634    0.388
       205  -9.9170      3.8966    152.2714   9.6516221589e+01   4.2239332221e+01    0.2020932    0.1160837 -89.36 0.0005562925    1.379    0.275
       206 -10.3562     29.5011    146.2730   9.0103405072e+01   4.1369728778e+01    0.2619199    0.1527107  53.50 0.0008818698    1.751    0.429
       207 -10.3497     11.8261    145.0630   9.4114995690e+01   4.3214179804e+01    0.1715221    0.1415647  82.96 0.0002881871    1.128    0.113
       208  -9.8200      2.5405    142.7217   9.6026839751e+01   4.4443234775e+01    0.1949478    0.1079204  60.09  0.001176113    1.799    0.444
       209  -9.6600     72.3079    138.6463   7.8339717237e+01   3.8053098616e+01     0.217316    0.1434832  76.04 0.0008965182    1.770    0.435
       210  -9.7350     29.6527    137.9523   8.9090752995e+01   4.3266305943e+01     0.169984    0.1253145 -78.32 0.0003727244    1.094    0.086
       211 -10.0678    145.0248     12.5319   2.2859356614e+01   4.7323248939e+01    0.2108747    0.1267591  66.44 0.0006430125    1.549    0.355
       212 -11.0045     12.8531    134.9993   9.2875825734e+01   4.5397292763e+01    0.1733006     0.143401 -88.93 0.0002692891    1.095    0.087
       213 -10.6587    184.7723    134.0750   5.0077409778e+01   1.7066394716e+01     0.241926    0.2125216  51.53 0.0002796681    1.141    0.124
       214  -9.5638     29.9993    133.6922   8.8474668163e+01   4.4216955996e+01    0.1661703    0.1384499 -88.10 0.0002205395    1.064    0.060
       215 -10.3896     17.1689    133.2548   9.1631853378e+01   4.5447912716e+01    0.3248671    0.1666052  70.01  0.001204559    2.217    0.549
       216  -9.6548      4.5340    131.4843   9.4535149183e+01   4.6802764543e+01    0.1176043   0.08834086 -82.36  1.39952e-05    1.003    0.003
       217 -10.5208     27.2117    130.1634   8.8735847683e+01   4.5290871701e+01    0.1995555     0.156234  72.13 0.0003657907    1.265    0.210
       218 -11.5032     98.8007    125.8977   6.8892530855e+01   3.6859835112e+01    0.2595136    0.2311734  58.24 0.0003191868    1.145    0.127
       219  -9.1951     48.7537    126.7199   8.2580019906e+01   4.3893480756e+01    0.1224613    0.0887567 -47.44 0.0006818332    1.456    0.313
       220  -9.2025     33.2904    126.7076   8.6695390599e+01   4.5522446517e+01    0.1243954   0.08385947  76.93 0.0002420057    1.548    0.354
       221 -10.4892    229.5206    124.4661   3.9255879389e+01   8.9521419680e+00      0.33312    0.2730538 -89.68   0.00172366    1.592    0.372
       222 -10.2055     59.0369    125.0273   7.9512678855e+01   4.3058045843e+01    0.1922493    0.1680147 -73.81            0    1.020    0.019
       223 -10.4810     23.5293    124.5752   8.8972735597e+01   4.6904241013e+01     0.270195    0.1020071 -72.47  0.001213167    2.234    0.552
       224 -11.4084    250.1327    120.1475   3.4903080625e+01   5.4189281717e+00    0.3289973    0.1792594 -38.96  0.001522705    1.656    0.396
       225 -11.2072     41.6208    119.4379   8.3357251154e+01   4.6382224330e+01    0.2284759    0.1876742 -77.83 0.0002672635    1.053    0.050
       226  -9.8635     20.9871    118.3279   8.8827524598e+01   4.8552586107e+01    0.1559847    0.1345864 -80.36 0.0002379137    1.098    0.089
       227 -10.0306     98.8601    117.4033   6.6994848384e+01   3.8828016921e+01    0.1905635    0.1764651  46.74 0.0003635132    1.145    0.126
       228 -11.2245     84.3188    113.3459   7.0132402450e+01   4.2214516289e+01    0.3278721    0.2381885 -85.71 0.0001770248    1.656    0.396
       229 -10.0479     15.3610    115.9169   9.0026673325e+01   4.9542921172e+01    0.1718382    0.1202284 -71.87  0.000415435    1.116    0.104
       230  -9.4420    214.0197    114.5224   3.9618107038e+01   1.4126125981e+01    0.2015866    0.1491788  54.14 8.417392e-05    1.415    0.293
       231  -9.3406    187.3730    114.4550   4.4742195424e+01   2.0324834327e+01    0.1526937    0.1467103 -46.23 2.632322e-05    1.031    0.030
       232 -10.0910      1.9860    113.6290   9.3320304406e+01   5.0966877413e+01    0.2153964    0.1415691  64.82  0.001389089    1.635    0.388
       233 -10.8980     46.9391    116.3860   8.1364966955e+01   4.6525055481e+01    0.2307117    0.1619784 -67.39 0.0001436058    1.213    0.175
