#   1 NUMBER                 Running object number                                     
#   2 MAG_AUTO               Kron-like elliptical aperture magnitude                    [mag]
#   3 X_IMAGE                Object position along x                                    [pixel]
#   4 Y_IMAGE                Object position along y                                    [pixel]
#   5 X_WORLD                Barycenter position along world x axis                     [deg]
#   6 Y_WORLD                Barycenter position along world y axis                     [deg]
#   7 A_WORLD                Profile RMS along major axis (world units)                 [deg]
#   8 B_WORLD                Profile RMS along minor axis (world units)                 [deg]
#   9 THETA_WORLD            Position angle (CCW/world-x)                               [deg]
#  10 FWHM_WORLD             FWHM assuming a gaussian core                              [deg]
#  11 ELONGATION             A_IMAGE/B_IMAGE                                           
#  12 ELLIPTICITY            1 - B_IMAGE/A_IMAGE                                       
         1 -11.1733    248.7901     32.1362   5.8299271990e+01   2.1060534375e+01    0.7735166    0.3378023 -45.97  0.003969642    1.965    0.491
         2 -10.4010    250.0941     19.2215   5.5750617527e+01   2.2434761225e+01    0.4972839    0.1565193 -37.06  0.002202401    3.140    0.681
         3  -9.5191    231.8294      3.0063   5.4139993911e+01   2.8091893293e+01    0.3723562    0.1645983  86.19  0.001486431    2.141    0.533
         4 -11.0001    245.8388     13.3714   5.5000242476e+01   2.4006065588e+01     1.053305    0.1813889  63.43  0.003852356    4.610    0.783
         5 -10.8859    249.0434      5.1714   5.3260005949e+01   2.4297540788e+01    0.6028897    0.2887814 -36.77  0.003397447    2.230    0.552
         6 -10.6422    232.9931     10.8047   5.5548180101e+01   2.6984050934e+01    0.4516635    0.3224476  16.44  0.002229857    3.208    0.688
         7 -10.3326    237.9690      8.1769   5.4642691248e+01   2.6233490912e+01    0.4436679    0.2223889 -65.35  0.002141892    1.827    0.453
         8 -10.6407    244.1051     22.0172   5.6771607201e+01   2.3319589801e+01     0.400091    0.2684406 -41.94  0.001585581    1.546    0.353
         9 -10.7099    239.2496     17.7731   5.6370125074e+01   2.4849677764e+01    0.5332054    0.2753158 -60.36  0.002947025    1.732    0.423
        10  -9.7072    118.2777     24.5799   7.5011553821e+01   5.1630428628e+01    0.3530075    0.1700672 -50.21  0.001487462    3.162    0.684
        11  -9.8695    221.8544     13.1778   5.6991531429e+01   2.9114843140e+01    0.2769441    0.2213163 -81.85  0.001416103    1.024    0.023
        12 -10.1127    200.2686     14.9030   5.9506760600e+01   3.3750805295e+01    0.3242347    0.2950845  11.29  0.001777143    1.572    0.364
        13 -10.3141     67.8776     11.2352   8.3613188338e+01   6.2859384132e+01    0.3521744       0.1994  -1.12  0.001639494    2.086    0.521
        14  -8.7663     58.0331     12.0160   8.7199217233e+01   6.4405299258e+01    0.1438681    0.1131086  15.72 0.0006934259    1.004    0.004
        15 -10.4010    212.9924      8.7632   5.6900402803e+01   3.1553634915e+01    0.4418757     0.229202 -42.87  0.002448342    1.900    0.474
        16  -9.5227    198.1274     10.0229   5.8646763561e+01   3.4761888589e+01    0.2941223    0.1888502 -14.76  0.001600373    2.430    0.589
        17  -9.6749    192.8499     11.1219   5.9463382955e+01   3.5853308705e+01    0.1932475    0.1431538 -81.02 0.0005396093    1.213    0.176
        18 -10.2347    155.1965      9.8596   6.3940878509e+01   4.4707874502e+01    0.2685561     0.185593 -25.30  0.001585121    1.750    0.428
        19  -9.1683     84.4976     10.4756   7.8419634662e+01   5.9924649874e+01     0.217726    0.1149234 -21.64  0.001186875    2.082    0.520
        20  -9.6834    222.6720      6.4699   5.5565394104e+01   2.9678367969e+01    0.4014659    0.1283991  58.73  0.001347788    3.062    0.673
        21  -9.1342    206.4413      6.8163   5.7110652438e+01   3.3219257220e+01    0.2164269      0.10241 -40.86   0.00113411    2.112    0.527
        22  -9.1886    171.4808      6.0123   6.0749744237e+01   4.1290909021e+01    0.1670485    0.1238856 -32.10 0.0009817666    1.598    0.374
        23  -9.2008    116.5177      6.5373   6.9563636073e+01   5.3718175980e+01    0.1235445    0.1029024  52.31 0.0001810007    1.016    0.016
        24  -8.8972     60.4907      5.4747   8.3667862592e+01   6.4634897845e+01    0.1164117   0.09014458  21.21 0.0008100669    1.008    0.007
        25  -9.7828    240.2027      2.4586   5.3403701971e+01   2.6402437619e+01    0.2503228    0.1413322 -86.03 0.0007988104    1.512    0.339
        26  -8.4743    220.5168      2.9947   5.5053982944e+01   3.0514844209e+01    0.1596945    0.1089658 -43.03 0.0005542141    1.549    0.355
        27 -10.1184     63.7707      2.3080   8.1301081616e+01   6.4362383402e+01    0.2174409    0.1791149  21.95 0.0008186062    1.087    0.080
        28  -9.0369    190.1547      2.1413   5.7711064318e+01   3.7364589728e+01    0.1805685    0.1454104  64.69 0.0009824882    1.240    0.193
        29 -10.8688    238.5555    220.0782   9.8071492796e+01  -8.7394468126e+00    0.3755554    0.2976505 -39.01  0.001394081    1.381    0.276
        30  -9.5031    210.3915    250.0275   1.0859200481e+02  -9.0948619101e+00    0.2568372    0.1499121  21.63  0.001366661    1.714    0.417
        31  -9.7608    193.3161    219.6405   1.0676630347e+02  -1.3652663243e+00    0.2853183     0.233161  77.23  0.001545164    1.801    0.445
        32 -11.4153    247.2349    214.6207   9.5497019502e+01  -9.1617589556e+00    0.6580126    0.3229009 -39.85  0.003291028    1.943    0.485
        33  -8.9230     48.7267    219.3480   1.3763156066e+02   2.2531203916e+01    0.1337458    0.0793935  73.60 0.0003406514    1.628    0.386
        34  -9.2061    159.9977    218.5394   1.1356891209e+02   4.7440620403e+00    0.2220201    0.1292315  39.09 0.0009029778    1.594    0.373
        35 -11.3038    213.8573    214.4219   1.0170294089e+02  -3.9251789123e+00    0.3859804    0.2893937 -56.90  0.002095842    1.761    0.432
        36  -8.5918    109.2886    216.6539   1.2437706442e+02   1.4090575068e+01    0.1449231   0.09990975  74.30 0.0006892911    1.656    0.396
        37 -10.3401    232.6435    212.7152   9.7798019691e+01  -6.6594358932e+00    0.3413179    0.2508442 -29.28  0.001374998    1.266    0.210
        38  -9.7562    186.4874    213.0384   1.0698034790e+02   1.0422998314e+00    0.3122625    0.2305585 -49.93  0.001486339    1.497    0.332
        39 -10.7696    214.5042    210.4789   1.0083957952e+02  -3.3488863694e+00    0.2687961    0.2379934 -19.87  0.001273478    1.089    0.082
        40 -10.0554    124.0147    205.9860   1.1944617506e+02   1.3879095463e+01    0.2029629    0.1873777  63.11 -0.005334738    1.003    0.003
        41  -9.8344    235.6650    203.6750   9.5527545473e+01  -5.6317845366e+00    0.2414472    0.2153075 -32.13  0.001011853    1.198    0.166
        42  -9.1684    132.3199    213.9898   1.1887125865e+02   1.0660448179e+01    0.1953837    0.1825955 -83.59 0.0006251847    1.107    0.097
        43 -10.4892    247.5710    193.8178   9.1486241527e+01  -5.8423503092e+00    0.3823639    0.3288488  70.99  0.001925712    1.765    0.433
        44  -9.6061    218.5617    201.7667   9.8388617538e+01  -2.4967742348e+00    0.1833771    0.1264682 -48.02  0.000945063    1.588    0.370
        45  -8.6126    198.3201    202.6757   1.0259639412e+02   8.7350026635e-01    0.1350995    0.1139647  84.25 0.0004468882    1.677    0.404
        46  -8.9343    193.2944    202.6292   1.0362220907e+02   1.7885904481e+00    0.1380332    0.1142154 -88.54 0.0007027031    1.728    0.421
        47  -8.6932    160.0000    202.0696   1.1066528457e+02   8.0845415417e+00    0.2262958   0.08333271 -48.99 0.0005428297    2.843    0.648
        48  -9.7568    241.4674    200.3667   9.3836828761e+01  -5.9889105919e+00    0.3105296    0.2460644   6.75  0.001179128    1.243    0.195
        49  -9.4402     16.0312    201.4939   1.4264772035e+02   3.0241382135e+01    0.1604212    0.1114196  43.27 0.0007634977    1.551    0.355
        50 -10.3450    230.6152    195.8323   9.4944184088e+01  -3.4697278402e+00    0.4761164    0.2416399 -31.60  0.001918675    1.994    0.499
        51  -9.9661    249.8358    200.8093   9.2435888643e+01  -7.3424962834e+00    0.4297197    0.1905202 -35.63  0.001985254    2.048    0.512
        52 -11.0751    237.7762    192.1471   9.2906056877e+01  -4.0025554227e+00    0.5197748     0.298447 -41.38  0.001965079    1.640    0.390
        53 -10.0876    237.3275    186.3220   9.1835922866e+01  -2.9112334786e+00    0.2853582    0.2118802  -8.95  0.001036137    1.450    0.310
        54  -8.6660    194.0037    188.0000   1.0060819104e+02   4.5086878338e+00    0.2347227   0.08120503  41.93 0.0007961463    2.899    0.655
        55  -9.7588    249.6064    184.8509   8.9378878806e+01  -4.6442478184e+00    0.3389562    0.2203683 -47.92  0.001803697    1.623    0.384
        56  -9.9925    224.8048    184.7089   9.3824481221e+01  -4.8713057498e-01     0.265884    0.2166399 -61.34  0.001101698    1.536    0.349
        57  -9.8724    230.4926    180.4640   9.1906381948e+01  -7.0171546348e-01    0.2590007    0.1246299 -37.63 0.0008108246    1.939    0.484
        58 -10.4071    226.3073    179.4142   9.2469320642e+01   2.2396861191e-01    0.3668305    0.3323212 -16.63  0.001239514    1.016    0.016
        59 -10.4281    242.1070    180.5600   8.9833214055e+01  -2.6875234448e+00    0.5037817    0.2611938 -40.78  0.002113998    1.745    0.427
        60  -8.6831    245.6462    178.3366   8.8769761911e+01  -2.8798106991e+00    0.2293295    0.1705948 -70.41  0.001170804    2.129    0.530
        61  -9.2374    235.7335    180.3188   9.0921544158e+01  -1.5755904045e+00    0.2584642    0.1533318 -48.80  0.001238984    1.776    0.437
        62  -9.8713    157.5236    178.9537   1.0677767081e+02   1.3551221796e+01    0.3391668    0.2512793 -19.98  0.001143205    1.754    0.430
        63  -9.1972    219.2422    178.5768   9.3634549200e+01   1.6467611830e+00    0.2517167    0.1369516  47.07  0.001114311    2.033    0.508
        64  -9.9832    233.4702    174.6439   9.0178629359e+01  -1.5702378673e-01    0.3657377    0.2221317 -45.77  0.001694583    1.596    0.374
        65  -8.5036    197.3684    176.6827   9.7594188894e+01   6.1316411773e+00    0.1486913    0.1185541  87.53 0.0007036979    1.783    0.439
        66 -10.6661    225.1382    172.0036   9.1164450786e+01   1.8162151520e+00    0.5163488    0.3116068 -53.78   0.00236364    1.916    0.478
        67  -8.9165      8.6898    172.6290   1.4165610737e+02   3.7529471235e+01    0.1252994   0.07546078 -51.75 0.0007034366    1.771    0.435
        68 -10.3995    212.2166    169.6273   9.3131566302e+01   4.6775490835e+00    0.4076296    0.1851897 -36.87  0.001591782    2.221    0.550
        69  -9.2182    237.4957    170.0013   8.8508218651e+01  -1.0901831846e-02    0.2168073    0.1234048 -41.07  0.001029468    1.586    0.370
        70  -8.9688    170.0089    169.2641   1.0192687012e+02   1.3165549511e+01    0.2103382    0.2079953 -80.32 0.0008050027    1.030    0.029
        71  -9.6964    147.2965    168.0738   1.0693745348e+02   1.8065083451e+01    0.2772296    0.2240042  53.55 0.0004954034    1.261    0.207
        72  -9.7176    193.1365    166.3322   9.6282639173e+01   9.0852436793e+00    0.2722255    0.2022341 -33.33  0.001289949    1.364    0.267
        73  -9.2792    234.1262    164.4010   8.7949372284e+01   1.6153023258e+00    0.2841463    0.1715802 -54.89  0.001302958    1.939    0.484
        74  -8.5816    184.0029    171.0032   9.9217472438e+01   9.9483878305e+00    0.1819547    0.1745128 -31.60 0.0005406776    1.022    0.022
        75  -9.2052    240.5096    163.0463   8.6550632648e+01   7.3176320516e-01    0.2160159    0.1225185 -38.50  0.000763186    1.574    0.365
        76  -9.0519    250.5890    158.7437   8.3972460568e+01  -2.3358127982e-01     0.202345    0.1606328 -70.33 0.0007608528    1.654    0.395
        77 -10.8284    246.1365    158.3534   8.4628372607e+01   6.0212949163e-01    0.4264948    0.3245311 -21.57  0.002075708    1.343    0.256
        78  -8.5263     46.6827    162.2924   1.3136315310e+02   3.6213743121e+01     0.137539   0.09353571  73.23  0.000316065    1.601    0.375
        79  -9.6676    226.6669    156.8431   8.7698521342e+01   4.4114816558e+00    0.3215633    0.2269835 -15.64  0.001255112    1.754    0.430
        80  -8.6492     41.3866    157.8061   1.3207405769e+02   3.7914503188e+01    0.1974117     0.102356 -57.70 0.0009419741    1.676    0.403
        81 -10.7200    249.7695    151.1410   8.2547233000e+01   1.2718832234e+00    0.5995293    0.3421076 -50.67  0.002880676    1.754    0.430
        82 -10.1177    242.5198    152.9987   8.4124548904e+01   2.2159124127e+00    0.3358618    0.2289262 -53.63   0.00129403    1.532    0.347
        83 -11.2767    244.0825    148.6803   8.2964381137e+01   2.7272742283e+00    0.6340694    0.3184833 -40.20  0.002134085    1.752    0.429
        84  -9.6285    234.7345    147.9399   8.4380530114e+01   4.5822544385e+00    0.2635772    0.1982473 -49.77 0.0009289038    1.270    0.213
        85  -9.3880    233.0135    152.5224   8.5651419646e+01   4.0416576065e+00     0.341271    0.2358582 -16.30  0.001419966    1.826    0.452
        86  -8.9727    229.3275    152.6774   8.6333899934e+01   4.7037148028e+00    0.2140967    0.1849655  75.71 0.0008627172    1.422    0.297
        87  -9.3995    221.6461    153.0671   8.7806313343e+01   6.0983117778e+00    0.2273124    0.2061566  72.79 0.0005976801    1.280    0.219
        88  -8.4188    118.6780    153.3404   1.1093447930e+02   2.7216562342e+01    0.1623808    0.1206217  82.62 0.0007050544    1.721    0.419
        89  -9.7658    229.6830    148.0328   8.5277853960e+01   5.5202101861e+00    0.3096946    0.1548446 -45.06  0.001112031    1.834    0.455
        90 -10.0758    224.2391    146.5273   8.5920319158e+01   6.8605055455e+00    0.3985167    0.2587876 -34.50  0.001619528    1.495    0.331
        91  -8.0740    174.4742    148.4779   9.6344667910e+01   1.6782861506e+01    0.1548192    0.1498892 -66.86 0.0008094925    1.032    0.031
        92  -8.8176    111.8058    147.5681   1.1149443735e+02   2.9913415601e+01    0.2122968    0.1427556  53.32 0.0006144861    1.604    0.377
        93 -10.3711    230.3096    141.2307   8.3704591466e+01   6.6943301364e+00     0.370419     0.201994 -46.87 0.0009206636    1.699    0.412
        94  -9.1590      9.3381    141.7077   1.3818774860e+02   4.4729867643e+01    0.1231493   0.08163914  72.16 0.0005048435    1.645    0.392
        95  -9.4745    250.2253    140.1623   8.0205128160e+01   3.1736277397e+00    0.2470459    0.1668637 -38.37 0.0006859472    1.298    0.230
        96 -10.4754    249.1411    134.7523   7.9248261310e+01   4.3486963419e+00    0.4188866    0.2339434 -48.07  0.001330572    1.620    0.383
        97 -10.2485    248.7916    130.7691   7.8470035283e+01   5.1339943220e+00    0.3249423    0.2276226  71.65  0.001320394    1.899    0.474
        98 -10.3834    225.0829    138.3760   8.3993947826e+01   8.2667235729e+00     0.460043     0.216343 -31.77  0.001737483    2.518    0.603
        99 -10.0610    218.9719    138.9422   8.5208654021e+01   9.3831783763e+00    0.2734642    0.1938958  82.47  0.001234114    2.093    0.522
       100  -9.4949    209.7093    138.0137   8.6714130619e+01   1.1470177977e+01    0.2196742    0.1889149 -46.86  0.001054164    1.088    0.081
       101 -11.2688    241.6636    133.5825   8.0178046191e+01   5.9523623879e+00     0.553751    0.4041179 -57.94  0.002418037    1.404    0.288
       102 -10.7633    232.9916    135.0644   8.1915787688e+01   7.3407563672e+00    0.4002971    0.2932894  59.05   0.00208973    1.576    0.366
       103  -8.9844    164.6524    136.3108   9.5724530994e+01   2.1590303104e+01    0.1631784    0.1249609 -89.97 0.0007045469    1.711    0.416
       104  -9.1280     52.8942    135.8515   1.2543630466e+02   4.1953592488e+01    0.2074171    0.1720456 -43.42 0.0006004855    1.217    0.178
       105  -9.5475    169.8824    134.6156   9.4136170534e+01   2.0807727838e+01    0.2565054    0.2131553 -31.72 0.0005256158    1.274    0.215
       106  -8.4053    234.3076    130.2989   8.0666777017e+01   7.9791162373e+00    0.1359162    0.1099368  -5.31 0.0004079741    1.594    0.373
       107  -9.0456    221.4846    129.5140   8.2668364197e+01   1.0702509771e+01    0.2406554    0.1420474  64.28  0.001025174    2.202    0.546
       108  -9.5408    193.1123    127.6296   8.7548297168e+01   1.7138148101e+01     0.282622    0.2029796 -53.99  0.001316625    1.395    0.283
       109  -9.8688    206.2023    126.8914   8.4841138522e+01   1.4432940806e+01    0.2296629    0.1934657 -65.25 0.0005911601    1.222    0.181
       110 -10.6956    241.2963    124.5293   7.8308234170e+01   7.6875526368e+00    0.3868641    0.3240845 -77.19  0.002213289    1.318    0.241
       111  -9.7871    229.3719    125.4463   8.0424606223e+01   9.8729022317e+00    0.2742351    0.2517506   8.61  0.001578382    1.293    0.226
       112  -9.9564    212.4265    124.6264   8.3176788723e+01   1.3546890453e+01     0.383166    0.2854725   1.07  0.001746107    2.058    0.514
       113  -8.5558    113.8231    126.6269   1.0615893296e+02   3.4521604560e+01    0.2087131    0.1427989  52.75 0.0004193213    1.590    0.371
       114  -9.1515    251.0000    124.0136   7.6727291153e+01   5.9411224031e+00    0.2370653   0.06817748 -41.07 0.0008102548    2.997    0.666
       115  -9.4667    189.0590    122.9935   8.7263623330e+01   1.8987862218e+01    0.4156083    0.2055138 -37.93  0.001586157    2.083    0.520
       116  -9.1331    161.1487    124.3243   9.3624150744e+01   2.4988690963e+01    0.2178385    0.1997947  67.92 0.0006793517    1.118    0.105
       117  -9.5677    221.5596    120.9471   8.0741009698e+01   1.2330325280e+01    0.2723364    0.2170852  64.90  0.001020152    1.382    0.276
       118  -9.3118    244.2590    119.5736   7.6799429194e+01   8.0179320286e+00    0.2785363    0.1899853 -72.58  0.001369263    1.867    0.464
       119 -10.6155    235.7063    116.1230   7.7368867568e+01   1.0331782470e+01    0.6520671    0.1932601 -48.08  0.002119694    3.340    0.701
       120  -8.9342    124.9581    119.9690   1.0150970430e+02   3.3818568907e+01    0.2298997    0.1867208  88.55 0.0003468347    1.518    0.341
       121 -11.0116    230.1107    115.9199   7.8208725134e+01   1.1505274279e+01    0.4328994    0.3163702  70.61  0.002231503    1.594    0.373
       122 -10.8947    235.9621     73.5539   6.8119926886e+01   1.7678319045e+01     0.930589    0.3694816 -47.87  0.003901907    2.252    0.556
       123 -10.7384    237.4338     89.7379   7.1399052762e+01   1.4671791457e+01    0.4116395    0.2833366 -89.86  0.001621405    1.703    0.413
       124 -10.2773    237.6980     84.1399   7.0159921675e+01   1.5566563080e+01    0.4809746    0.2362677 -50.80  0.002181542    1.860    0.462
       125 -11.3630    241.9085    105.3407   7.4114759323e+01   1.1033548903e+01     1.115968     0.241866 -45.20  0.003363748    4.006    0.750
       126 -11.1969    245.1497     97.8017   7.2056969049e+01   1.1706783299e+01    0.6459861    0.4531659  85.97  0.003423998    1.700    0.412
       127 -10.6992    242.9862     92.3979   7.1208368765e+01   1.3074003422e+01    0.4381829    0.2675005 -41.07  0.001796506    1.502    0.334
       128 -10.3991    247.1984     86.8522   6.9486379021e+01   1.3160754682e+01    0.4737858    0.2887497  59.37  0.002284135    1.800    0.444
       129 -11.0148    244.5068     80.9617   6.8599108296e+01   1.4685748184e+01    0.7132776    0.4132908  73.85  0.003527559    1.991    0.498
       130 -10.1832    242.8886     76.3250   6.7831356242e+01   1.5777059396e+01    0.3062632    0.2398914 -49.53  0.001084558    1.165    0.141
       131 -11.2835    247.5926    111.9301   7.4693056284e+01   8.7447972497e+00    0.5943027    0.4495467 -38.13  0.003343684    1.250    0.200
       132 -11.3414    248.6676    106.6240   7.3426089924e+01   9.4736219671e+00    0.7599812    0.3254577 -39.21  0.003224623    2.126    0.530
       133 -10.8880    213.5606    115.4754   8.0881366164e+01   1.5076511170e+01    0.4113747    0.2370508  42.40  0.001287642    2.033    0.508
       134  -9.0601    182.3726    116.1683   8.6977654218e+01   2.1891895291e+01    0.2248743    0.1375534 -52.23    0.0009423    1.668    0.401
       135  -8.7601     52.3450    113.2142   1.2112862188e+02   4.7418672825e+01    0.1953489    0.1185539 -66.60 0.0009359556    1.685    0.407
       136  -9.9466    104.5562    111.8306   1.0505205567e+02   3.9685100181e+01    0.2578058    0.2107065  35.88 0.0004460154    1.273    0.214
       137  -9.6406     15.0571    112.0420   1.3237690855e+02   5.1217031414e+01    0.1901336    0.1527048 -60.57  0.000483694    1.011    0.011
       138  -9.4674    236.2454    107.9704   7.5516137681e+01   1.1706234439e+01    0.2036994    0.1687569 -53.06 0.0006582186    1.063    0.059
       139  -9.9666    214.9561    107.8782   7.8896485175e+01   1.6215243710e+01    0.2632139    0.2078488  71.25  0.001369715    1.367    0.269
       140  -8.9299    183.4705    108.4786   8.4862262361e+01   2.3187601555e+01    0.1543644    0.1435964 -73.63 0.0001341141    1.047    0.044
       141  -8.5315    196.2871    103.3317   8.1128887716e+01   2.1248658000e+01    0.1447961     0.120833   2.18 0.0005989516    1.621    0.383
       142  -8.3252    235.3011    102.6236   7.4495034795e+01   1.2858999247e+01    0.1501559   0.09734155 -67.04 0.0007027175    1.761    0.432
       143  -9.5830    221.4067    100.6463   7.6188028525e+01   1.6150450232e+01    0.2890278    0.1220137 -45.36  0.001132615    2.160    0.537
       144 -10.5414    236.9147     98.4963   7.3363506366e+01   1.3257930125e+01    0.4269837     0.243213  68.13  0.001980315    2.098    0.523
       145  -9.7406    130.3549     97.9636   9.4277763846e+01   3.7420619919e+01    0.2693931    0.2221621  34.78 0.0005592058    1.259    0.206
       146 -10.1253    230.7583     94.4542   7.3376500011e+01   1.5255137451e+01    0.3505944    0.2196326 -44.79  0.001506057    1.440    0.305
       147  -8.9078    171.3038     91.9415   8.3146946108e+01   2.9229926824e+01    0.2737992    0.1648846  21.30 0.0009069608    3.577    0.720
       148  -9.9266    218.9888     90.2336   7.4201540428e+01   1.8542852043e+01     0.182526    0.1170642  60.87 0.0008786382    1.627    0.385
       149 -10.0246    226.0539     86.2622   7.2248960249e+01   1.7687908406e+01    0.4058886    0.2289578 -32.17  0.001821619    2.035    0.509
       150  -9.1133    232.6808     85.3267   7.1101400100e+01   1.6424307111e+01    0.2295431    0.1749125 -66.01 0.0007848649    1.231    0.188
       151  -9.7135    231.2167     82.3675   7.0657977400e+01   1.7237095083e+01    0.3197124    0.2122875  60.90  0.001327124    1.586    0.370
       152  -8.6248    117.3067     85.3030   9.4171962214e+01   4.2712467628e+01    0.1485001    0.1155002   4.84 0.0004989518    1.601    0.375
       153  -8.4764    135.2750     83.6443   8.9022650010e+01   3.9135249466e+01    0.1508214    0.1170831 -75.23 0.0007005034    1.648    0.393
       154  -8.9180     88.1973     82.2326   1.0177309240e+02   4.8901169888e+01    0.1841373     0.168955 -85.57 0.0006246975    1.362    0.266
       155  -9.3844    195.8522     78.6644   7.5201270708e+01   2.5829214769e+01     0.506476     0.151774 -52.52  0.001293456    5.476    0.817
       156  -9.1936    175.7876     77.7989   7.8579781110e+01   3.0723234326e+01    0.2129338    0.1698427 -76.91 0.0008288733    1.358    0.264
       157 -10.1245    214.0032     76.2557   7.1753097983e+01   2.2055646333e+01    0.2969402    0.2402452  72.76  0.001657528    1.222    0.182
       158  -9.9555    227.1395     73.8301   6.9341554115e+01   1.9534479978e+01    0.3361403    0.1901874 -45.48   0.00131144    1.609    0.378
       159  -8.5839    126.3366     76.6976   8.9265202607e+01   4.2385175849e+01    0.1468821     0.117042 -87.30  0.000703724    1.665    0.399
       160  -8.7187    134.0000     74.0075   8.6561160479e+01   4.1161564786e+01    0.2357158    0.0837518 -38.58 0.0007979032    2.911    0.656
       161  -9.4250    249.6260     71.0884   6.5937782007e+01   1.5235633991e+01    0.2362848     0.165681  46.76  0.001308224    1.896    0.473
       162  -9.6443    241.7699     69.0595   6.6448792914e+01   1.7172598936e+01    0.2697213    0.1686917  59.04  0.001439816    1.727    0.421
       163  -8.5337    219.2993     69.3192   6.9410815725e+01   2.1999048607e+01    0.1262529     0.110632  20.08 0.0003990382    1.619    0.382
       164 -10.9962    226.2068     66.7639   6.7911457716e+01   2.0873180354e+01    0.5170161    0.3334643  89.22  0.002614691    1.721    0.419
       165  -9.4753    221.2975     61.4085   6.7371151355e+01   2.2796473960e+01    0.2887595    0.1561022 -57.58  0.001049042    1.862    0.463
       166  -9.9930    250.0081     65.7516   6.4810835994e+01   1.5992172500e+01    0.2984837    0.1759495 -51.13 0.0009251299    1.448    0.309
       167  -9.5383    238.5335     65.0316   6.5994394345e+01   1.8484054396e+01    0.2178489    0.2025294 -40.13  0.001019145    1.322    0.244
       168  -9.3334    227.1528     61.0544   6.6542134700e+01   2.1553953137e+01    0.3711513    0.1298082 -49.89  0.001012506    2.758    0.637
       169  -9.1220     44.1701     62.4087   1.1080965851e+02   5.9044770064e+01    0.1544778    0.1141648  34.46 0.0004450104    1.561    0.360
       170  -9.4935    206.7194     60.3087   6.9114346211e+01   2.6279493840e+01    0.2620422    0.1503698 -49.62  0.001201757    1.672    0.402
       171  -8.8451    238.4932     60.4835   6.5046393832e+01   1.9192206914e+01    0.1813301    0.1169737  56.65 0.0007527081    1.726    0.420
       172  -9.2053    234.8789     60.1176   6.5395545447e+01   2.0019089953e+01    0.2332848    0.1697481  83.21 0.0008070127    1.333    0.250
       173  -9.8771    171.7859     59.1641   7.4433951264e+01   3.4718546339e+01    0.3713132    0.2238743  57.24  0.001492211    1.555    0.357
       174  -9.8072    213.8181     57.6382   6.7515461890e+01   2.5058090949e+01    0.2999547    0.2340531  56.29  0.001481396    1.393    0.282
       175  -9.5832    126.5242     58.5183   8.3765946102e+01   4.5381600792e+01    0.1396566    0.1323296  47.40 0.0001758367    1.033    0.032
       176  -9.5528    250.3585     54.6179   6.2540704005e+01   1.7601896197e+01    0.2811834    0.1430104 -45.55   0.00144675    1.705    0.413
       177 -10.6198    228.5749     52.2563   6.4470458708e+01   2.2560533851e+01    0.4252962     0.353832 -64.14   0.00195304    1.079    0.073
       178 -10.7953    244.1368     42.0818   6.0682413996e+01   2.0679776588e+01    0.3652751    0.2763849 -52.82  0.001428726    1.218    0.179
       179 -10.3977    244.6573     51.4822   6.2512298592e+01   1.9235899438e+01    0.4232904    0.2489361 -78.15  0.001658035    1.814    0.449
       180 -10.0486    249.6776     46.6235   6.1029852414e+01   1.8897140359e+01    0.5762241    0.2058195 -41.24  0.002565385    2.467    0.595
       181 -11.0550    199.5746     53.5983   6.8556038124e+01   2.8950497970e+01    0.4152261    0.3506382 -83.50   0.00244323    1.073    0.068
       182  -8.7774    207.6108     53.8034   6.7476868821e+01   2.7053030756e+01    0.1856024    0.1136362 -51.50 0.0004992018    1.565    0.361
       183  -9.4076    163.5336     53.3022   7.4365506179e+01   3.7566696997e+01    0.2579652    0.1314816 -40.63  0.001129191    2.033    0.508
       184 -10.4051    236.8025     53.7477   6.3835778348e+01   2.0561190073e+01    0.6167501    0.2512695  71.29  0.002621138    2.695    0.629
       185  -8.6700    162.6495     46.3004   7.2621954300e+01   3.8767864184e+01    0.1440534    0.1018613 -79.13  0.000703783    1.693    0.409
       186  -8.8355    238.3360     45.0991   6.1884825066e+01   2.1480314488e+01    0.1795876    0.1419456 -65.02  0.001127275    1.074    0.069
       187  -9.5435    233.4197     43.6018   6.2100680811e+01   2.2743626275e+01    0.3127498     0.199461  36.18  0.001495943    2.896    0.655
       188  -9.9200    189.4835     43.2522   6.7513929238e+01   3.2791092164e+01    0.3402302    0.1315719 -34.72  0.001368644    2.752    0.637
       189  -8.5281     76.6837     44.3024   9.3197127217e+01   5.7373022694e+01    0.1147723     0.105164  89.70 0.0003769628    1.620    0.383
       190  -9.9174    219.4783     42.5234   6.3437468915e+01   2.5961739878e+01    0.2496511     0.208465  89.48 0.0009109424    1.068    0.064
       191  -9.7448    216.4745     41.4483   6.3556039586e+01   2.6784901130e+01    0.3320847    0.2418891  40.89  0.001830211    1.905    0.475
       192  -8.6064    134.4928     42.5162   7.7064423655e+01   4.5872340229e+01    0.1359023    0.1246889  62.24 0.0008097671    1.057    0.054
       193 -11.0534    201.1756     38.1966   6.4711291853e+01   3.0727440557e+01     0.447689    0.2144496 -25.89   0.00189471    2.961    0.662
       194  -9.2220    173.6198     39.8189   6.9050701857e+01   3.7018124494e+01    0.1887383    0.1172281 -48.15 0.0009442893    1.687    0.407
       195  -8.9562    165.5284     40.0081   7.0422847950e+01   3.8921567367e+01    0.1942802    0.1339756 -36.90 0.0008774402    1.575    0.365
       196  -9.8259    238.6010     38.3385   6.0485843471e+01   2.2358506117e+01    0.2597221    0.2012593  87.81  0.001193164    1.153    0.132
       197  -8.9920    209.0274     39.3403   6.3985406009e+01   2.8763890628e+01    0.1852909    0.1501612  86.59 0.0005575335    1.081    0.075
       198 -10.8073    185.5726     37.5354   6.6671449387e+01   3.4474754416e+01    0.4169558    0.2035364 -46.75  0.001920294    2.095    0.523
       199  -9.3760    162.3204     37.7098   7.0346425280e+01   3.9979359163e+01    0.2650558    0.1749691  31.93 0.0009707596    1.991    0.498
       200  -9.0206     61.4580     38.0747   9.6149711817e+01   6.0711632874e+01    0.1806745    0.1121522 -32.77  0.001023216    1.576    0.366
       201  -9.5456    233.2977    247.2665   1.0383166485e+02  -1.2026229421e+01     0.236642     0.179112  62.79  0.001327501    2.568    0.611
       202  -9.3293    249.0751    246.3980   1.0083235455e+02  -1.4044793037e+01    0.2074221     0.153625 -28.81 0.0008134356    1.359    0.264
       203  -9.1106    186.9010    247.1006   1.1269969192e+02  -4.9751245601e+00    0.1868667    0.1643264  46.02 0.0005552684    1.250    0.200
       204  -9.8995    191.6300    245.3407   1.1148135731e+02  -5.4525185973e+00    0.3035833    0.1962101  12.80  0.001582282    1.824    0.452
       205 -10.1952    225.1096    242.6543   1.0456971769e+02  -1.0191082111e+01    0.3515293    0.2469512 -34.37   0.00209834    1.478    0.324
       206  -9.4470    202.4722    242.1922   1.0883197932e+02  -6.6761345490e+00    0.2434288     0.161515  33.34  0.001235267    1.347    0.258
       207 -10.2802    240.0406    240.3765   1.0141983076e+02  -1.1990541452e+01    0.2756245    0.2101888  33.16  0.001050276    1.390    0.281
       208 -10.0463    234.3803     19.6501   5.7158628583e+01   2.5653024025e+01    0.2956175    0.2200038  39.52  0.001759084    2.144    0.533
       209  -9.7531    246.7047    240.4541   1.0023188912e+02  -1.2913211688e+01    0.2410279    0.1883005 -22.40 0.0008554881    1.219    0.180
       210  -9.1692    243.6316    236.7893   1.0014486183e+02  -1.1974778822e+01    0.1799632    0.1643637 -25.73 0.0008119887    1.382    0.277
       211 -10.9253    227.3257     33.1781   6.0579289456e+01   2.5477596182e+01    0.5373356    0.2237927 -48.18  0.002529291    2.171    0.539
       212  -9.7275    242.1086     34.3046   5.9338417441e+01   2.2159779600e+01    0.2256654    0.1264703 -57.08 0.0008008585    1.561    0.360
       213  -8.6854    190.7574     33.9670   6.5082284134e+01   3.3708729057e+01    0.1612898    0.1106425 -37.37 0.0008779588    1.585    0.369
       214 -10.1975    236.6483     31.0297   5.9209336327e+01   2.3744131952e+01    0.2612906    0.1892887  63.62  0.001175434    1.488    0.328
       215  -9.4250    221.5619     31.1630   6.0761418367e+01   2.7008772451e+01    0.2491584    0.2024619 -62.78  0.001598993    1.139    0.122
       216  -9.8577    214.6241     30.4946   6.1370845390e+01   2.8645452716e+01    0.4753873    0.2926668  61.77  0.002632899    1.581    0.367
       217 -10.4514    201.8934     26.4127   6.1915594996e+01   3.2051770485e+01    0.3780861    0.2935754 -10.48  0.001811052    1.926    0.481
       218  -9.3287    174.5465     27.4793   6.5736676246e+01   3.8322479772e+01    0.2322636     0.130421 -32.00 0.0006967801    2.015    0.504
       219 -10.8215    224.8938     22.8866   5.8693170970e+01   2.7309139163e+01    0.4467863    0.2827832  81.20  0.002620668    1.395    0.283
       220  -9.0383    145.6535     25.3000   6.9785661073e+01   4.5365725993e+01    0.1331459   0.09572587 -79.35  0.000703736    1.682    0.406
       221  -9.4663    214.9619    240.5026   1.0612804778e+02  -8.3511181145e+00    0.2413764    0.1830116 -28.77   0.00122974    1.340    0.254
       222  -9.2329    199.5151     20.9237   6.0945387809e+01   3.3246541873e+01    0.1741042    0.1204049 -41.09  0.000608865    1.542    0.351
       223  -9.5673    176.0207     21.0083   6.3895943232e+01   3.8708466157e+01    0.1606853    0.1318823  77.07 0.0004995691    1.038    0.037
       224  -9.7429    226.2562     17.9958   5.7565241437e+01   2.7598391019e+01    0.1721712      0.13677 -69.08 0.0006430254    1.102    0.092
       225  -8.5619    182.5457    239.5204   1.1235421602e+02  -3.0101493597e+00    0.1312991    0.1153288  24.08 0.0001510205    1.004    0.004
       226  -9.4985    221.0000     17.9451   5.8050056040e+01   2.8753644322e+01    0.2240576      0.17834 -38.89  0.001135729    1.473    0.321
       227  -9.2592    218.0033     16.0000   5.7934374606e+01   2.9639950786e+01    0.2387767    0.1462922  77.79 0.0008053927    1.413    0.292
       228  -8.6338    141.3368     17.6637   6.8342652213e+01   4.7160163913e+01    0.1311864   0.09278525 -75.10 0.0003459765    1.749    0.428
       229  -8.8059     73.6757     17.3146   8.4174618860e+01   6.1246066389e+01    0.1052524   0.09703375 -84.12 0.0003316059    1.664    0.399
       230 -10.0928    230.9961    236.8920   1.0247669445e+02  -1.0197219564e+01     0.277599    0.1727579 -36.23  0.001050494    1.624    0.384
       231  -8.2584    187.3035     16.7095   6.1402949823e+01   3.6540351655e+01    0.1294188   0.08437972 -74.40 0.0003160569    1.570    0.363
       232  -9.1853    162.6346     15.3779   6.4327212543e+01   4.2441726445e+01    0.2025718    0.1363005 -76.17  0.001106362    1.670    0.401
       233  -8.7514    207.4396     13.8318   5.8519528478e+01   3.2242658721e+01     0.141093    0.1229482 -17.24 0.0005566266    1.609    0.379
       234  -8.5561    172.9840     14.5234   6.2678649803e+01   4.0108789568e+01     0.180382   0.08092777  48.78  0.000663563    2.346    0.574
       235  -8.6772    148.6818    238.6742   1.1917064940e+02   2.8758128030e+00    0.1317599    0.1028414   2.55 0.0005272285    1.676    0.403
       236 -10.6536    205.7127    235.4759   1.0706280232e+02  -6.1179161143e+00    0.3841709    0.3590132 -24.58  0.001918454    1.227    0.185
       237  -9.5638    219.2417    235.4235   1.0443564909e+02  -8.2211535837e+00     0.247008    0.1109829  32.71  0.001141697    2.123    0.529
       238  -8.7800    248.4078    234.2574   9.8843484690e+01  -1.2267129080e+01    0.1562291    0.1062981 -39.52 0.0009413774    1.606    0.377
       239  -9.4284    244.5569    231.2875   9.9006866903e+01  -1.1304976092e+01    0.2387512    0.1551219 -43.42 0.0009086066    1.776    0.437
       240  -9.3815    243.7106    225.4651   9.8115468549e+01  -1.0318848129e+01     0.368372    0.1728892 -39.55  0.001827181    2.084    0.520
       241  -8.8447    132.0000     23.4760   7.1801012610e+01   4.8695511168e+01    0.2636583   0.07525646 -27.76 0.0009452348    4.020    0.751
       242  -9.8142    237.7543    231.3080   1.0024600911e+02  -1.0342488651e+01    0.3876054    0.2433872  58.91  0.001763301    3.483    0.713
       243  -9.3823    118.3385     10.6876   7.0530877343e+01   5.2968922376e+01    0.1207771   0.09270931 -79.37 0.0007046101    1.693    0.409
       244 -10.9247    229.4305    227.2922   1.0107089666e+02  -8.5020741273e+00    0.5619984    0.2226359 -41.19  0.002486392    2.557    0.609
       245 -10.2126    227.4537    219.6464   1.0005512381e+02  -6.9828323286e+00    0.4181295    0.2391866 -30.67  0.001733544    1.725    0.420
       246  -9.5627    215.9931    230.7818   1.0424695560e+02  -6.9879790433e+00    0.2387825    0.1511906 -22.57  0.001267114    1.696    0.410
       247 -10.3256    248.2825    227.0410   9.7579920589e+01  -1.1199403271e+01    0.3320392       0.1686 -32.90  0.001196678    1.829    0.453
       248  -9.0713    199.3158    227.8135   1.0700205947e+02  -3.8078102830e+00     0.260987    0.1196932 -50.29  0.001099696    2.729    0.634
       249  -9.2738    224.3004    225.1847   1.0165919876e+02  -7.3857397934e+00     0.225558    0.1488595 -30.73  0.001256356    1.474    0.322
       250  -9.1394     99.2358    226.2346   1.2786256064e+02   1.3683079908e+01    0.1933874    0.1385019  65.93 0.0008954557    1.353    0.261
       251 -11.1373    208.4393    223.6925   1.0445977274e+02  -4.6136323669e+00    0.4057029    0.2526646  28.61   0.00210989    1.555    0.357
