#   1 NUMBER                 Running object number                                     
#   2 MAG_AUTO               Kron-like elliptical aperture magnitude                    [mag]
#   3 X_IMAGE                Object position along x                                    [pixel]
#   4 Y_IMAGE                Object position along y                                    [pixel]
#   5 X_WORLD                Barycenter position along world x axis                     [deg]
#   6 Y_WORLD                Barycenter position along world y axis                     [deg]
#   7 A_WORLD                Profile RMS along major axis (world units)                 [deg]
#   8 B_WORLD                Profile RMS along minor axis (world units)                 [deg]
#   9 THETA_WORLD            Position angle (CCW/world-x)                               [deg]
#  10 FWHM_WORLD             FWHM assuming a gaussian core                              [deg]
#  11 ELONGATION             A_IMAGE/B_IMAGE                                           
#  12 ELLIPTICITY            1 - B_IMAGE/A_IMAGE                                       
         1 -13.5376    232.2394     26.4492   3.5468594324e+02   2.4986478931e+01    0.8247381    0.6668978 -51.01  0.004022543    1.081    0.075
         2 -10.2686    250.0061     10.9883   3.5047556158e+02   2.3309493176e+01    0.1421928   0.09941836 -48.86 0.0005046333    1.059    0.055
         3 -10.0143    227.1985      9.5550   3.5122456908e+02   2.7811332429e+01    0.2223552    0.1674405 -52.06 0.0007222054    1.057    0.054
         4  -9.5399     21.3208      1.6754   3.3402109512e+01   7.7847065614e+01     0.113612    0.1024798  76.45 0.0007046503    1.679    0.405
         5  -9.4968     65.7571    247.6320   6.9909438315e+01   1.4968315204e+01    0.1039901   0.08662954 -15.72 0.0006934049    1.613    0.380
         6 -11.4112    101.2719    247.4029   6.2100767727e+01   1.0780044284e+01    0.5380135    0.3054321 -67.75  0.002934248    2.477    0.596
         7 -10.7350    102.9086    237.9258   6.0823782095e+01   1.2164190575e+01    0.3435566    0.2171023 -56.20  0.001446488    1.985    0.496
         8 -10.5140    104.0332    232.7104   6.0037216471e+01   1.2923899772e+01    0.2054949    0.1836268 -13.25 0.0004664965    1.308    0.236
         9 -13.0153    111.6903    229.1764   5.7922791591e+01   1.2541281080e+01      3.79616     1.684152  43.52   0.01799018    2.082    0.520
        10 -11.7607    133.0652    211.5211   5.0863151566e+01   1.2720154436e+01    0.3703063    0.1898134  33.55  0.001451915    1.638    0.390
        11 -12.5756     27.2643    250.2222   7.8409384247e+01   1.8594314500e+01    0.2862784     0.164113  23.38  0.001461726    1.638    0.390
        12 -15.1275     64.0504    149.3781   6.0510313328e+01   3.6787857847e+01     3.849789      2.82046 -79.39   0.01893223    1.434    0.303
        13  -9.7774    210.8839    198.6532   3.3195477193e+01   4.0083667374e+00    0.1977201    0.1505957 -25.29 0.0004300434    1.252    0.201
        14 -10.9667     68.9518    193.9601   6.4593357248e+01   2.5302614129e+01    0.3264328    0.2112557  72.56  0.001225162    1.777    0.437
        15 -10.5069     47.2300    229.1811   7.2918714528e+01   2.0483988800e+01    0.1974699    0.1302967  51.14 0.0009007832    1.250    0.200
        16  -9.0768     43.2483    228.4351   7.3806085442e+01   2.1064281949e+01    0.3023144    0.1252303  42.16 0.0006604773    1.771    0.435
        17 -10.5929     44.7786    188.2597   7.0637027694e+01   2.9574319561e+01    0.3355097    0.2014921  65.00  0.001372815    1.652    0.395
        18  -8.8753    237.7441    188.9498   2.7199231063e+01   1.9990285429e+00    0.1421649   0.07943773 -29.11 0.0005319211    1.503    0.335
        19 -18.4369     13.0977    205.0341   7.9953109571e+01   2.8939188685e+01     9.310947     3.736486 -83.89   0.04291943    2.547    0.607
        20 -11.7494     71.9351    185.8333   6.2891790813e+01   2.6751461850e+01    0.3287047     0.227788  56.70 0.0003819317    1.409    0.290
        21 -10.3461     37.3840    175.9909   7.1724884300e+01   3.3332216147e+01     0.566438    0.1943134  23.45  0.002092433    2.899    0.655
        22 -11.2450     48.9941    174.9507   6.8246288976e+01   3.2273763938e+01    0.6075353     0.283006  57.69  0.001354931    2.271    0.560
        23 -10.7136     49.4638    183.4851   6.8917852320e+01   3.0158795768e+01    0.2655691    0.2158218  89.16 0.0005960288    1.259    0.206
        24 -12.8670     46.0243    180.1190   6.9588883569e+01   3.1366045456e+01    0.4960118     0.435135  84.83  0.001517997    1.153    0.133
        25  -9.7785     97.1806    182.8272   5.5641267325e+01   2.3790290460e+01    0.1930809    0.1673159  -7.77  0.001071122    1.327    0.246
        26 -10.0005     49.8526    246.7204   7.3354329290e+01   1.6899082526e+01    0.2645789    0.1036246  48.32 0.0006003167    2.022    0.506
        27 -11.0742    179.9831    167.2445   3.3336935078e+01   1.3358301672e+01    0.7017879    0.4460315 -41.79  0.003692584    1.589    0.371
        28 -11.3025    171.6200    174.9669   3.6481016033e+01   1.3361204324e+01    0.3720506     0.324057  24.69  0.001159814    1.129    0.114
        29 -11.0324    173.4915    171.4660   3.5446663476e+01   1.3674371770e+01    0.3524128    0.2620913  37.46  0.001412857    1.357    0.263
        30  -9.1811     91.4540    176.2536   5.6254108955e+01   2.6143663724e+01    0.1865763     0.140452 -86.72 0.0006477336    1.594    0.373
        31 -11.6577    105.1492    171.9047   5.1845511215e+01   2.4975023225e+01    0.5166768    0.3603107  66.33 0.0006262211    1.806    0.446
        32  -9.3967     75.9802    244.2289   6.7397450905e+01   1.4378389606e+01    0.1484018    0.1179059  36.80 0.0002761138    1.044    0.042
        33 -11.9392    113.5026    172.4854   4.9714252043e+01   2.3480183429e+01    0.4125417    0.3288859  58.43  0.002166109    1.371    0.271
        34 -10.7040    110.6768    166.9067   4.9525535015e+01   2.5184843247e+01    0.3817146    0.2845584  89.59  0.001464163    1.810    0.447
        35 -11.5314     97.5490    168.5265   5.3391139109e+01   2.6970855921e+01    0.5700884      0.35776  51.32  0.002606543    1.638    0.389
        36 -10.7103     86.4799    168.5180   5.6520574091e+01   2.8710021378e+01     0.441508     0.264431  19.79    0.0019079    1.913    0.477
        37  -9.8505     89.8116    171.1707   5.5967770627e+01   2.7572703018e+01     0.281543    0.2140079 -61.52 0.0008783158    1.432    0.302
        38 -10.6384     92.1765    166.8162   5.4634529303e+01   2.8225583942e+01     0.379434    0.2924504 -28.15  0.001889326    1.602    0.376
        39  -8.8893     78.1583    184.0974   6.0971930797e+01   2.6291467855e+01    0.1933129    0.1766175   7.35 0.0004226213    1.221    0.181
        40  -9.5691    229.6799    166.3260   2.4444055565e+01   6.0804046723e+00    0.1068818   0.09118441 -53.17 0.0007046751    1.681    0.405
        41 -10.8797     79.6112    164.5028   5.7926271930e+01   3.0717460086e+01     1.063535    0.6382489  -2.21  0.003929441    3.093    0.677
        42 -11.2429     84.4002    163.1815   5.6318883400e+01   3.0309312528e+01    0.5367739     0.396014 -88.44  0.002621785    1.591    0.372
        43 -11.0471     54.1562    222.5588   7.0837404898e+01   2.1023218945e+01    0.2218723    0.1648718 -87.83  0.001374838    1.518    0.341
        44 -10.4496    117.1857    159.2706   4.6420341708e+01   2.5778799441e+01    0.2874357    0.2521204 -27.74 0.0008020602    1.240    0.194
        45 -11.9080    132.9985    145.0663   3.9471031620e+01   2.6022827784e+01    0.9760963    0.3384688 -54.03  0.001639898    3.533    0.717
        46 -12.8487     86.8127    146.6548   5.2857429007e+01   3.3989332958e+01     1.051357    0.6571496 -21.68  0.004003513    2.695    0.629
        47 -11.1604    108.8018    145.2658   4.6052274923e+01   3.0494019395e+01     0.325069    0.3111631 -68.51 0.0006686548    1.098    0.089
        48  -9.4317    175.1338    222.0841   4.3497723383e+01   5.2606572420e+00    0.1991192    0.1168121 -13.26 0.0009728865    2.012    0.503
        49  -9.9709    119.1656    149.4475   4.4004246527e+01   2.7634491883e+01     0.283664    0.1865905 -77.81   0.00115906    2.310    0.567
        50 -10.0582    146.8005    142.8108   3.5594804316e+01   2.3867676840e+01    0.1995401    0.1800603  78.93 0.0008716555    1.316    0.240
        51  -9.9008    108.9943    139.4704   4.4818265296e+01   3.1826728984e+01    0.2689455    0.2172038 -80.38 0.0005356535    1.455    0.313
        52  -9.6516    127.3852    137.7247   3.9355894414e+01   2.8714330311e+01    0.2477442    0.2239657  82.27 0.0004893884    1.245    0.197
        53 -11.8285    104.8206    131.4405   4.4335302992e+01   3.4530295238e+01    0.6174579    0.4654301 -19.60  0.001618119    1.751    0.429
        54 -11.3276     90.9522    131.3250   4.8600195639e+01   3.7117085655e+01    0.3310525    0.2808566 -42.63 0.0004131603    1.271    0.213
        55 -10.4138    135.5427    128.2630   3.5102526044e+01   2.9166634790e+01    0.4164855    0.1483814 -52.59  0.001288158    3.335    0.700
        56  -9.9237     82.3830    129.1420   5.0941782087e+01   3.9169515121e+01    0.2860712     0.230314  57.02 0.0005062638    1.251    0.201
        57  -8.4816    149.3420    126.2866   3.1279416753e+01   2.6763179219e+01    0.1515091    0.1174739   5.08 0.0005182349    1.642    0.391
        58 -11.3601    112.3724    125.5117   4.0768770714e+01   3.4473797939e+01    0.3659567    0.3015244  11.14 0.0009879464    1.443    0.307
        59 -10.2236     76.1738    120.6029   5.1288829079e+01   4.2429360025e+01    0.2588958    0.2129217 -82.29 0.0004793076    1.295    0.228
        60  -9.5722    135.0000    119.9825   3.3263943090e+01   3.1069118064e+01    0.2536263   0.08739621 -45.96 0.0007998803    2.925    0.658
        61 -10.4002     99.2417    120.9504   4.3681268333e+01   3.8148648835e+01      0.28372      0.25158  -2.96 0.0005343431    1.315    0.240
        62 -10.1954     36.6024    243.1098   7.6085966993e+01   1.8956250130e+01    0.2373658    0.1588507 -19.60  0.001339753    2.559    0.609
        63  -9.9618    107.9883    115.9969   3.9790838808e+01   3.7604420700e+01    0.2338258    0.2303112  54.84  0.001230825    1.025    0.024
        64  -9.5976     80.7301    111.4873   4.7636282535e+01   4.3987480400e+01    0.3636147    0.2291466  63.15  0.001439514    2.020    0.505
        65 -11.1706    152.2272    237.8334   5.0239270671e+01   5.8702499986e+00    0.3070082    0.1857867  -7.59  0.001465804    2.071    0.517
        66 -10.1316    134.5020    105.5012   2.9699028806e+01   3.4275411316e+01    0.3291107    0.1523359 -44.64  0.001210194    2.163    0.538
        67 -10.6634    111.8021    104.9996   3.5811338122e+01   3.9373727219e+01    0.3707103    0.2144844  68.62  0.001241755    2.936    0.659
        68 -11.5056     46.1545    238.0603   7.3690181284e+01   1.8893372931e+01    0.2106419    0.1518913 -74.97  0.001071219    1.667    0.400
        69  -9.7297    128.8082     97.3995   2.8959844738e+01   3.7271640561e+01    0.2214568    0.1461207  37.81 0.0004318188    1.649    0.394
        70 -11.0855    114.5097     95.3078   3.2322651861e+01   4.0965054423e+01    0.3383238    0.2469387  75.70  0.001451983    1.748    0.428
        71 -10.9799     40.0294    103.0222   6.1757715562e+01   5.2353376082e+01    0.2927265    0.2166661  26.93 0.0008024819    1.391    0.281
        72 -10.5517     89.1075    221.6877   6.2365708253e+01   1.6888195824e+01     0.281901    0.2064609  24.67 0.0009204617    1.226    0.185
        73  -9.5267     71.7213    222.6067   6.6614524577e+01   1.8919699069e+01    0.1213882   0.09415887 -20.88 0.0006996153    1.746    0.427
        74 -10.5026     49.1086     89.8251   5.4984673780e+01   5.4736421249e+01      0.23756    0.2005417  66.10 0.0006361598    1.264    0.209
        75 -10.8432     15.1138     89.6172   7.0779572968e+01   5.8294968585e+01     0.301913    0.1456886  31.21  0.001206545    2.074    0.518
        76  -8.9884    194.3095    221.2146   3.9731408385e+01   2.9695412636e+00    0.1443533   0.09989307 -38.74 0.0009285031    1.675    0.403
        77  -9.2642    163.5441    237.1303   4.7872802496e+01   4.5554281745e+00    0.1467655    0.1121143 -33.22 0.0004743396    1.499    0.333
        78 -12.0911    184.8450     64.5635   8.6508655807e+00   3.0093879766e+01    0.4285575    0.3758481 -57.42  0.000798345    1.019    0.018
        79 -11.0675     84.4911     65.1382   3.2468884521e+01   5.4271395729e+01    0.5972849    0.3588606  70.49  0.002150881    2.727    0.633
        80 -13.5866    201.5728     52.6952   3.4964368560e+00   2.8072466580e+01     1.110309    0.9249368  35.07  0.004056728    1.584    0.369
        81 -12.4611    207.5925     48.1049   1.7248948747e+00   2.7389865720e+01    0.4579322    0.4305297  88.02  0.001410303    1.204    0.170
        82 -10.3725     76.7618     60.3429   3.3666763377e+01   5.6952058110e+01    0.2759355    0.2591131  78.43 0.0003204028    1.123    0.109
        83 -10.0757     40.6957     54.8260   4.8830310878e+01   6.4661511525e+01    0.2465711    0.1984629   8.76  0.001015198    1.316    0.240
        84  -9.2357     51.7804     40.7658   3.6914216023e+01   6.5910771420e+01    0.1858035    0.1667029  67.89 0.0003690991    1.310    0.237
        85  -9.5400    237.5244    249.5274   3.6515020594e+01  -5.0509628262e+00    0.1028363   0.06950315   0.61  0.000628876    1.002    0.002
        86 -10.2753     60.6144     21.3954   2.2543755243e+01   6.7463904306e+01    0.2479736    0.2240177  42.17 0.0007539719    1.033    0.032
        87 -12.1237     34.2809     15.3449   3.3478983716e+01   7.3604128850e+01    0.6680558     0.230777  47.01  0.002448095    3.252    0.693
        88  -8.9286     53.6895    230.3250   7.1481290288e+01   1.9540873858e+01    0.1302012    0.1109356 -79.65 0.0003226927    1.400    0.286
        89 -14.0196    127.1860    229.6216   5.4520551095e+01   1.0410723138e+01     2.445818    0.8407815  34.03      0.01069    2.272    0.560
