#   1 NUMBER                 Running object number                                     
#   2 MAG_AUTO               Kron-like elliptical aperture magnitude                    [mag]
#   3 X_IMAGE                Object position along x                                    [pixel]
#   4 Y_IMAGE                Object position along y                                    [pixel]
#   5 X_WORLD                Barycenter position along world x axis                     [deg]
#   6 Y_WORLD                Barycenter position along world y axis                     [deg]
#   7 A_WORLD                Profile RMS along major axis (world units)                 [deg]
#   8 B_WORLD                Profile RMS along minor axis (world units)                 [deg]
#   9 THETA_WORLD            Position angle (CCW/world-x)                               [deg]
#  10 FWHM_WORLD             FWHM assuming a gaussian core                              [deg]
#  11 ELONGATION             A_IMAGE/B_IMAGE                                           
#  12 ELLIPTICITY            1 - B_IMAGE/A_IMAGE                                       
         1 -11.6742    208.7957     36.3232   3.9164760183e+01   2.9033078556e+01    0.8027586    0.7510584 -69.48  0.005295516    1.151    0.131
         2 -11.2479    224.4377     20.8503   3.4127621364e+01   2.7487864980e+01    0.7024822    0.5326194 -65.94  0.003028792    1.101    0.092
         3  -9.7952    247.1157      2.4068   2.8749369157e+01   2.4876691732e+01    0.5223947    0.2062359  81.26  0.002699889    2.429    0.588
         4  -7.3380    167.3150      1.6957   3.5122137682e+01   4.2515787215e+01    0.1302995   0.08303853 -69.65 0.0002544809    1.621    0.383
         5 -10.0541    118.6557    235.2704   1.0124235799e+02   8.6185938912e+00    0.4866099    0.2671887  14.29  0.001932501    3.300    0.697
         6 -13.8922     20.8933    221.0398   1.2057957413e+02   2.4455142345e+01     1.730694    0.4429213  55.98  0.006376052    4.053    0.753
         7 -14.3471     12.8032    213.9450   1.2176547799e+02   2.6781068717e+01     1.213883    0.6630156 -87.15  0.007056532    1.582    0.368
         8 -14.4158     30.0081    247.7429   1.2047901924e+02   1.8037340215e+01       1.0144    0.7226367  48.10  0.006870419    1.235    0.190
         9 -13.8701      1.9728    206.0784   1.2350031301e+02   2.9477811957e+01     1.651066    0.2832059 -73.60  0.005980687    4.247    0.765
        10 -14.5484     20.0681    248.3824   1.2234032162e+02   1.8983747614e+01     0.643683    0.4234237 -67.15  0.004369579    1.709    0.415
        11 -16.0292     12.4013    242.8343   1.2344414600e+02   2.0847885724e+01     2.531939     1.026196 -53.30   0.01188386    3.911    0.744
        12 -15.6193      2.9000    238.2237   1.2494117815e+02   2.2676539365e+01     1.143686    0.3462062 -76.67  0.005563394    2.892    0.654
        13 -14.6106     14.2537    232.4981   1.2255825204e+02   2.2731201355e+01    0.6084582    0.2677748  34.62  0.003350319    2.184    0.542
        14 -15.5620      6.4558    223.9604   1.2358464047e+02   2.5245380525e+01     3.653881          nan  44.48  0.008315597    5.720    0.825
        15  -9.1425    131.5511    234.1574   9.8317545917e+01   6.8336786582e+00    0.2306419    0.1469347  30.62  0.001215385    1.446    0.309
        16  -8.6199    106.5762    237.8667   1.0415220291e+02   9.9467524902e+00    0.2618301    0.1415956  60.79  0.001203675    2.316    0.568
        17  -9.5465     84.3370    231.4640   1.0819014886e+02   1.4453914436e+01    0.3489714    0.2723168 -89.06  0.001482179    1.339    0.253
        18  -8.4992    116.3023    230.3316   1.0111226652e+02   9.9341406367e+00    0.1276456    0.1017896  -7.52  0.000423331    1.653    0.395
        19  -8.9390     60.8566    225.7202   1.1264492094e+02   1.8831761611e+01    0.2652613    0.2252581   0.15    0.0012169    1.692    0.409
        20  -8.6114    118.5025    226.4768   1.0011609528e+02   1.0351604153e+01      0.13383    0.1190086  40.59 3.346587e-05    1.019    0.018
        21  -7.0705     66.3047    226.2564   1.1153004892e+02   1.8006956904e+01    0.1096084   0.09967001 -10.89 0.0002209129    1.513    0.339
        22  -8.3002     48.4879    224.7838   1.1518072373e+02   2.0576419829e+01    0.2769268    0.1151928 -76.05 0.0009986615    2.486    0.598
        23  -8.8539    218.4514    224.4427   7.8885755027e+01  -4.8457533049e+00    0.2142306    0.1954901   3.67 0.0001440501    1.282    0.220
        24  -8.8625    186.4417    225.0485   8.5297620357e+01  -1.8988775405e-01    0.2582312    0.1712796  39.29 7.432491e-05    1.493    0.330
        25  -9.8700    112.6611    224.1626   1.0110036848e+02   1.1726590708e+01     0.484055    0.2336144  33.72  0.001249837    1.941    0.485
        26  -8.8499    187.9079    220.5446   8.4231527386e+01   3.4023359063e-01    0.2344037    0.1996061  -9.12 0.0004139838    1.106    0.096
        27  -7.8954    135.2377    220.9794   9.5619349901e+01   8.7668016016e+00    0.3197397    0.1869628   8.73  0.001249012    3.106    0.678
        28  -9.6869     50.1054    219.5874   1.1438767977e+02   2.1498664190e+01    0.4119604    0.1842138  49.01  0.001995787    1.966    0.491
        29  -7.6681     83.0290    218.3807   1.0701389378e+02   1.7385204620e+01     0.183114    0.1449655  49.22 0.0003844012    1.127    0.113
        30  -7.6386     61.2927    219.6137   1.1196646296e+02   2.0086023013e+01    0.1401518   0.08220313  67.85 0.0007014056    1.764    0.433
        31  -8.3156     56.0393    217.0286   1.1286567762e+02   2.1321844753e+01    0.1888438    0.1561476  66.30  0.001195945    1.027    0.026
        32  -7.6269    189.3066    215.3258   8.3036203396e+01   1.0126710398e+00    0.1391519   0.09546141  -2.65 0.0007035959    1.649    0.394
        33  -9.6242    155.4615    210.3217   8.9413417004e+01   7.5005435485e+00    0.3658971    0.2687406 -32.07 0.0005955991    1.480    0.324
        34  -7.5164     98.9537    214.4662   1.0291201252e+02   1.5869376222e+01    0.1922794     0.124076  37.23 0.0002972807    1.436    0.304
        35  -9.0956     75.4015    212.4293   1.0805273012e+02   1.9766274862e+01    0.3946224    0.2878284  18.55   0.00174253    1.732    0.423
        36  -8.4927     59.5651    211.6911   1.1155800020e+02   2.2055525096e+01     0.240219    0.1266608  53.38 0.0009782275    1.782    0.439
        37  -8.3983     54.6385    211.9260   1.1268323723e+02   2.2628051173e+01    0.2038617    0.1753612  33.17 0.0006939139    1.321    0.243
        38  -8.8411    189.0356    210.2505   8.2188685155e+01   1.9412893200e+00    0.2222168    0.1907687 -37.19 0.0002695647    1.276    0.217
        39  -7.3085    101.4568    211.4357   1.0192951321e+02   1.6138871237e+01    0.1365432    0.1237699  53.43 0.0001801882    1.008    0.007
        40  -7.1178     95.5778    211.7270   1.0332897363e+02   1.6977647982e+01    0.1352115    0.1058654  -4.64 0.0002870763    1.807    0.447
        41  -9.6376    118.4214    208.3277   9.7540819208e+01   1.4104188400e+01    0.4301625    0.2668697 -43.81  0.001554312    1.825    0.452
        42  -8.0725    116.0936    203.2219   9.7308661606e+01   1.5589263331e+01    0.2242087     0.192931 -78.15 0.0006605638    1.268    0.211
        43  -8.3473     62.3634    207.9366   1.1053182106e+02   2.2537673033e+01    0.2579835    0.1510731 -79.04 0.0009973948    1.755    0.430
        44  -7.6680    128.9786    206.7469   9.4842676126e+01   1.2691879058e+01    0.1996077    0.1712203  38.34 0.0004841495    1.079    0.073
        45  -8.1319    107.3419    206.0088   9.9791523905e+01   1.6397658683e+01    0.1874724    0.1714854 -73.63 0.0004597352    1.147    0.128
        46  -7.4217     73.8287    204.1219   1.0744179082e+02   2.1856837420e+01     0.168858    0.1558155 -41.42            0    1.309    0.236
        47  -8.9254    109.0470    198.1309   9.8206796495e+01   1.7873570905e+01    0.2100802    0.1996078 -79.44 0.0002702962    1.087    0.080
        48  -9.0285     89.0054    197.3380   1.0293974057e+02   2.1211587820e+01    0.3651793    0.2731873  -6.55 0.0009519573    2.005    0.501
        49  -8.2869     78.7910    198.1163   1.0551258182e+02   2.2538790099e+01    0.2134808    0.1973128  32.62 0.0002132563    1.197    0.164
        50  -7.6352    193.3092    196.6948   7.8792977868e+01   3.6705135618e+00    0.1265458    0.1135681  79.56 0.0004650948    1.610    0.379
        51  -7.8581     98.1034    196.1449   1.0055835171e+02   2.0081473290e+01    0.1972993    0.1893204  -9.97  0.001159145    1.196    0.164
        52  -7.5399     82.6568    192.8050   1.0386164550e+02   2.3218982195e+01      0.19084    0.1260769 -79.09 0.0003053277    1.646    0.392
        53 -10.2529     67.2130    190.2668   1.0732585051e+02   2.6009213644e+01    0.3982768    0.2708882  22.49  0.002020247    1.775    0.437
        54  -8.1618     78.1448    182.6529   1.0356016722e+02   2.6310212210e+01    0.2772838    0.1863566 -81.74 0.0005984654    1.611    0.379
        55  -9.5339     80.6060    187.3009   1.0360172710e+02   2.4829146076e+01    0.2887348    0.2499485  36.98 0.0004785596    1.199    0.166
        56  -7.9346     74.5254    190.4727   1.0554997074e+02   2.4947507761e+01    0.2308569    0.1309968 -65.32  0.001024404    1.732    0.423
        57  -8.3999     76.1362    187.0782   1.0469038123e+02   2.5530829652e+01     0.205493    0.1913069  83.99 0.0003300851    1.037    0.036
        58  -9.0017     17.7865    190.2016   1.1905634166e+02   3.1665252344e+01    0.3011203    0.1205679  47.51  0.001421918    2.297    0.565
        59  -9.2072     18.5882    184.5738   1.1842260114e+02   3.2914151683e+01    0.3598597    0.1702183 -73.27 0.0009966012    1.801    0.445
        60  -7.8809     90.3815    189.3996   1.0146263457e+02   2.2858250232e+01    0.1911859     0.125921  45.65 0.0004286804    1.453    0.312
        61  -7.4601     93.9729    187.0181   1.0020561416e+02   2.2863434154e+01     0.168987    0.1564731 -84.45  0.000379458    1.063    0.059
        62  -7.1062    188.4963    185.4941   7.7616565416e+01   6.5934953591e+00     0.141902    0.1314357  -3.33 -5.189457e-05    1.048    0.046
        63  -7.8006    118.2764    184.1384   9.3645580401e+01   1.9513190392e+01    0.2921968    0.1754904  22.00  0.001015925    2.106    0.525
        64  -9.8306     49.3141    181.7864   1.1073231322e+02   3.0343283781e+01    0.4218139    0.2631639 -62.49  0.001340664    1.512    0.339
        65 -10.3305     61.2591    179.3625   1.0741739640e+02   2.9446026231e+01    0.4735958    0.3602396 -60.57   0.00140268    1.293    0.227
        66 -10.0398     42.6263    179.6587   1.1215778124e+02   3.1639026243e+01    0.4114455    0.3434822  21.04  0.001609559    1.462    0.316
        67  -9.0543     47.1207    173.1372   1.1026038914e+02   3.2730329910e+01     0.430718    0.2580915 -86.06  0.001524097    1.704    0.413
        68  -8.2931     43.5205    169.0356   1.1069538770e+02   3.4162462359e+01    0.2030352    0.1888865   2.53 0.0003835878    1.340    0.254
        69  -9.6565     66.5578    173.5267   1.0524964056e+02   3.0184531638e+01    0.3177176      0.24739 -41.78 0.0008963148    1.473    0.321
        70  -8.8365     23.2225    177.7632   1.1673320413e+02   3.4110297899e+01     0.280263    0.1609074  74.74 0.0005200678    1.736    0.424
        71  -7.6314    109.7212    178.4594   9.4807783425e+01   2.2314043599e+01    0.2009186    0.1445578  24.14  0.000942093    1.559    0.359
        72  -9.9483    101.0056    175.9854   9.6620654276e+01   2.4371227040e+01    0.2084077    0.1992885  78.51  0.001165687    1.010    0.010
        73  -6.9381     76.6469    176.6528   1.0306743007e+02   2.7995283073e+01     0.148278    0.1087487 -28.64 0.0007037111    1.827    0.453
        74  -9.4177    175.3569    172.4180   7.7795246418e+01   1.1585328389e+01    0.3103071    0.2904873  -3.79 0.0006473991    1.005    0.005
        75  -8.4500    137.8881    173.1027   8.6719932360e+01   1.8512181057e+01    0.2786418    0.2009098 -68.23  0.001269242    1.694    0.410
        76 -10.2361     17.7455    171.7066   1.1751663056e+02   3.6076398553e+01    0.5102829     0.296085  82.80  0.002692225    1.639    0.390
        77  -8.2292    240.5162    173.4751   6.5244469927e+01   7.4793634845e-02    0.1336884    0.1105424 -19.26 0.0008099385    1.003    0.003
        78  -7.5029    117.4612    173.4168   9.1917859532e+01   2.2162964433e+01    0.1473855    0.1442385  16.79 0.0001087556    1.055    0.052
        79  -7.3522     90.2623    173.3254   9.8978519496e+01   2.6755078780e+01    0.1437134    0.1115692 -31.85 0.0002229756    1.561    0.359
        80  -8.1312     37.5587    169.5416   1.1230313890e+02   3.4687958652e+01    0.3462805    0.1298441 -62.70  0.001437596    2.269    0.559
        81  -8.8905     24.6504    170.0018   1.1564099111e+02   3.5865370106e+01    0.3274802    0.1285472 -51.45 0.0008352876    2.726    0.633
        82  -9.8800     25.0159    166.2494   1.1516938913e+02   3.6754775913e+01    0.4832543    0.3465925 -65.45  0.002822241    1.268    0.211
        83  -9.8103      5.0314    165.1860   1.2007478948e+02   3.8685500121e+01    0.4223624    0.3565852 -82.23  0.001105237    1.095    0.087
        84  -9.2518     11.6898    162.0755   1.1815457837e+02   3.8929401340e+01    0.2584915    0.1866972  22.32  0.001559956    1.708    0.414
        85  -9.5864      6.8294    170.0366   1.2002602043e+02   3.7382435605e+01    0.2743853     0.193352  34.99  0.000311023    1.591    0.371
        86  -8.1760     10.8286    168.1353   1.1889980855e+02   3.7524332695e+01    0.1862075    0.1463862 -59.42 0.0002514665    1.317    0.241
        87  -7.9287     75.2370    170.0239   1.0243217471e+02   2.9842996508e+01    0.1965307    0.1784631 -77.16 0.0002720568    1.044    0.043
        88  -7.2325    111.2948    168.6414   9.2621762077e+01   2.4391256734e+01    0.1570996    0.1171338  78.37 0.0007031925    1.699    0.411
        89  -7.0232     99.2960    166.6695   9.5430784165e+01   2.6926411931e+01     0.154618    0.1143726  75.37 0.0005815086    1.637    0.389
        90  -7.3038     32.6678    166.2938   1.1320208266e+02   3.6001700164e+01    0.1393856   0.08807366  66.32 0.0002641246    1.636    0.389
        91  -8.1800     85.1505    165.1838   9.8977596095e+01   2.9571070460e+01    0.2033418    0.1653555  72.17 0.0002976367    1.303    0.233
        92  -6.8666    124.3326    164.7238   8.8471177447e+01   2.2977952544e+01    0.1547227    0.1189504  70.43 0.0002823132    1.601    0.375
        93  -8.8147     92.4186    164.1658   9.6830618261e+01   2.8675637063e+01    0.2259256    0.1984487  41.87 0.0005974827    1.155    0.134
        94  -8.6129     76.4579    164.0028   1.0114504484e+02   3.1175080723e+01    0.2514355    0.2135881  38.39 0.0004136162    1.227    0.185
        95  -8.8847     19.6527    163.2737   1.1624202680e+02   3.7972719158e+01    0.2406127    0.1873116  44.14 0.0009962685    1.377    0.274
        96  -8.9912     64.1507    160.7915   1.0401191100e+02   3.3709114517e+01    0.4691231    0.2646482 -50.80  0.001534378    1.765    0.433
        97  -8.1828     58.2711    162.0099   1.0580938884e+02   3.4166499146e+01    0.3695624    0.1383448 -58.05 0.0008102604    2.359    0.576
        98  -7.6024     53.3597    162.7271   1.0725027715e+02   3.4596549497e+01    0.3029065    0.1411985  44.36  0.001288135    2.188    0.543
        99  -7.3200     43.9786    163.0100   1.0982113881e+02   3.5621672933e+01    0.1621225    0.1444585 -88.85 0.0003531015    1.025    0.025
       100  -7.3479     28.5249    162.5152   1.1386324123e+02   3.7349470349e+01    0.1347355    0.1116625  87.74 5.743037e-05    1.061    0.058
       101  -7.2579    103.7850    159.3875   9.2859454975e+01   2.7957882726e+01    0.1519287    0.1146096 -87.08 0.0006842948    1.611    0.379
       102 -10.1630     84.3435    156.8643   9.7742410529e+01   3.1786575794e+01     0.655735    0.4686974  -8.16  0.002240516    2.087    0.521
       103  -8.4835     34.7780    157.7442   1.1164128571e+02   3.7929214686e+01    0.4190021     0.199717 -66.09  0.001827692    1.791    0.442
       104  -8.1273     51.6521    157.0819   1.0691852897e+02   3.6234555203e+01    0.2297477    0.2021814  15.61 0.0006716288    1.354    0.262
       105  -7.9286     23.3539    157.9102   1.1472260127e+02   3.8975642103e+01     0.209701    0.1374047  84.06 0.0004944952    1.466    0.318
       106  -9.8558     14.3215    154.2142   1.1672687704e+02   4.0654852043e+01    0.3840213    0.2154517  64.05  0.001954521    1.904    0.475
       107  -9.3326      8.7791    154.9503   1.1824820460e+02   4.0898100918e+01    0.1951834    0.1658438  63.95 0.0002381105    1.212    0.175
       108  -8.6596     66.6663    153.4227   1.0212811180e+02   3.5245069537e+01    0.5430883     0.339665  -4.48  0.001670986    2.849    0.649
       109 -10.7374     68.6041    144.8094   1.0007730079e+02   3.7180470348e+01    0.7968294    0.5083291  66.00  0.003504453    2.008    0.502
       110  -8.3626    146.1690    152.9924   8.0448825863e+01   2.1499456718e+01    0.2224056       0.2169 -19.37 0.0003168626    1.005    0.005
       111  -8.5241     80.0234    151.6925   9.8022266686e+01   3.3760004945e+01    0.1971682    0.1925875  63.07 0.0002769156    1.070    0.065
       112  -7.5489     56.7964    151.4222   1.0461684442e+02   3.7048799881e+01    0.1748799    0.1417731   8.84  0.000376177    1.528    0.345
       113  -9.0102    111.2347    149.5760   8.8838721717e+01   2.9048167358e+01    0.2605016    0.2517586 -70.57 0.0003633087    1.026    0.025
       114  -8.8614     16.4737    151.4997   1.1587457310e+02   4.1156609208e+01    0.2286165    0.1788552  79.55 0.0006131667    1.194    0.162
       115  -8.9979     88.1932    146.7367   9.4739639495e+01   3.3736204926e+01    0.3790406    0.2453274  40.88  0.001716772    1.584    0.369
       116  -9.2928     85.0803    142.3828   9.4775225960e+01   3.5337495722e+01    0.5247129    0.2615871  38.56  0.001791278    2.050    0.512
       117  -8.1763      1.5342    146.0146   1.1933263349e+02   4.3588526658e+01    0.2021652    0.1008648 -75.93  0.001033938    1.600    0.375
       118  -7.6182    118.8350    145.2083   8.5816456454e+01   2.8694204267e+01    0.2072387    0.1803906  -0.56 0.0002489301    1.316    0.240
       119  -8.8124    248.4346    148.2370   5.8805987375e+01   3.0689612485e+00    0.1905888    0.1081361 -44.61 0.0009493784    1.622    0.383
       120  -9.1230     98.8878    142.5686   9.0813360393e+01   3.2988046994e+01    0.5403215    0.3290292 -29.78  0.001647604    2.257    0.557
       121  -8.2882     16.1893    142.4060   1.1495688002e+02   4.3448081999e+01    0.2068677     0.132577  12.97  0.001115569    2.017    0.504
       122  -7.7891    127.7987    140.2102   8.2268204591e+01   2.8147402191e+01    0.2047932    0.1806872 -11.99 0.0002835607    1.254    0.203
       123  -7.2616    227.4620    139.5269   6.0372630573e+01   8.1962184935e+00    0.1412875    0.1222396 -27.36 0.0003441973    1.038    0.037
       124 -10.0280     13.0140    136.6119   1.1519526912e+02   4.5133300232e+01    0.4716453    0.2014297 -53.38  0.002175629    2.069    0.517
       125  -7.5660     80.5315    134.4995   9.4514215015e+01   3.8051152852e+01    0.2292492    0.1429694 -67.95 0.0009810041    1.723    0.420
       126  -7.6561     52.5828    137.9853   1.0365551747e+02   4.1008989285e+01    0.2297696    0.1256921 -62.52  0.001027948    1.626    0.385
       127  -8.6775     62.4398    136.4692   1.0039680637e+02   4.0154794609e+01    0.2785006    0.2235141  75.62 0.0006627619    1.387    0.279
       128  -8.1738     29.0250    133.9924   1.1014467199e+02   4.4497123275e+01    0.1975976    0.1742232 -83.31 0.0004166256    1.073    0.068
       129  -8.8510    109.1514    132.0569   8.5519647256e+01   3.3725463367e+01    0.4269221    0.2734917  -0.21  0.001493575    2.951    0.661
       130  -8.5467      9.8485    132.4621   1.1563290238e+02   4.6388095793e+01     0.234463     0.169415 -60.82 0.0006774116    1.197    0.165
       131  -8.3336     73.3900    131.8955   9.6152219039e+01   3.9792353182e+01    0.3724165    0.2201313 -18.39  0.001352397    3.056    0.673
       132  -8.4451    245.2220    130.3401   5.5553407806e+01   6.6538041315e+00    0.1932607    0.1523712 -30.86 0.0007200089    1.114    0.102
       133  -8.2948     82.9173    138.0658   9.4536713304e+01   3.6774094646e+01    0.2274686    0.2095524 -88.25            0    1.111    0.100
       134  -7.2826    125.3237    127.6512   7.9930672384e+01   3.1611979387e+01    0.1644145    0.1275003  87.52 0.0007049175    1.747    0.428
       135  -7.0130     27.7737    126.9874   1.0950289524e+02   4.6380990900e+01    0.1789063   0.09679371 -67.48  0.000442823    1.566    0.361
       136  -7.9056     20.7228    126.6255   1.1163237585e+02   4.7055357527e+01    0.1638578    0.1198957  39.40 0.0004966412    1.554    0.356
       137  -8.5582      1.8536    125.5663   1.1720369680e+02   4.8589166015e+01    0.2174634    0.1290611 -79.98 0.0009014772    1.420    0.296
       138  -8.7807     66.4199    125.0792   9.6919761566e+01   4.2517217962e+01     0.245171    0.2156222  29.01 0.0002054636    1.236    0.191
       139  -8.5201     64.1618    120.7993   9.6741041445e+01   4.3907679183e+01    0.2079376    0.1939006  84.79 0.0004029337    1.148    0.129
       140  -8.8158      5.9221    119.6962   1.1528788550e+02   4.9797163868e+01    0.2226305    0.1393783 -60.94 0.0004965523    1.291    0.226
       141  -7.3330     65.9931    116.2275   9.5145975203e+01   4.4800120642e+01    0.1774587    0.1236279  30.12 0.0002391999    1.557    0.358
       142  -8.3554    239.7939    113.3786   5.2711837125e+01   1.0535314143e+01     0.175499    0.1269846  39.23 0.0009254491    1.681    0.405
       143  -7.9399    127.0000    112.0102   7.5448248101e+01   3.4864384719e+01    0.2629063   0.08896318 -45.72 0.0007963252    2.900    0.655
       144  -7.7528     59.3218    110.8843   9.6167657881e+01   4.7028113711e+01    0.2147378    0.1728993 -52.22  0.001141643    1.121    0.108
       145  -8.3499     50.5860    110.4421   9.9035649157e+01   4.8222749342e+01    0.2327989    0.2094433 -49.65  0.000153798    1.016    0.016
       146  -8.9092    249.2066    106.9553   5.0015256819e+01   9.8921334728e+00    0.2178754    0.1476106 -13.98  0.001093419    2.049    0.512
       147  -8.1864      8.0097    106.0029   1.1277048802e+02   5.3029747316e+01    0.2042127    0.1394338  74.18  0.001138649    1.719    0.418
       148  -7.6003     68.9715    103.7684   9.1191673801e+01   4.7426561049e+01    0.1844674    0.1241602  29.56 0.0004697084    1.599    0.375
       149  -7.0977    158.7158    102.7331   6.4979180689e+01   2.9805355537e+01    0.1488384    0.1227333   7.71 0.0001753173    1.493    0.330
       150  -7.9752     58.0787    102.1620   9.4560920077e+01   4.9322762764e+01    0.2141835    0.1789233 -29.91 0.0003624898    1.181    0.153
       151  -8.3746     35.1048     97.6608   1.0174486707e+02   5.3002755895e+01    0.3912201    0.1904132  61.46  0.001251207    5.027    0.801
       152  -8.2985     99.6156     96.6542   7.9190532638e+01   4.3870484822e+01     0.250409    0.2267288  22.84  0.000348772    1.126    0.112
       153  -7.6921     25.8560     93.9009   1.0434605624e+02   5.4723393220e+01    0.1700149    0.1451461 -80.55 0.0002772722    1.264    0.209
       154  -8.9818     42.6119     92.3835   9.7786547008e+01   5.3503444129e+01    0.4170732    0.2733491  71.30  0.001552785    2.531    0.605
       155  -8.7155     93.6842     91.8920   7.9691848956e+01   4.6046613727e+01    0.2985392    0.2419932  14.19  0.001025296    1.353    0.261
       156  -7.5121     75.5791     88.4659   8.4766675064e+01   4.9962569449e+01    0.1466382    0.1348788 -29.52 0.0001139276    1.015    0.015
       157  -7.6501     38.5036     82.5958   9.6925977458e+01   5.6213507274e+01    0.1344956    0.1175787 -37.80 0.0001153559    1.025    0.024
       158  -7.4162     81.3349     77.9079   7.9564780509e+01   5.1271535352e+01     0.268203      0.15678  -1.83 0.0009045321    3.536    0.717
       159  -7.7234     11.4519     75.4836   1.0605326358e+02   6.0035249096e+01    0.1271795    0.1030957 -49.96 0.0001540192    1.028    0.027
       160  -7.9757     17.4103     73.5834   1.0318375430e+02   6.0076438912e+01    0.2665705    0.1499556  45.87  0.001115467    2.510    0.602
       161  -7.2198     46.6903     73.7429   9.1252303168e+01   5.7278779115e+01    0.1365423   0.09391923 -20.60 0.0001786453    1.523    0.343
       162  -7.1131     74.2970     71.2796   7.9924191957e+01   5.3831446944e+01    0.1431397    0.1054826  -7.99 0.0002111487    1.537    0.350
       163  -8.0009     23.0121     69.6961   9.9881734598e+01   6.0521024405e+01    0.1718474    0.1454953 -26.38 0.0001842732    1.100    0.091
       164  -7.2272     88.4749     60.4522   7.1304963275e+01   5.3335392728e+01    0.1431389    0.1317978   5.32 8.630555e-05    1.009    0.009
       165 -10.3265    216.4993     29.1237   3.6689973918e+01   2.8221655083e+01    0.3844238     0.307188  41.42  0.001064182    1.685    0.407
       166 -11.2528    199.9505     42.9694   4.1820431793e+01   3.0176249163e+01     0.644371    0.3916803  56.83  0.002081488    1.687    0.407
       167  -7.9416    237.9132    243.1789   7.8496571496e+01  -1.0061718382e+01    0.1630829     0.107779  -1.56 0.0003680056    1.302    0.232
       168  -7.8576    155.7639     40.9573   4.7910188367e+01   4.1033809393e+01    0.1876574    0.1741898  80.35  0.000319337    1.017    0.017
       169  -7.6917     60.7800     40.1162   7.3751256407e+01   6.1688443601e+01    0.1822283    0.1362882   0.24 0.0003806637    1.303    0.232
       170  -7.3179     19.2881     40.2780   9.2622124247e+01   6.6820960748e+01    0.1248501   0.07461583 -24.15 0.0002147877    1.518    0.341
       171  -8.4390    124.1059     34.5333   5.2196945022e+01   4.9492180086e+01    0.2188367    0.1882677 -27.87 0.0002275526    1.260    0.206
       172  -8.3994    229.0011     29.0298   3.5484587444e+01   2.5528606827e+01    0.1984705    0.1182094 -66.33 0.0003360669    1.573    0.364
       173  -8.8352     92.4980    242.0514   1.0759475565e+02   1.1194124984e+01    0.1755391    0.1233218 -68.89  0.001034963    1.596    0.374
       174  -7.6016     94.7571     14.7849   5.2060008827e+01   5.8360283233e+01    0.1563848    0.1469069  84.76  0.000367996    1.289    0.224
       175  -9.8693     97.3395    239.7146   1.0632436406e+02   1.0948512449e+01    0.3413574    0.2837128 -66.88  0.002188101    1.355    0.262
