#   1 NUMBER                 Running object number                                     
#   2 MAG_AUTO               Kron-like elliptical aperture magnitude                    [mag]
#   3 X_IMAGE                Object position along x                                    [pixel]
#   4 Y_IMAGE                Object position along y                                    [pixel]
#   5 X_WORLD                Barycenter position along world x axis                     [deg]
#   6 Y_WORLD                Barycenter position along world y axis                     [deg]
#   7 A_WORLD                Profile RMS along major axis (world units)                 [deg]
#   8 B_WORLD                Profile RMS along minor axis (world units)                 [deg]
#   9 THETA_WORLD            Position angle (CCW/world-x)                               [deg]
#  10 FWHM_WORLD             FWHM assuming a gaussian core                              [deg]
#  11 ELONGATION             A_IMAGE/B_IMAGE                                           
#  12 ELLIPTICITY            1 - B_IMAGE/A_IMAGE                                       
         1 -10.4571      8.4796     26.5482   9.8277689871e+01   6.9802329610e+01     0.455612     0.297053 -45.39   0.00253477    1.296    0.229
         2 -10.9404      5.8305      6.4275   9.1412225630e+01   7.3352886494e+01    0.6846266    0.4793578 -50.75  0.004658748    1.807    0.447
         3  -9.2019     14.6706      3.1819   8.4437217671e+01   7.3080682650e+01    0.2404476    0.1554864   1.46 0.0009554778    1.314    0.239
         4 -10.5410     24.8295      9.0858   8.1693827563e+01   7.1209467468e+01      0.51589    0.4874488 -22.75  0.003587444    1.657    0.396
         5 -10.3359     51.7590     17.8225   7.2823057516e+01   6.6454498578e+01    0.3866085    0.2765303 -36.67 0.0006439249    1.614    0.381
         6  -9.9062     44.7881     18.0386   7.6050103200e+01   6.7452940112e+01    0.5022845    0.2733428  18.10  0.002305469    1.944    0.486
         7 -10.4929     33.1436     14.2126   7.9857796250e+01   6.9521192473e+01    0.4503138    0.2899442 -24.98  0.001374802    1.349    0.259
         8 -10.4437     41.0869     13.4991   7.5608001848e+01   6.8584835283e+01      1.00247     0.477911  13.68  0.004345208    3.040    0.671
         9 -11.0365     20.8429     18.0973   8.8137046856e+01   7.0269405510e+01    0.8709558    0.4740685   7.95  0.003813874    1.901    0.474
        10 -11.1038    169.6865     26.3896   4.4726737955e+01   3.9429740324e+01    0.3976671    0.3888238  -8.58  0.001286678    1.170    0.145
        11 -10.4891     15.3934     10.4814   8.7662191884e+01   7.1952497149e+01     0.548719    0.3205934 -24.89  0.003457016    1.395    0.283
        12  -9.7119    248.6738     18.1147   3.4123574247e+01   2.1927626605e+01    0.5119156    0.2407517 -59.55  0.002612003    1.996    0.499
        13  -9.1451    134.2650     10.3699   4.5587235910e+01   4.9928487812e+01    0.3264724    0.2234446  -1.52  0.001727044    1.807    0.447
        14  -9.8623    141.8588     21.9551   4.8044284428e+01   4.6903116930e+01    0.6018089    0.3743629 -52.59  0.002889558    1.956    0.489
        15 -10.9926    133.2549     18.3079   4.8472905612e+01   4.9410028765e+01    0.8874408    0.5034288  56.86  0.002219563    1.511    0.338
        16 -10.7642    141.3274     12.9658   4.5198166183e+01   4.7945260522e+01    0.3654786    0.3425899 -15.66 0.0008610433    1.216    0.178
        17  -9.2313     78.1236     24.1511   6.5388831928e+01   6.1069601179e+01    0.4466548    0.2656754 -28.13  0.002319134    1.723    0.419
        18 -10.0584    197.1629     18.6239   3.9024288310e+01   3.3505715872e+01    0.3907899    0.2274939 -66.94  0.001334745    1.864    0.464
        19 -12.2112    101.1450     13.0686   5.3790751177e+01   5.7495134602e+01    0.4223624    0.3906845   6.82  0.002714482    1.152    0.132
        20 -11.2523     88.6317     15.6526   5.8355431815e+01   5.9945075991e+01    0.7217292    0.5011188  31.02  0.003044273    1.287    0.223
        21 -10.3979     82.1079     11.4761   5.8561984199e+01   6.1724340737e+01    0.7237945    0.3535883  29.44  0.002261959    2.183    0.542
        22 -10.0071     93.3911      5.2378   5.2619847008e+01   5.9925957921e+01    0.8822069    0.2260149  55.09  0.003267823    3.009    0.668
        23  -9.6105     70.6261     19.4422   6.6010215967e+01   6.3061304356e+01    0.5570244    0.3359893  -1.11  0.002595704    1.938    0.484
        24 -12.1426     65.3930      6.1349   6.1766939919e+01   6.5500282820e+01    0.7893577      0.26965  44.93  0.003447667    2.450    0.592
        25  -9.8339     78.9387      2.5877   5.5577369876e+01   6.3201657343e+01    0.4626839    0.1784736  51.77  0.001823673    2.162    0.537
        26 -10.0787     60.7816     11.8001   6.6226695989e+01   6.5718703700e+01    0.3982238    0.3517226  58.95  0.001370993    1.642    0.391
        27  -9.8354     66.6231     13.1486   6.4624910652e+01   6.4530106691e+01    0.3886091    0.2370205 -24.18  0.001591316    1.659    0.397
        28  -9.4724    211.0761     18.8960   3.7606628028e+01   3.0163216989e+01     0.439476     0.205746 -60.79  0.001939852    2.386    0.581
        29  -8.8010    152.0335     17.7929   4.4931655529e+01   4.4799865599e+01    0.3673621    0.1817874 -16.39  0.001147226    2.633    0.620
        30  -9.5295    127.4010      9.3665   4.6522129714e+01   5.1693093116e+01    0.4577299    0.2568056  81.75  0.002052588    2.244    0.554
        31  -8.3695    122.5113     10.5373   4.7904427991e+01   5.2766998480e+01    0.2372911    0.1669839  52.51 0.0007312268    1.207    0.172
        32  -9.1313    121.2271     13.8017   4.9348014161e+01   5.2769803022e+01    0.2995301    0.2151456 -70.59  0.001546467    1.903    0.475
        33  -9.3826    157.0314     15.6090   4.3467147627e+01   4.3768972925e+01    0.3849537    0.3200431  52.01  0.002269234    1.153    0.132
        34 -11.2551    113.0504     12.2538   5.0576616663e+01   5.4849509546e+01    0.3527107       0.2459  34.38 0.0003300751    1.361    0.265
        35  -9.0409    232.7227     10.6720   3.3803386094e+01   2.6163667906e+01    0.6059772    0.1146393  63.00  0.002164378    4.230    0.764
        36  -9.8802    236.8149     12.1861   3.3804673748e+01   2.5108710116e+01    0.3775994    0.3177006 -84.16  0.002591547    1.096    0.088
        37  -9.6021    233.3001      5.7000   3.2698655554e+01   2.6567937506e+01    0.2855768    0.1749529 -56.72  0.000689883    1.421    0.296
        38 -10.1480    235.4805      3.0891   3.1990744768e+01   2.6367307763e+01    0.7333687    0.2117463 -53.91  0.001782016    3.376    0.704
        39  -9.4260    209.4304     11.7624   3.6071873398e+01   3.1325502965e+01    0.2800547     0.201831  88.03 0.0009176962    1.235    0.190
        40  -8.9693    193.3029     13.4673   3.8143575698e+01   3.4992395949e+01    0.2898729    0.1790578  52.54  0.001041788    1.679    0.404
        41  -9.7373    183.3273      9.1264   3.8134735370e+01   3.7865304605e+01    0.4036916    0.2581584  73.52   0.00132444    1.372    0.271
        42 -11.3067    186.3703      3.6191   3.6361641769e+01   3.7646440838e+01    0.2887365    0.2443486 -38.24  0.000358921    1.317    0.241
        43  -9.2324    182.1664      3.7888   3.6854827533e+01   3.8655602456e+01    0.2340333    0.2206852 -13.39  0.000741459    1.306    0.234
        44 -10.3578    112.9019      3.9758   4.7489160704e+01   5.5609415070e+01    0.8731182    0.5105842  12.19  0.004307862    2.147    0.534
        45  -9.1084    148.2716      7.0604   4.2177476248e+01   4.6761287818e+01    0.2537756     0.202719 -58.75 0.0004416911    1.392    0.282
        46  -9.8937    150.0484      2.3961   4.0466892230e+01   4.6718284153e+01    0.9042245    0.1907509  53.11  0.003049201    3.551    0.718
        47  -9.5450    250.1016      7.7958   3.1934322765e+01   2.2787835563e+01    0.2592717    0.1510281 -52.92 0.0008045546    1.426    0.299
        48  -8.6466    138.2078      7.0870   4.3802600684e+01   4.9250401397e+01    0.2540904    0.1764164   8.73   0.00049648    1.804    0.446
        49  -8.4863     37.8352      2.7828   7.1700598996e+01   7.0368078955e+01    0.1898401    0.1541602  39.33 0.0008920241    1.623    0.384
        50 -10.5350     32.2170      6.2143   7.6315501815e+01   7.0711043741e+01      0.27126    0.2321698   8.75 0.0005077393    1.313    0.238
        51  -9.1732     34.0250      1.6010   7.2947062425e+01   7.1033736472e+01    0.1917446    0.1207736  19.29 0.0003639919    1.360    0.265
        52  -9.6342    224.0296      5.9892   3.3477225647e+01   2.8584503831e+01    0.3401787    0.1810856 -52.48 0.0009763382    1.699    0.411
        53  -7.9987    224.2932      1.2857   3.2427693832e+01   2.9003507006e+01      0.19265   0.09221067  66.22 0.0005080752    1.940    0.485
        54  -7.8846    163.0341      7.2109   4.0111498299e+01   4.3071480090e+01    0.1894676   0.09379032  68.62 0.0008744462    1.736    0.424
        55  -8.6985    243.4872      4.5425   3.1730799239e+01   2.4511077162e+01    0.2315574    0.1435775 -69.60  0.001407888    1.395    0.283
        56  -9.0945    241.5248      1.5089   3.1247903662e+01   2.5240816308e+01    0.2871585    0.1401987 -82.27 0.0005914251    2.031    0.508
        57  -8.2666    195.7612      5.5145   3.5884391720e+01   3.5199073844e+01     0.185918    0.1067439 -88.49 0.0009373627    1.710    0.415
        58  -8.6593    168.7932      5.0601   3.8754755434e+01   4.1834924188e+01    0.1965399    0.1590704 -77.91 0.0005797257    1.211    0.174
        59  -8.5333    121.6217      3.4117   4.5522978843e+01   5.3589634827e+01    0.2826988    0.1825785  62.85 0.0008305796    1.339    0.253
        60  -9.4330    202.6378      3.1884   3.4662747698e+01   3.3788571264e+01    0.2917429    0.1537233  82.36 0.0008482702    1.742    0.426
        61  -9.2480    248.4929      1.8764   3.0864926947e+01   2.3749290956e+01    0.1992127    0.1366533 -84.56 -0.0002765724    1.252    0.202
        62  -8.4827    217.9752      3.0644   3.3314962826e+01   3.0247613285e+01    0.1810786    0.1530605 -77.87 0.0004362155    1.045    0.043
        63 -10.6201    204.7707     12.7874   3.6771798661e+01   3.2314232175e+01    0.4085444    0.2186503 -46.17 0.0007060026    1.789    0.441
        64  -9.1445     87.7840     82.9733   8.3468060601e+01   4.9100467480e+01    0.2867101    0.2201106 -42.57 0.0008053869    1.259    0.206
        65  -7.8816    249.4856    249.9852   8.1338363408e+01  -1.1877320687e+01     0.163296   0.07805934 -10.07 0.0008097675    2.595    0.615
        66  -7.7470      3.6822    250.3334   1.2779926956e+02   2.1539096590e+01    0.1141803   0.05085833  62.71 0.0007048128    1.693    0.409
        67  -7.6539    154.5226     83.4913   6.4581478336e+01   3.4607522870e+01     0.155561    0.1495248  21.54 6.691421e-05    1.050    0.048
        68  -8.7286    146.0750     82.9687   6.6448982259e+01   3.6727287287e+01    0.2234999    0.2153307  16.55  0.001180092    1.037    0.036
        69  -8.2865    135.5050     83.0071   6.9143410734e+01   3.9201490978e+01    0.2328017    0.1536284 -39.41 0.0007272949    1.537    0.349
        70  -8.6284     63.8965     82.4156   9.1718660619e+01   5.2993789349e+01    0.2589087    0.1918427 -64.99  0.000680341    1.564    0.360
        71  -8.8112     11.9053     82.1780   1.1121053305e+02   5.8051141828e+01     0.314063    0.1062258 -56.13  0.001417147    2.099    0.524
        72  -9.6931    245.1212     77.4661   4.7295443373e+01   1.4673756439e+01    0.3208365    0.2174172 -80.04  0.001251176    1.859    0.462
        73  -8.1313    174.4754     78.5115   5.8834438754e+01   3.0648648069e+01    0.1495796    0.1479626  75.22 7.813635e-05    1.011    0.011
        74  -9.1498    151.9195     78.0929   6.3603302039e+01   3.6226021625e+01    0.2221742    0.2177271  42.30 0.0002796578    1.005    0.005
        75  -9.2191     31.8655     77.0641   1.0248469394e+02   5.7794466180e+01     0.335648     0.185368   6.59  0.001366838    2.251    0.556
        76  -8.0708     86.7673     76.1640   8.1710325410e+01   5.0707915077e+01    0.2035965    0.1640585  -9.52 0.0008004855    1.308    0.236
        77  -9.1262    233.7325     74.5934   4.8106844212e+01   1.7496105646e+01    0.3026746    0.1899872 -69.32  0.001431117    1.992    0.498
        78  -8.0034     50.1949     75.1666   9.4834935624e+01   5.6346978498e+01    0.1654556    0.1556702 -75.68 0.0002920528    1.284    0.221
        79  -9.6135     18.9309     73.8696   1.0683912395e+02   5.9500993882e+01    0.3585404    0.2681165 -71.35  0.001700809    1.366    0.268
        80  -8.4055    218.3586     73.8319   5.0062177698e+01   2.1002072272e+01     0.317645    0.1694599  78.08  0.001251908    2.743    0.635
        81  -9.1526     72.1277     72.7989   8.5832079344e+01   5.3850771381e+01    0.3152323     0.224946 -53.98 0.0009859005    1.517    0.341
        82  -8.5420     63.9155     73.8312   8.9199678030e+01   5.4856088782e+01    0.2042913    0.1664901 -13.41 0.0003747004    1.212    0.175
        83  -8.2385    188.9706     73.4899   5.4713699010e+01   2.7966062311e+01    0.2142169    0.1436259  56.84 0.0004903853    1.487    0.327
        84  -8.5142    147.8763     72.8532   6.2980730666e+01   3.8141220277e+01    0.2406073    0.2083893  17.27  0.000679308    1.261    0.207
        85  -8.9357     59.4997     71.1357   9.0056931897e+01   5.6038181217e+01    0.4254201    0.1472912 -49.94  0.001588147    2.654    0.623
        86 -10.3158    243.4595     70.8579   4.6021588451e+01   1.6011836794e+01    0.3796689    0.2420202 -48.81  0.001224492    1.404    0.288
        87 -11.1347    128.7777     71.1453   6.7252112242e+01   4.2977709020e+01    0.2978486    0.2686076  24.73 0.0002737785    1.096    0.088
        88  -8.9252    133.3613     68.7345   6.5282341612e+01   4.2338845865e+01    0.2742403    0.2232115  68.72 0.0005929652    1.393    0.282
        89  -9.7460    113.4505     70.4995   7.1353266746e+01   4.6531203949e+01    0.4151086    0.3750587 -71.24  0.002167718    1.338    0.253
        90  -9.7991     28.8999     71.5100   1.0229837617e+02   5.9282380429e+01    0.2472684    0.1770914 -47.62 0.0003174704    1.153    0.132
        91  -8.2430    249.8277     71.6321   4.5433520001e+01   1.4595077185e+01    0.1686104    0.1199986  83.56   0.00047953    1.624    0.384
        92  -8.5368    160.8902     71.1023   5.9529171935e+01   3.5260931471e+01    0.2358099    0.1997836 -70.22 0.0005194684    1.326    0.246
        93  -8.4565    152.3547     71.5825   6.1558210289e+01   3.7273721867e+01    0.1998625    0.1416624  44.90 0.0009140018    1.388    0.279
        94  -9.8748     37.2423     70.9439   9.8789101340e+01   5.8658567851e+01    0.2309559    0.1916673 -39.09 0.0003160124    1.018    0.018
        95  -8.6621    211.4960     69.9559   5.0118559630e+01   2.3181293439e+01    0.2935254     0.197866  88.44  0.001027363    1.843    0.457
        96  -8.8540    191.6764     69.8126   5.3255525211e+01   2.7908861147e+01    0.2464153    0.1887717  47.65 0.0005689369    1.360    0.265
        97  -9.6685     95.3341     66.1132   7.5540743183e+01   5.1089104341e+01     0.252203     0.228549  22.16 0.0003734458    1.070    0.065
        98 -10.6905    100.8481     62.9036   7.2667216319e+01   5.0579336334e+01    0.7279165    0.5862877 -44.86  0.003532334    1.346    0.257
        99 -10.3700    235.6368     66.3544   4.5961374251e+01   1.8332922467e+01    0.4191251    0.3379604 -52.59  0.001503142    1.108    0.097
       100  -9.4764    235.0585     61.6828   4.4960391305e+01   1.9144491809e+01    0.3025574    0.2584772  20.28  0.001576296    1.563    0.360
       101  -8.9348    204.1161     68.8359   5.0963320025e+01   2.5084563100e+01    0.2351942    0.1956661 -45.26 0.0003570258    1.156    0.135
       102  -8.9148    169.6156     68.3868   5.6937121718e+01   3.3559131114e+01    0.3922547    0.2421864  66.47  0.001687855    1.770    0.435
       103  -8.6216    173.4955     66.5026   5.5640096143e+01   3.2905532599e+01    0.2776203    0.2105675 -35.37 0.0008662944    1.350    0.259
       104  -9.1345    139.0233     69.0576   6.3952794964e+01   4.0938627446e+01    0.4851532     0.261038  58.42  0.001917312    2.012    0.503
       105  -9.7147    222.0653     67.8500   4.8086851069e+01   2.1092245974e+01    0.2239372    0.2161726  75.25 -0.0006383859    1.124    0.110
       106 -10.8854    149.4334     66.9290   6.0813001831e+01   3.8783590454e+01    0.3548376    0.2610949  45.29 0.0002404711    1.323    0.244
       107  -9.5592    144.3072     64.2164   6.1162225662e+01   4.0489336532e+01    0.3260699    0.2739123 -69.07 0.0007093279    1.398    0.285
       108  -9.2066      3.0436     65.6461   1.1149773595e+02   6.2193062023e+01    0.5270713    0.2686075 -82.48  0.002589541    2.481    0.597
       109  -9.1212     41.4089     66.5961   9.5881737933e+01   5.9175242987e+01    0.4396999    0.1968773  23.32  0.001973546    2.475    0.596
       110 -10.9007     48.9949     65.5252   9.2477825907e+01   5.8550759656e+01    0.2761479    0.2421546 -14.40 -2.34218e-05    1.071    0.066
       111 -10.1573     16.0556     65.7327   1.0615563704e+02   6.1483937274e+01    0.4912503    0.2176854 -25.53  0.002234097    2.671    0.626
       112  -8.7305    228.1306     65.0537   4.6611495450e+01   2.0161611352e+01     0.201204    0.1846733  -9.26 0.0007326095    1.300    0.231
       113  -8.3345    208.6968     64.6255   4.9196752066e+01   2.4657436114e+01    0.1757326    0.1692162 -54.60 0.0007285661    1.077    0.072
       114  -8.0075     89.4373     65.4696   7.7294315678e+01   5.2338050428e+01    0.1475749    0.1313014  -3.19 0.0002768671    1.055    0.052
       115  -7.9846    201.9347     64.0139   5.0061812124e+01   2.6351347199e+01     0.168806    0.1583335 -76.48 0.0004651482    1.009    0.009
       116  -8.5498    126.9932     63.9997   6.5424172489e+01   4.4652159624e+01     0.223505    0.1855849 -78.96  0.000557493    1.563    0.360
       117  -9.3787     40.3629     61.5348   9.4810256464e+01   6.0348536677e+01     0.340686    0.2417256  60.78  0.001749511    2.365    0.577
       118  -9.7197     34.6882     59.7223   9.6664819878e+01   6.1294863562e+01    0.2800224    0.2383526 -12.07 0.0006321145    1.132    0.117
       119  -8.2351     36.7041     56.2902   9.4745982696e+01   6.1801023942e+01    0.1818999    0.1233491 -27.22 0.0001895179    1.342    0.255
       120  -7.8268    161.2522     62.3512   5.6864537966e+01   3.6615508760e+01    0.1483571    0.1163748  13.46 0.0003954229    1.595    0.373
       121  -8.9525     81.5654     61.9175   7.8816264532e+01   5.4441619998e+01    0.4084054    0.2144743  24.84    0.0016544    2.364    0.577
       122 -10.1868     25.2284     59.4290   1.0064780439e+02   6.2184171930e+01    0.4247442    0.3869308  74.85  0.002844445    1.498    0.332
       123  -8.8358     28.7743     54.0359   9.7522976754e+01   6.3004866336e+01    0.3096056    0.1454888 -35.61 0.0009794261    1.943    0.485
       124 -10.7767    244.1853     58.4958   4.3182481964e+01   1.7662199311e+01    0.3884697    0.2745174  73.84 0.0002334937    1.505    0.336
       125  -7.9514     60.5040     61.5012   8.6586094219e+01   5.7874032665e+01    0.1368664    0.1219696 -18.99 -6.57273e-05    1.047    0.045
       126  -7.6573    196.2877     60.3323   4.9981050554e+01   2.8269631356e+01    0.1408428    0.1125073  21.02 0.0003489292    1.623    0.384
       127  -8.2569    186.0596     60.4614   5.1685690950e+01   3.0748671395e+01    0.2208952    0.1397331  61.42 0.0005487995    1.550    0.355
       128 -10.1831    174.1103     58.3057   5.3187769163e+01   3.4041097268e+01    0.4926535    0.3606606 -13.56    0.0010024    1.704    0.413
       129  -9.4343    134.8594     59.1826   6.1835815031e+01   4.3600526566e+01     0.443893    0.2869183 -55.72   0.00167876    1.980    0.495
       130  -7.8827    149.7453     58.8976   5.8266628792e+01   4.0018996333e+01    0.1940756    0.1677961 -83.64 0.0002973217    1.314    0.239
       131  -9.0374    157.7343     57.4733   5.6125297590e+01   3.8258495510e+01    0.5373144    0.2892909  78.53  0.001852034    3.139    0.681
       132  -8.4477     89.2433     57.7719   7.4688104702e+01   5.3793395623e+01      0.20953    0.1950563 -19.73 0.0007519218    1.114    0.102
       133  -9.7239     63.3577     55.8688   8.3526580555e+01   5.8551920636e+01    0.4678363    0.3519643  77.13  0.002205588    2.688    0.628
       134  -8.2955      5.7632     57.9434   1.0871020685e+02   6.3731981869e+01    0.1984916      0.11831 -40.57  0.001189804    1.353    0.261
       135  -8.4729    235.4000     56.5464   4.3744946463e+01   1.9809885879e+01    0.3651413     0.136496 -56.28  0.001240832    3.755    0.734
       136  -9.7800    191.9603     55.8666   4.9476703092e+01   2.9989698406e+01    0.4761047    0.3311248 -84.23  0.001271478    1.709    0.415
       137  -9.2441    185.8432     51.5301   4.9276953179e+01   3.2126506650e+01    0.4609783    0.2166858  62.71  0.001456937    2.068    0.516
       138 -10.7711    193.1150     48.8990   4.7439470496e+01   3.0709280273e+01    0.5762958    0.3843081 -88.86  0.002483406    1.746    0.427
       139  -9.1372    197.5209     48.5218   4.6693248277e+01   2.9687455046e+01    0.3072001    0.2092981 -72.88 3.898697e-05    1.665    0.399
       140  -8.2281    120.6816     56.4221   6.4597951865e+01   4.7378363134e+01    0.2095916    0.1317514  40.23 0.0009374152    1.547    0.353
       141  -9.6080    113.2077     54.9060   6.6164972004e+01   4.9314749076e+01    0.3681143    0.3066252  30.98 0.0008309188    1.143    0.125
       142  -9.2928    212.5629     48.7579   4.4699237198e+01   2.6063041100e+01    0.4899189     0.273199  46.46  0.002246271    2.121    0.529
       143  -8.4849    207.9202     55.1377   4.6915444126e+01   2.6251761215e+01     0.214429    0.1987707 -75.33 0.0008746862    1.014    0.014
       144  -9.2877    204.9328     51.9246   4.6518987984e+01   2.7422750147e+01    0.2442451    0.2175208 -44.76 0.0004373082    1.131    0.116
       145  -8.9867    207.2330     48.1519   4.5249199405e+01   2.7404749432e+01    0.2031448    0.2025469   6.76 0.0003785971    1.172    0.147
       146  -8.8940    142.3617     54.1949   5.8442069130e+01   4.2569149099e+01    0.3646123    0.2048911  45.18 0.0007742821    1.724    0.420
       147  -8.5330    220.9608     54.2160   4.4953204245e+01   2.3353499945e+01    0.2067097    0.1623804 -69.00 0.0004678416    1.237    0.191
       148  -8.8416    128.8873     52.7647   6.1210299257e+01   4.6043786624e+01    0.3856841    0.2094771 -32.68  0.001639159    1.938    0.484
       149  -8.5663    124.8662     54.1494   6.2710206252e+01   4.6774274752e+01    0.2086872    0.2032609 -79.46 0.0004049223    1.152    0.132
       150  -8.3870      5.4071     50.8674   1.0717542453e+02   6.5236103734e+01    0.2013206    0.1175108 -38.74 0.0005958324    1.370    0.270
       151 -10.4258      9.7891     52.8377   1.0569504682e+02   6.4600198919e+01    0.2958721    0.2452042 -56.67  0.001090212    1.206    0.171
       152  -8.2796     14.2536     49.6149   1.0279385327e+02   6.4999695966e+01    0.1592223    0.1347434 -26.85 0.0004397377    1.116    0.104
       153  -8.1227     42.1040     53.0832   9.1366112424e+01   6.1866719518e+01    0.2291213    0.1145389 -30.79 0.0008636081    2.047    0.511
       154 -10.1113    244.2471     50.1468   4.1334919292e+01   1.8813757563e+01    0.3557886    0.2995486  68.78  0.001046107    1.289    0.224
       155  -9.5113    238.0008     43.0683   4.0420056211e+01   2.1099669632e+01    0.2708155    0.2007709 -67.12 0.0003322187    1.244    0.196
       156  -9.7259    237.4862     47.8876   4.1551556258e+01   2.0563274817e+01    0.2855072    0.2075716 -45.35  0.001096381    1.235    0.191
       157 -10.3224    233.8180     44.5709   4.1198755014e+01   2.1809516307e+01    0.5380725    0.2285571 -49.09  0.001979034    2.193    0.544
       158  -9.1734     92.9930     48.8600   7.0197389483e+01   5.4580569164e+01    0.4488543    0.2974716 -59.18  0.001922565    2.396    0.583
       159  -8.7316     88.3307     46.7265   7.0954252233e+01   5.5845949537e+01    0.2740812    0.2138092  20.06  0.001063889    1.234    0.190
       160  -9.5735    228.6905     50.2839   4.3084788001e+01   2.2163859057e+01    0.3015746    0.2245659  36.31  0.001640584    1.802    0.445
       161 -10.1067    120.2010     50.5139   6.2701912061e+01   4.8426014318e+01    0.2496791    0.2339575   5.14 0.0003073667    1.065    0.061
       162  -8.5554    119.8885     46.1575   6.1268322995e+01   4.9155233320e+01     0.240964    0.2007266 -41.09 0.0007093141    1.320    0.242
       163  -9.3457     79.5356     50.2260   7.5345740512e+01   5.6909543849e+01    0.3884764    0.2634815  -7.66 0.0009549296    1.718    0.418
       164  -9.1568     84.1143     50.6088   7.3859523945e+01   5.6006952648e+01    0.3387139    0.2388117  60.71   0.00118558    2.032    0.508
       165  -9.5454     72.6522     49.1731   7.7493227175e+01   5.8289598630e+01    0.4751419    0.3814899 -21.93  0.002036055    1.160    0.138
       166  -8.3065    222.7327     50.1952   4.3772916657e+01   2.3516324421e+01    0.1750607     0.158276  34.55  0.001054103    1.367    0.268
       167  -9.6975     40.9840     45.9828   8.9392949636e+01   6.3355084485e+01    0.4460469    0.3489318  88.78  0.002359237    2.543    0.607
       168  -9.7052    173.8725     44.9074   4.9392568323e+01   3.6042193750e+01    0.3251812    0.2643446  -3.67  0.001046965    1.524    0.344
       169  -8.7481    164.6905     46.4227   5.1450757910e+01   3.8140187487e+01    0.2628912    0.2033176 -70.28 0.0006115566    1.470    0.320
       170  -9.1697    162.8778     42.0845   5.0485829402e+01   3.9190693644e+01    0.2935885    0.2183889  63.76 0.0004667135    1.260    0.206
       171  -8.4285    110.3717     47.0951   6.4216717253e+01   5.1178158727e+01     0.506588    0.1111561  45.96  0.001432433    4.129    0.758
       172 -10.5931     32.1778     43.6613   9.2574488073e+01   6.4726760007e+01      0.57248    0.3488013  15.90  0.001832292    1.710    0.415
       173  -9.3973     20.7437     47.0696   9.9031502218e+01   6.5060790529e+01    0.2027964    0.1612226  -7.52 0.0002682189    1.227    0.185
       174  -9.6444    141.3622     39.5984   5.3932019992e+01   4.4906432511e+01    0.5188115    0.2826113  28.48  0.002012944    2.646    0.622
       175  -8.7098    136.3546     45.6767   5.7044112459e+01   4.5299750530e+01    0.2865664    0.2117878 -61.13  0.001061767    1.699    0.411
       176  -8.4656    138.9998     43.7662   5.5814574550e+01   4.4921588354e+01    0.2319909    0.1829556  31.63 0.0003053459    1.318    0.241
       177  -8.3403    241.2973     36.9148   3.8735928503e+01   2.1194027269e+01    0.3546455    0.1927453 -29.85  0.001171162    1.968    0.492
       178 -10.7567    248.6887     36.0518   3.7861398322e+01   1.9747010689e+01    0.7462451    0.5811145  21.37  0.004395763    2.068    0.516
       179  -9.3247    246.5553     44.4795   3.9866090134e+01   1.9094501607e+01    0.3227054    0.2051715  86.28  0.001336468    1.684    0.406
       180  -9.6207    249.7014     40.9830   3.8814154149e+01   1.8901418855e+01     0.280617    0.2270621  46.27  0.001717913    1.604    0.377
       181  -8.4114    156.0054     44.0401   5.2367042858e+01   4.0653330888e+01    0.2199483    0.1683287 -79.74  0.000371188    1.555    0.357
       182  -9.4968    152.7437     41.1245   5.2097583664e+01   4.1866966958e+01    0.3257798    0.2820185  66.59  0.001297631    1.097    0.089
       183  -8.2112      9.5119     43.9958   1.0341414793e+02   6.6419129677e+01    0.1838933   0.09842019 -56.68  0.001033098    1.600    0.375
       184  -9.7500      1.6384     38.0808   1.0555167180e+02   6.7994647117e+01     0.334985    0.1656193 -65.10  0.001303632    2.045    0.511
       185 -10.4814      5.3827     34.2082   1.0250226369e+02   6.8559741897e+01    0.4545737     0.232843 -60.98  0.002529627    1.941    0.485
       186  -8.3874    188.4668     43.4802   4.6680017280e+01   3.2598702352e+01    0.2440235    0.1306315  64.70  0.000797464    1.781    0.439
       187  -9.1582    184.6432     40.2689   4.6377525048e+01   3.3973938527e+01    0.3440458    0.3147021  31.93  0.002009399    1.254    0.202
       188  -9.7742    127.7627     41.7227   5.7736177311e+01   4.7932006108e+01    0.4311694    0.2738854  59.97  0.001491891    1.565    0.361
       189  -8.8291     96.4956     43.0399   6.6891178438e+01   5.4778349628e+01    0.3102573    0.2092399  16.21 0.0009662432    1.710    0.415
       190  -9.7151     99.8558     38.1190   6.3986260676e+01   5.4788998823e+01     0.513827     0.267863 -37.10  0.002300905    2.046    0.511
       191  -8.9394    147.3266     41.9686   5.3449898438e+01   4.3107474702e+01    0.3808048    0.1737517  47.92  0.001517332    2.070    0.517
       192  -7.6788     85.3401     42.3010   7.0283219820e+01   5.7124539188e+01    0.1465891   0.09955318  12.02 0.0005709453    1.670    0.401
       193  -8.4240     89.5775     40.5947   6.8192326530e+01   5.6554418611e+01    0.3970189    0.1493777  35.25  0.001384989    3.113    0.679
       194  -8.7094     77.4280     41.5450   7.2788205282e+01   5.8720382292e+01    0.3788728    0.1575334  35.82  0.001524576    2.435    0.589
       195  -8.7976     67.2779     41.9857   7.6796335385e+01   6.0399822710e+01     0.307456     0.187634  38.99 0.0008496714    1.663    0.399
       196 -10.2249     69.8821     35.4967   7.3177915675e+01   6.0990568527e+01    0.5386622    0.3590233   0.17  0.001624222    1.673    0.402
       197 -10.2002     51.7919     37.2997   8.1307203792e+01   6.3527661167e+01      0.26641    0.2125607 -17.32 0.0002388507    1.081    0.075
       198  -9.7858     62.3365     38.5013   7.7374321675e+01   6.1763550546e+01    0.5797768    0.3200073  28.22  0.002849963    1.819    0.450
       199  -8.5666     56.4959     36.4871   7.8968272982e+01   6.2984228661e+01    0.2305701    0.1675262  25.93   0.00113066    1.325    0.245
       200  -9.2921     59.2024     33.7553   7.6710954394e+01   6.3008135842e+01    0.2566478    0.2052816  -6.21  0.001015495    1.085    0.078
       201  -9.1992    223.8912     39.5809   4.1134755874e+01   2.4685108387e+01    0.3590262    0.2173082 -47.46  0.001879571    1.513    0.339
       202  -8.6775    225.7271     35.6178   4.0014522501e+01   2.4781140587e+01    0.2056736    0.1716899  68.95 0.0005062902    1.241    0.194
       203  -8.7823    170.0118     40.9815   4.8911106122e+01   3.7541839595e+01    0.3938979    0.1668798  62.78  0.001410616    2.218    0.549
       204  -9.6899     19.1262     40.2094   9.7594053321e+01   6.6522139448e+01    0.4912265    0.1880404  31.15   0.00195536    2.995    0.666
       205  -8.7431     12.5166     36.0901   9.9492133547e+01   6.7775698210e+01    0.2662778    0.1715989 -58.65   0.00161997    1.623    0.384
       206 -10.5143     22.7822     32.8349   9.3169198153e+01   6.7594272783e+01    0.6496591     0.496558  38.69  0.004180932    1.817    0.449
       207  -9.5952     12.7339     30.2361   9.7358454681e+01   6.8850952059e+01    0.2429431    0.1959071  28.18  0.001690755    1.603    0.376
       208  -7.6267     64.5232    247.5289   1.1682673317e+02   1.5257570786e+01    0.1192242   0.08980472  59.42 0.0005425301    1.037    0.036
       209  -8.1715    106.4926     39.9411   6.2715960106e+01   5.3088784968e+01    0.1926731    0.1389386 -25.52 0.0004079015    1.451    0.311
       210  -9.7556    211.7628     31.7994   4.0640949776e+01   2.8478958968e+01    0.3858606    0.2317785 -89.63 0.0006000573    1.796    0.443
       211  -9.9957    216.2859     38.3135   4.1696798633e+01   2.6596190755e+01    0.4019831    0.2425339 -46.67  0.001024013    1.548    0.354
       212  -9.1288    212.0487     37.5084   4.1999128220e+01   2.7690095019e+01    0.2809395    0.1929457  81.99 0.0003350273    1.439    0.305
       213  -9.3199    119.8024     38.9247   5.8736322776e+01   5.0200042650e+01     0.237652    0.1862451  49.15 0.0003891983    1.177    0.150
       214  -9.5490    112.8439     36.3190   5.9614669177e+01   5.2160116197e+01    0.5927653    0.3379247  48.31  0.002631657    1.583    0.368
       215  -8.5468    232.1760     36.9392   3.9645090124e+01   2.3172508802e+01    0.2599185     0.200313  23.70  0.001134366    1.973    0.493
       216  -9.2580    232.3872     32.7906   3.8690817522e+01   2.3652233165e+01    0.4155458    0.2243749 -64.32   0.00203996    1.949    0.487
       217  -8.6724    192.8945     36.7343   4.4244864625e+01   3.2394701290e+01    0.2036388     0.172715  57.51 0.0005946519    1.203    0.169
       218 -10.8942    124.2265     35.2092   5.6323076525e+01   4.9647490635e+01    0.4372817    0.3556027 -81.82  0.001218923    1.583    0.368
       219  -8.5217    236.9624     35.9888   3.8953180797e+01   2.2246185717e+01    0.2111688    0.1265099 -62.82 0.0005331325    1.626    0.385
       220  -9.4457     92.1864     35.1256   6.5207455880e+01   5.6817262717e+01    0.3825333    0.3620956  70.43  0.002320012    1.341    0.254
       221  -8.2318    165.5991     35.0413   4.7912292044e+01   3.9419479285e+01    0.1867775    0.1732075 -57.08  0.000443734    1.129    0.114
       222  -9.1812    153.8499     33.9543   4.9651053923e+01   4.2513691682e+01    0.3379999    0.2232548 -40.27 0.0009457889    1.618    0.382
       223  -9.0135     33.6420     34.4343   8.8452401135e+01   6.6256367875e+01     0.290691    0.2153275  30.08  0.001817908    1.558    0.358
       224  -8.1229    188.9830     32.7849   4.3729653008e+01   3.3853536893e+01    0.2131338    0.1370839 -58.40  0.001048235    1.646    0.393
       225  -9.6572    134.1790     32.1180   5.2982226260e+01   4.7630638696e+01    0.2937736    0.2052182  56.18 0.0003889424    1.294    0.227
       226  -9.0761    130.0212     25.9711   5.1773103696e+01   4.9372454937e+01    0.5789232      0.19783 -46.68  0.001781353    4.686    0.787
       227  -9.1363     39.7546     32.5049   8.4780291675e+01   6.5892392768e+01    0.2363156    0.1875539 -14.61 0.0006905991    1.021    0.020
       228  -9.2940    239.6487     30.9414   3.7590983255e+01   2.2300794152e+01    0.2548787    0.1634386  85.57 0.0001271077    1.549    0.354
       229  -9.6259    224.1035     27.0553   3.8209688101e+01   2.6209912169e+01    0.3963214    0.2120892 -33.50  0.001797806    1.876    0.467
       230  -9.0605     96.9074     29.7538   6.1628633040e+01   5.6544651128e+01    0.2130014    0.1838201  -6.38 0.0003266532    1.163    0.140
       231  -9.2663     84.7491     29.2526   6.5271197175e+01   5.9116965552e+01    0.3273672    0.2243249  28.53 0.0008220117    1.362    0.266
       232  -8.0086     89.7166     25.6017   6.2163562691e+01   5.8577713940e+01    0.2695766    0.2130414  53.15  0.001540164    1.350    0.259
       233  -9.6614     67.1215     28.6187   7.1356394190e+01   6.2475141432e+01    0.3822018    0.2388014  -7.95  0.001399851    1.798    0.444
       234  -8.7532     48.1093     27.0799   7.8640083543e+01   6.5673222446e+01    0.3888386    0.1804973 -30.49  0.001861245    2.088    0.521
       235  -7.9428    227.3393    243.3232   8.4211483746e+01  -8.1810132612e+00     0.127555   0.07549056   5.81 0.0007050902    1.721    0.419
       236  -8.4762    195.0099    242.5156   9.0205180151e+01  -3.3965560118e+00    0.1653102   0.09561223  51.10   0.00080879    2.421    0.587
       237  -8.1895      2.1691    242.0051   1.2772232998e+02   2.3192590451e+01    0.1874764   0.07588987  67.67   0.00107946    2.030    0.507
       238  -9.6638     51.6800     25.3650   7.6301538627e+01   6.5415383950e+01    0.4596732    0.2440881 -40.64  0.002348982    2.021    0.505
       239  -8.1619    247.6827    240.6790   8.0128385902e+01  -1.0561613313e+01     0.122866   0.07130054   3.11 0.0007042177    1.663    0.399
       240  -9.7984    171.8158    233.3595   9.3430637474e+01   1.6000119356e+00     0.333429    0.2819332  54.68  0.002088316    1.431    0.301
       241  -7.8941      4.6328    234.7245   1.2699605240e+02   2.4323756605e+01   0.08868166   0.07951009 -55.64 0.0007006243    1.675    0.403
       242  -9.5324    238.8699    221.1796   7.8351093075e+01  -6.8894454882e+00    0.2820446    0.1558319 -48.72  0.001345876    3.086    0.676
       243  -9.0873    247.6626    217.3881   7.6107312926e+01  -7.6063206717e+00    0.2321383    0.1784886 -48.96  0.001189486    2.112    0.526
       244  -7.9864    186.3842     29.3025   4.3148187645e+01   3.4919230516e+01    0.1810323    0.1199068 -44.97 0.0003124845    1.524    0.344
       245  -8.3187     29.5397    198.9908   1.2008412396e+02   2.9173974961e+01    0.1828424    0.1028754 -81.15  0.001027418    1.595    0.373
       246  -8.6013    175.1897     27.2041   4.4141561418e+01   3.7955021634e+01    0.3787596     0.133965 -43.30  0.001417469    2.935    0.659
       247  -8.1937    156.3502     28.7138   4.7582537526e+01   4.2516723433e+01    0.1903922    0.1342571 -49.96 0.0009650642    1.560    0.359
       248 -10.1140    123.7987     26.9732   5.3507601233e+01   5.0758979461e+01    0.3140168    0.2361787 -14.36 0.0009157649    1.484    0.326
       249  -9.1663    105.1188     26.9931   5.8200161657e+01   5.5090312841e+01    0.3784425    0.1868011 -16.96  0.001311737    2.539    0.606
       250  -9.1233     62.2129     26.5373   7.2394687715e+01   6.3597075058e+01    0.3538822    0.2061637  12.08  0.001705578    2.069    0.517
       251  -8.3288    237.9689    191.8224   7.3069089383e+01  -2.5371251404e+00    0.1969411    0.1265377 -11.15  0.001043651    1.583    0.368
       252  -8.3246    189.5064     27.5024   4.2252921306e+01   3.4362600716e+01    0.2374217    0.1236124  82.70 0.0007687329    2.162    0.538
       253  -7.9705    115.0236     27.1979   5.5689347195e+01   5.2804683391e+01      0.18838   0.09983281  54.89 0.0004794307    1.701    0.412
       254  -8.8552     37.8413     26.2043   8.3031433785e+01   6.7150756480e+01    0.2904263    0.1620822 -21.30 0.0009171639    1.780    0.438
       255  -8.0284     41.7042     25.3314   8.0813624139e+01   6.6803278078e+01    0.1666747    0.1049016  16.93 0.0005838821    1.529    0.346
       256  -9.2079     30.4958     26.7295   8.6858874227e+01   6.7902242203e+01    0.2482824    0.2181136  26.22 0.0008972081    1.485    0.327
       257  -9.4259    246.0755     23.1496   3.5371490035e+01   2.1880655104e+01    0.2323889    0.1643053 -78.17 0.0003673361    1.277    0.217
       258  -9.2933    250.4917     25.0505   3.5406829389e+01   2.0734712164e+01    0.3513844    0.1314386 -38.65  0.001658668    2.250    0.556
       259  -8.5244    247.7019    194.3490   7.1827330189e+01  -4.3916882335e+00    0.1124235    0.1006207 -50.64 0.0005076994    1.684    0.406
       260  -9.3739    234.2300     26.0659   3.7022330556e+01   2.4072715070e+01    0.2090813    0.1583433 -80.98 0.0003347143    1.191    0.160
       261 -10.0945    218.0129     24.6824   3.8271227442e+01   2.7884709532e+01    0.3219183    0.2131233 -67.27 0.0004216903    1.456    0.313
       262  -9.8571    136.7446     25.2766   5.0137866374e+01   4.7804062478e+01     0.341992    0.2442244 -57.94 0.0005662932    1.718    0.418
       263  -8.5712    241.7997    179.4015   6.9937368719e+01  -1.2297775716e+00    0.1852138    0.1133225  25.12 0.0009559037    1.698    0.411
       264  -8.1229    226.3337    178.6832   7.2604655733e+01   1.4325147016e+00     0.123512    0.1118792 -78.71 0.0007047685    1.692    0.409
       265  -8.5265    242.6591    168.6770   6.7614386995e+01   3.2137609617e-01    0.1407769   0.09339103  -0.40 0.0007050757    1.725    0.420
       266  -8.3117    242.3832    153.2036   6.4434818922e+01   2.8732921272e+00    0.2005896    0.1132266 -43.13 0.0009565911    1.760    0.432
       267  -9.3368    250.0655    150.8698   6.2667931177e+01   1.9410153077e+00    0.2946411    0.1532488 -38.04  0.001418122    1.707    0.414
       268  -8.1894    238.3411     25.3030   3.6486703599e+01   2.3270211315e+01    0.1159894   0.09398665  40.91 0.0007039249    1.677    0.404
       269  -9.6255    192.9662     23.7059   4.0820148023e+01   3.3955455843e+01    0.3233579    0.2935237  -5.43  0.001993045    1.366    0.268
       270  -8.3003    161.4165     21.8008   4.4651117546e+01   4.2021688822e+01    0.2346191      0.17416  37.08  0.001253714    1.486    0.327
       271  -8.1376     96.2097     23.4131   5.9308165486e+01   5.7470435930e+01    0.1813023    0.1249933  61.36 0.0009331515    1.622    0.383
       272  -8.0767     22.1968     22.9807   8.9535453090e+01   6.9349933400e+01    0.1622122    0.1244016 -20.18 0.0003870008    1.030    0.029
       273 -10.2910    157.2482     23.0658   4.5700912861e+01   4.2931526152e+01    0.4385427    0.2434158  61.06 0.0003277914    1.578    0.366
       274  -8.2602    113.8951     22.1576   5.4095268510e+01   5.3641987935e+01    0.1908073    0.1396972  35.00 0.0003939652    1.279    0.218
       275  -9.3815    103.6367     21.0948   5.6310614158e+01   5.6102574211e+01    0.3020951    0.2561062 -17.72  0.001119618    1.270    0.213
       276  -8.5590     58.1321     21.4531   7.1794768616e+01   6.4964444066e+01    0.2076605    0.1558388 -19.63 0.0003960279    1.257    0.204
       277  -8.7893    244.0009    149.0121   6.3272737280e+01   3.2805886270e+00    0.1698757    0.1420394 -22.47  0.001004591    1.033    0.032
       278  -8.4812      9.8488    141.1935   1.1976386594e+02   4.4208480946e+01    0.1721141    0.1250076 -54.77  0.001074723    1.358    0.264
       279  -7.9224      5.6600    141.2958   1.2087359290e+02   4.4465959483e+01    0.1252037   0.07692217  66.53 0.0007031214    1.658    0.397
       280  -8.0468    250.2979    140.3361   6.0400418387e+01   3.6020215526e+00    0.1367894   0.09615582  -5.24 0.0006419363    1.653    0.395
       281  -9.6805    241.9505    134.2311   6.0418235001e+01   6.0953870521e+00    0.4537728     0.196685 -28.54  0.001779823    2.512    0.602
       282  -8.5607     13.5530    133.0689   1.1792004639e+02   4.5890829574e+01    0.1700542    0.1609733 -89.81 0.0006151614    1.170    0.145
       283  -9.5090     65.4773    131.7557   1.0252703858e+02   4.1011354595e+01    0.3932301    0.2465012  24.71  0.001440424    1.835    0.455
       284  -8.8210    248.9909    130.2864   5.8444252103e+01   5.4699294811e+00    0.1859429    0.1741093 -17.75  0.001172623    1.100    0.091
       285  -8.0731     25.5086    128.0088   1.1388176296e+02   4.6207287680e+01    0.1882185   0.09721034  82.15 0.0008102685    2.523    0.604
       286  -9.7321     64.0130     18.1097   6.7907772655e+01   6.4407347629e+01    0.3926555    0.2430339  28.20  0.002163239    1.467    0.318
       287  -9.1444    248.8881    135.1588   5.9512699500e+01   4.6920297018e+00    0.2065936    0.1727589 -47.84 0.0008370973    1.278    0.218
       288  -9.1269    239.4489     20.2270   3.5301677488e+01   2.3630989240e+01    0.2640599    0.1618479  65.79  0.001440489    1.654    0.396
       289  -8.3630    232.1509     20.5115   3.5987987781e+01   2.5185388973e+01    0.1713973    0.1117144  78.90  0.000391589    1.447    0.309
       290  -8.1226     17.1523    124.1684   1.1584348632e+02   4.7778855350e+01    0.1679158    0.1292429  81.87 0.0002420572    1.294    0.227
       291  -8.4260      1.6577     20.0925   9.9668696754e+01   7.1355042357e+01    0.1618257    0.1130582 -32.26 0.0005833934    1.046    0.044
       292  -9.4486    169.2713     18.1248   4.2406535645e+01   4.0442859365e+01     0.295046    0.1867289  56.97 0.0008657684    1.437    0.304
       293  -9.9392     69.3903    122.8353   9.9591805730e+01   4.2683884046e+01    0.2323176    0.2301239  26.87 0.0002941528    1.087    0.080
       294  -8.1790    184.3344     17.1994   4.0163497537e+01   3.6793839494e+01    0.3452184    0.1931228 -88.83  0.001593132    2.002    0.500
       295  -8.3164      1.5095    123.4825   1.2028809797e+02   4.8926031313e+01    0.1226781   0.09707338 -75.12 0.0003008391    1.005    0.005
       296  -8.5623    236.0770    117.0842   5.7543306151e+01   1.0093304719e+01    0.2120705    0.1597303 -63.54  0.000407183    1.627    0.385
       297  -8.8223    121.1596     17.5022   5.0701181853e+01   5.2420653494e+01    0.2487548    0.2076923  64.27  0.001449827    1.168    0.144
       298  -9.1096     11.9865    115.0177   1.1623229706e+02   5.0325339621e+01    0.1880763    0.1554625 -71.57 0.0004649047    1.022    0.021
       299  -7.7115     26.4268    112.4315   1.1134065037e+02   4.9920180871e+01    0.1296391    0.1097679 -66.87 4.982506e-05    1.021    0.020
       300  -9.6923    113.3502     16.2911   5.2027185538e+01   5.4386547495e+01    0.2807448    0.2081941  40.76 0.0006607801    1.195    0.163
       301  -9.2718     15.2229    111.9931   1.1482673142e+02   5.0841104516e+01    0.2376554    0.1731505 -75.35  0.000760883    1.183    0.155
       302  -9.4619    250.0658     97.3670   5.1073337623e+01   1.0593832877e+01    0.3510085     0.192202 -26.45  0.001621544    1.986    0.496
       303  -9.0404    236.5984     15.8110   3.4593440618e+01   2.4751521742e+01    0.2577856    0.1811896 -82.59  0.001081518    1.273    0.214
       304 -10.4293    248.8721    108.3652   5.3665438319e+01   9.0626409904e+00    0.3843791    0.2466477 -32.08  0.002005951    1.414    0.293
       305 -10.5360    247.6639    103.5112   5.2763307900e+01   1.0076522222e+01    0.3584105    0.2688395 -35.43  0.002030703    1.175    0.149
       306  -9.2757    119.7584    102.3196   7.9121084921e+01   3.8692677906e+01    0.4211378    0.2553793 -56.21  0.001105935    1.916    0.478
       307  -8.1032     25.4556    103.5049   1.1019739253e+02   5.2146733559e+01    0.1309795    0.1092794 -60.15 0.0001103505    1.004    0.004
       308  -8.9191      9.5395    101.4703   1.1517054195e+02   5.3692831553e+01    0.1988485    0.1006256  34.83 0.0008453223    2.313    0.568
       309  -7.6967     56.3169    100.2506   9.8975242736e+01   4.9868147441e+01    0.1378385   0.09996992 -24.96  0.000178852    1.526    0.345
       310  -7.9024    130.6080     97.8113   7.4803585472e+01   3.7322908032e+01    0.2141542     0.148575 -52.35 0.0006907909    1.562    0.360
       311  -8.8353     72.3702     95.7907   9.2345979949e+01   4.8746119804e+01    0.2653771    0.2266893  -6.27 0.0006377258    1.244    0.196
       312  -9.3983    164.9415     94.8450   6.5414833806e+01   2.9963305860e+01    0.2714213    0.2246966 -43.69 0.0004998281    1.214    0.177
       313  -7.7184    150.2916     10.6785   4.2995081031e+01   4.5930676216e+01    0.1869439    0.1262415  86.94 0.0004388087    1.565    0.361
       314  -7.9516     38.4933     95.4683   1.0416305959e+02   5.2941579135e+01      0.13422    0.1167471 -52.52  7.27263e-05    1.020    0.020
       315 -10.4509    242.1793     92.1137   5.0976147397e+01   1.2986734125e+01    0.4553955    0.1778847 -34.68   0.00181685    2.362    0.577
       316  -7.9983    174.9586     93.0046   6.2731048343e+01   2.7920703722e+01    0.1847345    0.1827467  55.59 0.0009724735    1.016    0.016
       317  -9.6055     19.7573     91.1160   1.0998505875e+02   5.5494258502e+01    0.3200219    0.2618378 -36.74  0.001183876    1.187    0.158
       318  -9.0706    236.8197     91.0059   5.1473037787e+01   1.4258891110e+01    0.2211945    0.1571547  -8.11 0.0007720831    1.941    0.485
       319  -7.6020     99.6607     90.7134   8.1883796151e+01   4.5253237926e+01    0.1555158    0.1174157  -2.57 0.0003499935    1.636    0.389
       320  -8.5997     55.9019     89.4242   9.6505864270e+01   5.2454951080e+01    0.3728476    0.2090998  57.22  0.001490458    3.038    0.671
       321  -9.6449    248.4649     88.4177   4.9306475550e+01   1.2313474582e+01    0.2685069    0.1828449 -19.46   0.00138581    1.745    0.427
       322 -10.6404    188.9411     88.0478   5.8605664769e+01   2.5484260663e+01    0.2575893    0.2482361 -64.09 -0.001320134    1.027    0.027
       323  -8.5885     27.7626     88.8607   1.0665634464e+02   5.5431073461e+01    0.2288657      0.15394  57.29  0.001217611    1.998    0.500
       324  -8.7973      5.5255     88.1712   1.1454304773e+02   5.7009525213e+01    0.1813255    0.1446894 -15.80   0.00120815    1.429    0.300
       325  -9.6160    211.2223     91.5784   5.5548407952e+01   1.9701655536e+01    0.3788241    0.2810917 -62.15  0.001520358    1.499    0.333
       326  -7.9632      1.2058     84.9191   1.1557060497e+02   5.7954952855e+01    0.1661684   0.07936592 -70.43 0.0008565128    1.707    0.414
       327  -9.4685    235.9907     83.7187   4.9911927571e+01   1.5593985890e+01    0.1969434    0.1740886 -59.39  0.001173634    1.077    0.071
       328  -9.7169    199.8004     76.4481   5.3624598694e+01   2.4883142104e+01      0.33943    0.2923293   7.49 0.0006420482    1.413    0.292
       329  -8.0146    195.5735     77.5164   5.4623831552e+01   2.5711271350e+01    0.2184444    0.1701226 -68.96 0.0001809267    1.432    0.301
       330 -10.7142    195.6412     82.0933   5.5811090234e+01   2.4925526947e+01    0.3781946    0.2860514  61.33 0.0002466164    1.360    0.265
       331 -10.6503    188.7335     82.1907   5.7087892104e+01   2.6556397338e+01    0.3004027    0.2650893  51.20  0.000289632    1.154    0.133
