#   1 NUMBER                 Running object number                                     
#   2 MAG_AUTO               Kron-like elliptical aperture magnitude                    [mag]
#   3 X_IMAGE                Object position along x                                    [pixel]
#   4 Y_IMAGE                Object position along y                                    [pixel]
#   5 X_WORLD                Barycenter position along world x axis                     [deg]
#   6 Y_WORLD                Barycenter position along world y axis                     [deg]
#   7 A_WORLD                Profile RMS along major axis (world units)                 [deg]
#   8 B_WORLD                Profile RMS along minor axis (world units)                 [deg]
#   9 THETA_WORLD            Position angle (CCW/world-x)                               [deg]
#  10 FWHM_WORLD             FWHM assuming a gaussian core                              [deg]
#  11 ELONGATION             A_IMAGE/B_IMAGE                                           
#  12 ELLIPTICITY            1 - B_IMAGE/A_IMAGE                                       
         1  -9.6146      6.4862     27.5494   1.1993766921e+02   6.8415096797e+01    0.2073177    0.1751006 -71.41  0.001558057    1.901    0.474
         2  -9.6839     19.8188     18.5025   1.1060708200e+02   6.8739530246e+01    0.3826876    0.1313885 -42.25  0.001954968    2.538    0.606
         3  -9.2384     80.4279     12.7424   8.5445085285e+01   6.1055100510e+01    0.3004477    0.2135595 -48.91  0.001762039    2.076    0.518
         4  -8.0219     15.5360     10.9079   1.0940405855e+02   7.0164039622e+01    0.1483442   0.08332244 -33.41 0.0003170376    1.473    0.321
         5  -8.6794     41.2982      7.7304   9.6853822597e+01   6.7717103471e+01    0.1557659    0.1216707  -8.00 0.0001737558    1.129    0.114
         6  -8.2176     38.5152      6.5306   9.7436091211e+01   6.8209020496e+01    0.1903013    0.1323032  -5.76 0.0005785842    1.185    0.156
         7  -8.0537     31.3416      8.2946   1.0121431517e+02   6.8877705684e+01    0.1143821   0.06768151   0.52 0.0002422692    1.659    0.397
         8  -7.6963    110.2874      7.3759   7.5720198189e+01   5.5625122540e+01    0.1337059   0.08058704  28.83 0.0007018149    1.724    0.420
         9  -9.7802     50.4202     11.8117   9.5114878167e+01   6.6019677831e+01    0.2591195    0.2116194 -41.09  0.001803671    1.745    0.427
        10  -9.7018     14.4547      3.0735   1.0645050090e+02   7.1259364178e+01    0.4499688     0.182297 -26.06  0.002147301    2.301    0.565
        11  -7.8374     18.3035      2.6992   1.0447464353e+02   7.0935664107e+01    0.1550966    0.1073048   7.82 0.0004471434    1.217    0.178
        12  -8.6852    105.6539      4.2045   7.5625246799e+01   5.6873332930e+01    0.2830338    0.1037221  41.93  0.001108314    2.453    0.592
        13  -7.5623     34.6785      4.7085   9.8188321834e+01   6.8889858290e+01     0.112954   0.06737355   4.31 0.0004024445    1.608    0.378
        14  -7.9083    151.7486      3.3789   6.6817965178e+01   4.6541418559e+01    0.1944454   0.09490056  57.61 0.0009487682    1.676    0.403
        15  -9.8574     60.1336      2.7782   8.7720522303e+01   6.5476326430e+01    0.2004465    0.1686987  24.51 0.0002726541    1.185    0.156
        16  -8.5011     38.6010      2.0836   9.5375741957e+01   6.8673491700e+01    0.3240239    0.1260975  47.11  0.001525605    3.634    0.725
        17  -8.2254    197.4767    250.5010   1.1651588341e+02  -6.5144409282e+00    0.1255255     0.102542  27.53 -1.120294e-06    1.038    0.036
        18  -9.6282    248.5052    249.0152   1.0702958417e+02  -1.4174522632e+01    0.3435441    0.2256849 -21.38  0.002214496    1.505    0.336
        19  -8.6912    226.0327    250.4819   1.1126016384e+02  -1.1052379072e+01    0.2570964    0.1006457  38.79 0.0006492527    2.194    0.544
        20 -10.3731    217.4456    249.1553   1.1260825504e+02  -9.5445197220e+00    0.4931403    0.2427961  23.77  0.002328952    2.384    0.580
        21  -9.6392    186.7144    244.9683   1.1769689294e+02  -3.8936800238e+00    0.2917676    0.1760442 -29.40  0.001535506    2.142    0.533
        22 -10.1583    193.1560    248.4846   1.1701664643e+02  -5.5059889945e+00    0.3619795    0.2308282  21.79  0.001097754    1.702    0.413
        23 -10.3979    180.2599    249.5941   1.1961996741e+02  -3.5030408556e+00    0.9052554    0.1694118  39.35  0.002647784    5.058    0.802
        24  -9.1281    187.6967    250.3387   1.1832593134e+02  -4.8673230773e+00      0.19991    0.1547763  46.41 0.0005925004    1.215    0.177
        25 -10.3202    157.1865    246.2279   1.2354459031e+02   9.9116223201e-01    0.4178956    0.3254137 -52.15  0.002179233    1.535    0.349
        26  -8.4915    144.1966    248.7166   1.2637274716e+02   2.8112676816e+00    0.3314549    0.1845655 -34.30  0.001544688    3.031    0.670
        27  -7.8037    139.7569    250.4014   1.2743634015e+02   3.2830483823e+00    0.1784389    0.1049864  36.74 0.0009418829    1.614    0.381
        28  -8.2305     26.0089    250.2139   1.4768941310e+02   2.0069835352e+01    0.1393469   0.07286564  46.22 0.0008786908    1.733    0.423
        29  -7.2298    229.3035    242.6963   1.0938775139e+02  -1.0522039617e+01    0.1066348   0.09530798  58.55 0.0003434969    1.595    0.373
        30  -8.3604    100.0000    246.5689   1.3447855127e+02   1.0531827826e+01    0.2511284   0.06853999 -61.21 0.0009531016    4.084    0.755
        31  -9.2784    168.9017    241.8153   1.2064528288e+02  -3.1973779954e-01     0.199398    0.1595466  26.55 0.0007472524    1.257    0.205
        32  -8.0629    237.6970    247.2945   1.0864618537e+02  -1.2395131295e+01    0.1023508   0.09217571  50.49 0.0002267252    1.576    0.366
        33  -8.0192     60.0003    243.0000   1.4142168475e+02   1.7141373039e+01    0.1818245   0.05760879  40.87  0.000792445    2.874    0.652
        34  -7.5561     28.5253    242.5177   1.4679091919e+02   2.1233396498e+01    0.1159526   0.07901188  74.07 0.0004096499    1.053    0.050
        35  -8.2184    201.1872    240.3085   1.1421121699e+02  -5.6389665498e+00    0.2064018    0.1365821  24.72 0.0007431073    1.477    0.323
        36  -9.8286    183.7783    235.8347   1.1683555236e+02  -1.9519733020e+00    0.3189167    0.2617388  10.43  0.001489097    1.328    0.247
        37  -9.2853    187.1127    239.1474   1.1671484879e+02  -3.0600050120e+00    0.3258652    0.1985655 -22.40 0.0009006558    2.372    0.578
        38  -9.7118    188.7997    234.1892   1.1559606002e+02  -2.5665784484e+00    0.3496611    0.2516565  68.93  0.001851755    2.017    0.504
        39  -8.9144    188.7946    230.3813   1.1497503889e+02  -1.9499706828e+00    0.2404116    0.1851377  19.79 0.0008237931    1.335    0.251
        40  -8.9772    153.3111    250.3540   1.2485282924e+02   9.7885715045e-01    0.2304245    0.1344871  34.93 0.0008026781    1.637    0.389
        41  -7.6325     84.4601    240.4919   1.3673849798e+02   1.4094256227e+01    0.1260617   0.09831256  68.44 0.0001844265    1.007    0.007
        42  -8.5119    234.4875    239.4762   1.0790734999e+02  -1.0885653353e+01    0.1227344    0.1001268  13.82 7.871353e-05    1.004    0.004
        43  -7.6426    214.8170    239.3715   1.1149636941e+02  -7.7591571215e+00    0.1766982    0.1005847  30.39 0.0005004699    1.606    0.377
        44  -8.3228    194.6905    236.9467   1.1490580870e+02  -4.0227566101e+00    0.2287177    0.1551212 -18.51 0.0009980411    1.889    0.470
        45  -8.1579      3.6607    238.3531   1.5057304138e+02   2.4743025411e+01    0.1199918   0.05319527  68.91 0.0007042806    1.803    0.445
        46  -8.2297    166.8626    237.3833   1.2037990435e+02   7.7443684925e-01    0.1866895    0.1089427  33.65 0.0005549009    1.664    0.399
        47  -7.4529     18.6550    237.2856   1.4809036922e+02   2.3365698463e+01    0.1188803   0.05831343  67.26 0.0007019275    1.647    0.393
        48  -7.4293    209.3150    236.2878   1.1201419423e+02  -6.4012741559e+00    0.1278172   0.08886784  11.83 0.0005400431    1.587    0.370
        49  -9.3060    178.1101    235.4445   1.1787900600e+02  -8.9125919203e-01    0.3485883    0.1897631  23.66  0.001052837    2.560    0.609
        50  -9.3490    159.8659    235.6087   1.2149048483e+02   2.3184339858e+00    0.3361088    0.2042944  30.00   0.00131024    1.793    0.442
        51  -7.7146    204.5053    234.4562   1.1261997764e+02  -5.3165468608e+00    0.1313356    0.1076198  19.24 6.241164e-05    1.117    0.104
        52  -7.6484    130.8070    234.4059   1.2707493817e+02   7.6650621187e+00    0.1797112    0.1137406  36.26  0.000325904    1.594    0.373
        53  -7.5457    125.3409    234.3127   1.2814422880e+02   8.6284949129e+00     0.122641    0.1031623  10.89 0.0004515304    1.699    0.411
        54  -7.7718     90.5776    233.9262   1.3488748055e+02   1.4434038721e+01    0.1592528    0.1012057 -42.63 0.0008051847    2.519    0.603
        55  -9.2501      2.4654    233.8072   1.5052127625e+02   2.5735369374e+01    0.2001848   0.09594736  57.13  0.001285308    1.657    0.397
        56  -8.7898    248.8286    233.1881   1.0426578901e+02  -1.2201422263e+01    0.1712404    0.1190049   9.08 0.0005067785    1.351    0.260
        57  -8.5790    170.8407    233.1731   1.1895213072e+02   7.7935985772e-01    0.1778397    0.1459187  18.39 0.0005300978    1.329    0.248
        58  -7.6392    140.3109    233.3372   1.2504046652e+02   6.1961281196e+00    0.1252693    0.1035168   6.79 0.0005287569    1.686    0.407
        59  -8.4773    108.2248    233.5420   1.3141733143e+02   1.1668911987e+01    0.1735113    0.1154789  35.87 0.0006001596    1.639    0.390
        60  -7.4476    243.9872    235.0127   1.0543970948e+02  -1.1725200780e+01    0.1450724    0.1176871  11.13 0.0004203386    1.013    0.013
        61  -7.3367    232.7042    234.7145   1.0741392614e+02  -9.9590379627e+00    0.1235286   0.08356179   8.12 0.0003576661    1.546    0.353
        62  -7.8016    246.4713    230.4642   1.0420175803e+02  -1.1485185497e+01    0.1231774    0.0996876   7.29 9.857271e-05    1.024    0.023
        63  -8.2976    241.6838    230.0046   1.0497219677e+02  -1.0696475410e+01    0.1726469    0.1375835 -11.62 0.0006077345    1.169    0.145
        64  -7.7818    159.3008    229.3083   1.2065077081e+02   3.5269540779e+00    0.1281458    0.1022304  10.43  0.000274934    1.600    0.375
        65  -8.0268     78.2979    238.1309   1.3764902332e+02   1.5477778671e+01    0.2135863    0.1352304  31.71 0.0008298905    2.097    0.523
        66  -7.6580    216.4427    227.5032   1.0917102432e+02  -6.2765325941e+00    0.1298205    0.1095832  15.06 0.0001298204    1.052    0.049
        67  -7.8607    109.0040    227.4820   1.3051273985e+02   1.2728665053e+01    0.1657833    0.1155865  19.31  0.000558002    2.370    0.578
        68  -8.0014    184.9257    226.0450   1.1501716812e+02  -5.4081816739e-01    0.2075793    0.1535203   6.26 0.0007229724    1.705    0.413
        69  -7.5469    167.7441    224.9850   1.1827465337e+02   2.7625352645e+00    0.1501443    0.1185088 -47.45 0.0003595632    1.439    0.305
        70  -8.3002    127.5710    224.6678   1.2638888081e+02   1.0089294488e+01    0.2302211    0.1529764  35.33 0.0006386031    1.581    0.368
        71  -7.9327    152.2004    227.6240   1.2182240618e+02   5.1159934394e+00    0.1902312    0.1151593  35.41 0.0009349884    1.625    0.384
        72  -7.5605    120.6638    224.6498   1.2779104954e+02   1.1301434172e+01    0.1264549    0.1074794  -1.85 0.0007046359    1.786    0.440
        73  -8.1273    249.3388    223.3150   1.0241680759e+02  -1.0935569115e+01    0.1900714     0.122445   2.70 0.0006479068    1.705    0.414
        74  -7.4994     99.5184    223.4736   1.3191417387e+02   1.5104473223e+01    0.1307414    0.1124438  67.58 0.0001922969    1.070    0.065
        75  -7.9138    206.8652    222.1874   1.1006573583e+02  -3.8061887291e+00    0.1813069    0.1411005  12.73 0.0005130332    1.310    0.237
        76  -8.2170    174.7016    221.6608   1.1632912746e+02   2.0771651079e+00     0.209662    0.1557085   5.85 0.0007614509    1.805    0.446
        77  -7.7037    104.9639    222.7684   1.3072773136e+02   1.4350684614e+01    0.1694244    0.0987774  44.34 0.0002850344    1.557    0.358
        78  -7.9763    116.7299    220.8291   1.2807392500e+02   1.2746427131e+01    0.1972492    0.1468998 -10.01 0.0009339704    2.657    0.624
        79  -8.8525      8.6207    221.1608   1.4877418071e+02   2.7616505657e+01    0.1566657   0.07817564 -70.71 0.0009532488    1.773    0.436
        80  -7.7248    242.5751    220.1660   1.0304686284e+02  -9.4466509891e+00     0.171121    0.1068816 -19.27 0.0007243899    1.674    0.403
        81  -7.3564    203.2709    229.3300   1.1199299393e+02  -4.3134116290e+00    0.1284751   0.09391874   4.55 0.0003438945    1.586    0.369
        82  -7.9675    194.2399    219.1928   1.1200508990e+02  -1.0657065444e+00    0.2225387    0.1390307   4.80 0.0009438185    2.722    0.633
        83  -8.0214    204.6512    215.6459   1.0933096961e+02  -2.3470452607e+00    0.2038829    0.1476251   4.19 0.0008469864    1.658    0.397
        84  -7.8076    248.7457    215.3495   1.0106362407e+02  -9.7152551881e+00    0.1657956    0.1036995  27.30 0.0003660352    1.536    0.349
        85  -7.7422    151.0187    216.4765   1.2033121674e+02   7.4264413158e+00    0.2054578    0.1241516  43.28 0.0003186165    1.484    0.326
        86  -7.5899    144.4898    215.4085   1.2152076328e+02   8.8447814368e+00    0.1388008    0.1222804  50.80 7.055043e-05    1.037    0.035
        87  -7.8006    119.7789    215.3683   1.2668043293e+02   1.3326124392e+01    0.1838058    0.1213049  35.99 0.0004415409    1.610    0.379
        88  -8.3084    186.8877    210.7485   1.1198116183e+02   1.7581363901e+00    0.2801498    0.1966949  13.02  0.001374237    1.834    0.455
        89  -7.8365    100.0247    210.8014   1.3018587150e+02   1.7667231899e+01    0.2018008    0.1631432   7.11  0.001077244    2.023    0.506
        90  -8.0092    248.0152    210.5040   1.0028944674e+02  -8.8924658759e+00    0.1805079     0.115528  35.00 0.0005544574    1.518    0.341
        91  -8.6403    169.8699    210.4561   1.1541472716e+02   5.0265421033e+00    0.3132219    0.2021318 -53.55  0.001544838    1.761    0.432
        92  -7.9795    108.0249    209.4459   1.2831435530e+02   1.6607579366e+01    0.1697334    0.1224309  15.54 0.0004552506    2.313    0.568
        93  -7.6192     78.0151    209.2265   1.3456802252e+02   2.1492019339e+01    0.1610949   0.09892639  44.83 0.0004105095    1.561    0.359
        94  -8.1255    147.4319    208.4695   1.1978457190e+02   9.6707938040e+00    0.1400865    0.1276753  54.90  6.62628e-05    1.020    0.019
        95  -8.2275    248.2053    205.8252   9.9371859622e+01  -8.2241366833e+00    0.1808695    0.1335377   3.60 0.0005905933    1.350    0.259
        96  -8.4370     11.8433    205.8311   1.4718712545e+02   3.0454846519e+01    0.1679936     0.101898  72.75  0.001080974    1.337    0.252
        97  -7.9922    163.5297    207.2309   1.1617719463e+02   6.8514010750e+00    0.1802768     0.135424 -31.66 0.0005390143    1.605    0.377
        98  -7.5966    139.9627    204.7743   1.2077110279e+02   1.1829194539e+01     0.188616    0.1089404  43.06 0.0004052264    1.601    0.375
        99  -7.5278    175.5140    202.4383   1.1281661188e+02   5.4644177240e+00    0.1421304    0.1300495  32.32 0.0002178315    1.052    0.049
       100  -7.7113     97.8023    202.4016   1.2951417538e+02   1.9855903632e+01    0.1842709    0.1280328  34.18 0.0008585621    1.664    0.399
       101  -8.7269    250.5293    198.2572   9.7509713981e+01  -7.4448897343e+00    0.3177279    0.1159387 -33.58  0.001283461    2.738    0.635
       102  -8.6139    243.5973    197.8568   9.8658840147e+01  -6.2415845342e+00    0.3858856    0.1810441 -29.98  0.001723816    2.227    0.551
       103  -8.6903    230.4390    198.0078   1.0108737639e+02  -4.0125310401e+00    0.2505199      0.17031  20.83 0.0007223946    1.578    0.366
       104  -7.6866    210.5422    198.5032   1.0497924691e+02  -4.9899043496e-01    0.1403321    0.1238194   8.46 0.0001435379    1.094    0.086
       105  -8.0990    151.1102    198.4886   1.1729839787e+02   1.0993816383e+01     0.215735    0.1340911  42.55 0.0005964239    1.507    0.336
       106  -7.7828    191.3080    196.2930   1.0840285644e+02   3.5596950462e+00    0.1415095    0.1087643   6.91 0.0001981247    1.583    0.368
       107  -8.1732    203.0313    194.9848   1.0578102999e+02   1.5417738120e+00    0.2249193    0.1658217   4.05  0.000595802    1.686    0.407
       108  -7.7589    237.4937    192.0594   9.8622275457e+01  -4.2677513997e+00    0.1963044    0.1240531 -35.03 0.0005011691    1.525    0.344
       109  -7.5261    209.6596    192.7356   1.0402736035e+02   6.8574633469e-01     0.141368    0.1041815  10.99 0.0004232934    1.595    0.373
       110  -8.1437    224.6809    189.6713   1.0052254566e+02  -1.5768889582e+00    0.2139015    0.1505484   3.09 0.0008098424    1.758    0.431
       111  -7.7153    214.7072    190.6501   1.0262816205e+02   1.0421012179e-01    0.1438482     0.104962  -0.82  0.000703011    1.674    0.403
       112  -7.5238    162.3527    190.2917   1.1337001782e+02   1.0466977123e+01    0.1470394    0.1158883   8.43 0.0002431023    1.678    0.404
       113  -7.7055    191.5163    189.4818   1.0703756761e+02   4.8042445897e+00    0.1444145    0.1343103  17.31 2.401772e-05    1.057    0.054
       114  -8.3160    173.0583    188.3064   1.1068374750e+02   8.7238490107e+00     0.256172    0.2067101 -12.06 0.0007062317    1.551    0.355
       115  -8.1615    243.6999    186.9987   9.6498654951e+01  -4.5128057537e+00    0.1916095    0.1582479 -19.41  0.000562588    1.111    0.100
       116  -8.2289    238.2982    184.8822   9.7042637562e+01  -3.2177907500e+00    0.2675638    0.1467578 -19.82  0.001134722    2.418    0.586
       117  -7.6743    215.0067    185.9868   1.0163590577e+02   8.7960394394e-01    0.1684702      0.15456 -17.81 0.0005093548    1.062    0.059
       118  -9.0207    230.2009    184.8795   9.8525763187e+01  -1.7611604006e+00    0.2369266    0.1874561  27.43 0.0003595063    1.258    0.205
       119  -7.7296    211.5675    182.2034   1.0153920028e+02   2.2285819704e+00    0.1967134    0.1317937 -26.99 0.0009357854    1.629    0.386
       120  -8.0360    183.1244    180.0931   1.0691299936e+02   8.3312687538e+00    0.2219548    0.1973776   9.68 0.0005364791    1.223    0.182
       121  -8.6552    250.0919    182.3912   9.4450709587e+01  -4.8552617531e+00    0.2419426    0.1667703 -18.09 0.0007128716    1.485    0.327
       122  -8.4462    242.6916    176.2775   9.4505200071e+01  -2.5477767298e+00     0.278052    0.1565045 -18.04  0.001179026    2.420    0.587
       123  -8.0808    190.1737    175.8858   1.0456885569e+02   7.7243398491e+00    0.2017056    0.1735462   4.45 0.0003730969    1.304    0.233
       124  -7.5986    177.1459    176.5834   1.0747415551e+02   1.0275422893e+01    0.2106955    0.1379118  32.25 0.0004679534    1.681    0.405
       125  -9.1234    246.2943    167.2191   9.2000234251e+01  -1.6491911109e+00     0.254567    0.2129568   7.80 0.0002780085    1.250    0.200
       126  -7.7195    237.2287    167.2094   9.3593296934e+01   2.0711145639e-02    0.2231559    0.1408154   1.99 0.0007322104    2.603    0.616
       127  -7.4231    234.3469    162.3242   9.3075740092e+01   1.4364961285e+00    0.1467778    0.1071642   2.15  0.000704983    1.744    0.426
       128  -7.8490    249.4858    161.0078   9.0154298494e+01  -1.1595381240e+00    0.1971236    0.1121378 -17.22 0.0008010115    2.513    0.602
       129  -7.6604    115.7294    152.9454   1.1690900218e+02   2.8096407786e+01    0.1855369    0.1284809 -54.09 0.0004435602    1.410    0.291
       130  -7.9566    181.4572    145.5135   9.9774147847e+01   1.5854478035e+01    0.1546843    0.1499148 -79.62 -1.04983e-05    1.034    0.032
       131  -7.9008     64.8165    141.5701   1.2786504660e+02   3.9156008859e+01    0.1815969    0.1230138  52.58 0.0005386884    1.600    0.375
       132  -7.7028    248.0000    134.9578   8.4816067362e+01   3.6983426282e+00     0.236025   0.07295179 -39.28 0.0007974188    2.908    0.656
       133  -8.2359    231.6027    129.1131   8.6242107225e+01   8.0954607404e+00    0.2708558    0.1910981   9.39  0.001191685    2.232    0.552
       134  -8.1611    240.1830    123.3145   8.3504216461e+01   7.3679213922e+00     0.275815    0.1877749 -16.97  0.001265226    1.958    0.489
       135  -7.7740    182.3414    123.2814   9.4276016396e+01   2.0317925093e+01    0.1564775    0.1258172  13.45  0.000273383    1.630    0.386
       136  -8.0396    177.7229    121.6553   9.4860930294e+01   2.1735977115e+01    0.1563733    0.1270543  -2.20 0.0003645362    1.628    0.386
       137  -8.3409    248.0749    116.4922   8.0743710005e+01   6.9698651969e+00    0.3801254    0.1888716 -22.38  0.001286424    3.680    0.728
       138  -8.3235    219.9642    113.3095   8.4594870058e+01   1.3594611735e+01    0.4705228    0.2084768  35.70  0.001424893    4.220    0.763
       139  -7.7375    194.4975    110.4960   8.8617655124e+01   2.0039456813e+01    0.1522597    0.1503617 -29.23  7.74047e-05    1.089    0.081
       140  -9.7589      5.0554    106.6449   1.3857001351e+02   5.3039258582e+01    0.1543156    0.1312536 -57.41 0.0005334613    1.142    0.124
       141  -8.1938    241.5668    106.1662   7.9425969601e+01   1.0159667858e+01     0.202408    0.1307243 -28.41 0.0009404048    1.732    0.423
       142  -8.1821    188.2129     99.7995   8.7146264690e+01   2.3630091765e+01    0.2526872    0.1836054  13.89  0.001052273    2.158    0.537
       143 -10.5715      6.3985     94.8560   1.3632489977e+02   5.5525559842e+01    0.3012861    0.2276782 -67.21  0.001568925    1.104    0.094
       144  -8.2061     22.8791     91.6546   1.3061072906e+02   5.5091922855e+01    0.1582895    0.1397209 -52.15 0.0004148203    1.100    0.091
       145  -7.6449    177.3446     91.3271   8.7112203092e+01   2.7893194074e+01    0.1584864     0.123813  17.12 0.0003733412    1.745    0.427
       146  -9.3736      2.9759     81.0266   1.3496335366e+02   5.8643135150e+01    0.1755055    0.1355407 -58.36  0.000425856    1.049    0.046
       147  -8.4844    184.1564     77.6349   8.2122980224e+01   2.8713028759e+01    0.2650341    0.1982928 -51.10  0.000917999    1.337    0.252
       148  -9.1705      1.4061     57.7112   1.3063785092e+02   6.3380033620e+01    0.3784717   0.08650964 -61.13  0.001357721    3.540    0.718
       149  -9.5011     33.1722     57.5431   1.1864924783e+02   6.1119633382e+01    0.2119158    0.1619357 -36.00 0.0002936829    1.062    0.058
       150  -8.6860     94.9026     52.6563   9.5833137371e+01   5.3208701198e+01    0.2260076    0.1852841 -38.47 0.0003979881    1.280    0.219
       151  -8.2887     44.1667     51.8537   1.1276166052e+02   6.1007232819e+01    0.1682232    0.1491044 -24.39 0.0003504387    1.139    0.122
       152  -8.5375     95.6338     45.8607   9.3277858266e+01   5.4113075770e+01    0.2314249    0.1683877  31.88 0.0006824178    1.321    0.243
       153  -7.3560     74.2505     45.6667   9.9927218274e+01   5.7906626391e+01    0.1151291    0.1005377 -58.46 0.0002400149    1.557    0.358
       154  -7.4008    116.0173     44.0200   8.7029373682e+01   5.0238589980e+01    0.1571146    0.1455422  24.33            0    1.016    0.015
       155  -7.7981     54.6560     44.2853   1.0629534547e+02   6.0995876140e+01    0.1069104     0.100182  79.54 0.0007018416    1.644    0.392
       156  -8.1129     66.4923     58.1382   1.0683023985e+02   5.7028397633e+01    0.1805251     0.116661 -39.89 0.0003453427    1.433    0.302
       157  -8.3828      9.6325     42.8023   1.2347073815e+02   6.5648373229e+01    0.1494701   0.08989888 -56.80 0.0008730942    1.623    0.384
       158  -7.7104     77.5188     40.1952   9.6877698535e+01   5.8190877652e+01    0.1682066    0.1119646 -16.63 0.0003676841    1.554    0.357
       159  -8.7448     21.1068     40.0647   1.1791642308e+02   6.5279068777e+01    0.1718839    0.1299079 -28.30 0.0004044726    1.016    0.016
       160  -8.3643    137.0091     38.8901   8.0394369401e+01   4.6214738758e+01    0.2057892    0.1834946  49.05 0.0003220843    1.028    0.028
       161  -9.0210     51.9803     38.4991   1.0519726934e+02   6.2255201289e+01    0.2093689     0.150374 -28.74  0.001321613    1.232    0.188
       162  -7.9957     73.3967     37.2022   9.7136215206e+01   5.9302465781e+01    0.1698981    0.1121884 -40.49 0.0008863547    1.646    0.393
       163  -7.2152    124.7087     34.6829   8.1790687482e+01   4.9571500306e+01     0.139092   0.09737353  25.07 0.0004840412    1.598    0.374
       164  -8.2050     95.0183     33.5386   8.9076581741e+01   5.5939305582e+01     0.185076    0.1587213  -0.79 0.0003228392    1.116    0.104
       165  -8.8008     14.5171     34.0854   1.1867588715e+02   6.6791999744e+01    0.1602942    0.1492536  -4.25  0.001290301    1.390    0.281
       166 -10.2699      4.0775     32.9360   1.2277161867e+02   6.7685558507e+01    0.4043925    0.2257864 -55.53  0.002074297    1.755    0.430
       167  -8.8265      9.5116     33.4548   1.2060213555e+02   6.7252428189e+01    0.2739332    0.1425375 -64.90  0.001372895    3.304    0.697
       168  -8.2844      9.7981     27.4036   1.1842214680e+02   6.8212534798e+01    0.2620183    0.1144358 -32.86 0.0002617375    1.899    0.474
       169  -9.8284    164.7384    246.3196   1.2210560947e+02  -3.3008151114e-01    0.2539065    0.1948673  27.29 0.0003193986    1.331    0.249
       170  -8.9613     91.6031     25.1210   8.6958443465e+01   5.7630053901e+01     0.224876    0.1819763  39.82 0.0003547971    1.156    0.135
       171  -7.6387    172.3950     24.7009   6.9714242737e+01   3.9391936700e+01    0.1462055   0.09537905 -76.20 0.0001188942    1.806    0.446
       172  -7.6313    156.3188     24.2955   7.2196390101e+01   4.3371685231e+01    0.1389731   0.09415077  38.29 0.0003697556    1.610    0.379
       173  -8.9145     21.9392     32.0275   1.1481678771e+02   6.6524451988e+01    0.1691114     0.125526 -21.71 0.0003032261    1.047    0.045
       174  -8.9157     84.7065     21.4392   8.7573429390e+01   5.9346603132e+01    0.2026065    0.1919774  33.66  0.000508632    1.250    0.200
       175  -7.4401     59.3089     22.6803   9.6386756878e+01   6.3438680074e+01    0.1021155   0.09658054 -56.86 0.0007033744    1.641    0.391
       176  -7.5422    137.2895     21.7185   7.4895326990e+01   4.8192096205e+01     0.126147     0.099851 -77.68 0.0002320829    1.527    0.345
       177  -8.1253     64.5187     21.5077   9.4080519814e+01   6.2785938256e+01    0.1196218    0.1004935   6.56 0.0002987846    1.053    0.050
       178  -7.7688     89.6296    249.7204   1.3671367412e+02   1.1563825976e+01    0.1071912   0.09485278  23.27 0.0007011512    1.692    0.409
       179  -7.9095    161.4778     19.0261   6.9821204065e+01   4.2695133221e+01    0.1770309    0.1359098 -24.82 0.0006696771    1.520    0.342
       180  -9.0256     74.8303     16.3984   8.8617064885e+01   6.1667057293e+01    0.2222193    0.1882808  25.78 0.0007328338    1.111    0.100
       181  -8.4229    146.0952     14.1360   7.0926223783e+01   4.6894845091e+01    0.1917023    0.1672121  64.29 0.0003756487    1.023    0.022
       182  -7.6188    113.8613    248.1783   1.3206296578e+02   8.0027018233e+00       0.1582    0.1390814  39.81 0.0005241761    1.323    0.244
       183  -8.0714    151.0502     12.7079   6.9665461284e+01   4.5854224825e+01    0.1833038    0.1485494  62.17 0.0003383282    1.062    0.058
       184  -9.8135    212.0123    246.2016   1.1313426097e+02  -8.2731007028e+00    0.1996753    0.1713854 -10.15 0.0006870983    1.218    0.179
       185  -7.8083     62.6908    247.6591   1.4134025286e+02   1.5879849970e+01   0.09905466    0.0923707 -54.24 0.0007044282    1.691    0.409
       186  -9.0593     14.2136    247.4028   1.4939982171e+02   2.1924065049e+01    0.1504007   0.07042119  54.94 0.0009433693    1.659    0.397
       187  -9.4230    202.6023    248.9334   1.1531647537e+02  -7.1311612412e+00     0.326196    0.2034852  12.30  0.001174063    2.070    0.517
       188  -9.2602    171.3437    245.8048   1.2076269186e+02  -1.3880931766e+00    0.2398258    0.1503207  21.32 0.0008734687    2.043    0.511
       189  -9.3131    150.0301    245.6729   1.2484591965e+02   2.3221624118e+00    0.2382133     0.159584 -19.43  0.001160069    2.757    0.637
       190  -8.0073    136.3427    246.1073   1.2753642082e+02   4.6021025476e+00    0.1748347    0.1595954 -12.28 0.0007418764    1.486    0.327
       191  -7.9233    104.3681    246.2776   1.3363079201e+02   9.8889127649e+00    0.1132169   0.09635705  21.76 0.0003833221    1.682    0.405
       192  -9.1536      1.6841    244.5238   1.5119738974e+02   2.3778001403e+01    0.1820389   0.07354746 -81.20  0.001080115    2.005    0.501
       193  -9.4379    176.9343    243.6353   1.1936631718e+02  -2.0085852231e+00     0.307789    0.2055547  16.34  0.001617106    1.942    0.485
       194  -9.9202    244.3350    243.0616   1.0676018111e+02  -1.2829653467e+01    0.3551654    0.1298794  33.52  0.001617929    2.546    0.607
       195  -8.2074    146.7663    242.6365   1.2506188437e+02   3.4073558171e+00    0.1954209    0.1433623  35.54 0.0007519951    1.318    0.241
