#   1 NUMBER                 Running object number                                     
#   2 MAG_AUTO               Kron-like elliptical aperture magnitude                    [mag]
#   3 X_IMAGE                Object position along x                                    [pixel]
#   4 Y_IMAGE                Object position along y                                    [pixel]
#   5 X_WORLD                Barycenter position along world x axis                     [deg]
#   6 Y_WORLD                Barycenter position along world y axis                     [deg]
#   7 A_WORLD                Profile RMS along major axis (world units)                 [deg]
#   8 B_WORLD                Profile RMS along minor axis (world units)                 [deg]
#   9 THETA_WORLD            Position angle (CCW/world-x)                               [deg]
#  10 FWHM_WORLD             FWHM assuming a gaussian core                              [deg]
#  11 ELONGATION             A_IMAGE/B_IMAGE                                           
#  12 ELLIPTICITY            1 - B_IMAGE/A_IMAGE                                       
         1  -9.9981      5.2077     33.4307   1.0274117821e+02   6.8636884246e+01    0.6066983     0.226413 -57.12  0.002620779    2.278    0.561
         2 -10.4976      8.6191     26.4727   9.8575695258e+01   6.9720790834e+01    0.4833283    0.3744239 -30.00  0.002138863    1.056    0.053
         3  -8.9292    151.9498     16.3475   4.5866792265e+01   4.5156603824e+01    0.4247233    0.1940262 -20.69  0.001805363    2.589    0.614
         4 -10.0828    193.2872     23.7057   4.2207505661e+01   3.4158304793e+01    0.6287537    0.3996146  29.25  0.002988787    2.317    0.568
         5  -8.4927     51.2676      7.2152   6.8768496939e+01   6.7737832393e+01    0.2059574    0.1305972  48.25   0.00117831    1.874    0.466
         6  -9.3314     51.3571     25.6904   7.7514640567e+01   6.5315145559e+01    0.7738338     0.390312 -17.22  0.003491989    2.503    0.600
         7 -10.1402     51.8019     17.8395   7.3728897596e+01   6.6350748611e+01    0.3427777    0.2327311 -32.36 0.0006035444    1.501    0.334
         8  -8.7060     47.3787      9.6512   7.1650661767e+01   6.8059797896e+01    0.5553658    0.1541817  36.65  0.002165424    3.523    0.716
         9 -10.4280     32.1778      6.4869   7.7124918914e+01   7.0574752453e+01    0.2850826    0.1941726 -20.22  0.000575265    1.258    0.205
        10  -9.8123     34.5069      1.8589   7.3510935474e+01   7.0832287672e+01    0.5008784    0.1991649  45.15  0.000498889    3.257    0.693
        11  -9.9436     45.1552     17.8407   7.6630389603e+01   6.7326018078e+01     0.427528    0.2550347  18.28  0.001863398    1.665    0.399
        12 -10.4824     40.0585     14.4344   7.7327831727e+01   6.8494945571e+01    0.5522172    0.2901964 -31.01  0.001719302    1.738    0.425
        13  -9.4336     33.5571     12.7563   7.9624157997e+01   6.9566808136e+01    0.2777183    0.2066243  10.87 0.0008432986    1.182    0.154
        14  -8.9055    178.8793     23.3755   4.3973078721e+01   3.7726050043e+01    0.8468027    0.5157027  24.38  0.003783318    2.532    0.605
        15 -11.0453    218.6081     24.8686   3.9685113025e+01   2.8035192549e+01    0.3508779     0.280688 -75.64 0.0005017402    1.129    0.114
        16  -8.2579    128.5581      9.8320   4.7770818052e+01   5.1490860604e+01    0.2569078    0.1303935 -22.19  0.001200299    2.192    0.544
        17  -8.5985    130.2716      3.6361   4.5292163777e+01   5.1610643840e+01    0.4020134    0.1396268 -24.64  0.001636387    3.066    0.674
        18  -8.9637    134.3790     10.3996   4.6897059538e+01   5.0036027882e+01    0.4046564    0.3683601   2.35  0.002370013    1.209    0.173
        19  -8.8001    126.9636     14.0274   4.9565733637e+01   5.1481159201e+01    0.4084544    0.2647174 -52.70  0.002050467    1.953    0.488
        20  -9.3552    143.4209     22.3477   4.9271344678e+01   4.6634150851e+01    0.5764779    0.3992368 -79.00  0.002846656    1.854    0.461
        21 -10.6486    141.3839     12.9402   4.6522718194e+01   4.8092615849e+01    0.4021593    0.3779709 -12.06 0.0009168485    1.185    0.156
        22 -10.5314    134.1962     18.3552   4.9661742633e+01   4.9308848870e+01    0.6832731    0.3314264  33.94  0.002798496    2.556    0.609
        23  -9.5388    231.5699     20.8499   3.7522710299e+01   2.5589172765e+01    0.3101436     0.279303  14.05 0.0005129798    1.525    0.344
        24 -10.2025     24.5996      8.9225   8.2282679008e+01   7.1152135136e+01    0.5493461     0.436209 -37.14  0.003840651    1.561    0.359
        25  -9.1115     14.8632      3.1083   8.4652789861e+01   7.2973392890e+01    0.2717423     0.199912  -1.61  0.001584638    1.117    0.105
        26  -9.7246     17.0977      9.7151   8.6752452460e+01   7.1810791837e+01    0.3913878    0.2315845 -32.94  0.001939789    1.398    0.285
        27 -10.7674      6.3001      6.7767   9.1541826429e+01   7.3179901878e+01    0.6706797    0.3792047 -46.91  0.004211547    1.788    0.441
        28  -9.3777      1.4730      2.9874   9.2634658136e+01   7.4111145829e+01    0.2499989     0.111869 -46.17  0.001103534    2.004    0.501
        29 -10.8461     15.8933     16.9510   9.0798810178e+01   7.0799444489e+01    0.8717176    0.3574171 -54.07  0.003878899    3.444    0.710
        30 -10.4845     22.9990     17.5753   8.7294607960e+01   7.0038779923e+01    0.5422249    0.2519986  31.63  0.002931949    2.345    0.574
        31 -10.5442    210.6730     18.0096   3.8834916934e+01   3.0658896014e+01    0.6947383    0.5226094 -72.15  0.003566584    1.231    0.187
        32 -10.1495    204.6176     12.5570   3.8104407967e+01   3.2669420332e+01    0.3650156    0.2535538 -26.79 0.0007194272    1.617    0.381
        33  -8.2058     73.3976     16.2385   6.4684925091e+01   6.2871411522e+01    0.2294932    0.1186094 -20.54  0.001118142    2.015    0.504
        34  -9.5264    202.8094      3.0278   3.5935700673e+01   3.4052698783e+01    0.5032046    0.1686075  68.12  0.001326449    2.544    0.607
        35  -9.7044    193.2508     13.2604   3.9472476734e+01   3.5306385483e+01    0.4439932     0.309221  47.59  0.001480021    1.593    0.372
        36 -12.2708    100.7968     12.9611   5.5082276597e+01   5.7612586313e+01    0.4167522    0.3900305 -52.38  0.001179661    1.325    0.246
        37 -10.7919     87.8394     15.8692   5.9881423668e+01   6.0074883746e+01     0.518249    0.4036371  53.65  0.001129932    1.343    0.256
        38 -10.4665     91.3030     13.0327   5.7669360433e+01   5.9650116538e+01     0.359899    0.2244957  26.65  0.001558851    1.590    0.371
        39  -8.3259    171.4738     11.5302   4.1596187999e+01   4.0800359717e+01    0.2352308    0.1409342  61.13 0.0005880491    1.487    0.328
        40  -8.8632    175.6573     13.8026   4.1703621152e+01   3.9543175865e+01    0.3993729    0.1817899  59.92  0.001124794    1.928    0.481
        41  -9.4957     60.9228     11.7370   6.7133426901e+01   6.5624908770e+01    0.3659389     0.332925  84.52  0.001493938    1.829    0.453
        42 -11.6560     65.3423      5.9008   6.2687506685e+01   6.5468841968e+01    0.8036749    0.2687623  45.88 0.0009349071    2.564    0.610
        43  -9.3829     63.8262     17.8291   6.8884789811e+01   6.4399819789e+01    0.4624059    0.2935413   3.60  0.002498145    1.687    0.407
        44  -8.4017     66.4321     11.8200   6.5116625987e+01   6.4647638387e+01    0.2616166    0.1873884  -1.74 0.0006561078    1.313    0.238
        45  -8.3586    247.4079     17.4334   3.5469561139e+01   2.2584286928e+01    0.3193069     0.133986 -52.10  0.001553888    2.091    0.522
        46 -10.7755    183.2284     10.0964   3.9761756165e+01   3.8056688717e+01    0.7755907    0.3213842 -36.49  0.002492303    2.360    0.576
        47 -11.7183    186.3531      3.5168   3.7663975837e+01   3.7925978227e+01    0.3054958    0.2803212 -57.81 0.0001929737    1.154    0.133
        48  -9.4448    182.0000      3.9123   3.8233203652e+01   3.8943275942e+01    0.2542347    0.1841812 -24.27 0.0008269618    1.587    0.370
        49  -8.9319    158.5303     14.5086   4.4275566049e+01   4.3710406990e+01    0.3916197    0.2052137  61.28  0.001857123    1.661    0.398
        50  -9.5405    121.3494     16.7578   5.1713882924e+01   5.2544201973e+01    0.4154239    0.2685542 -31.52  0.002014093    1.685    0.407
        51 -11.6040    113.0371     12.8207   5.2077994487e+01   5.4867766623e+01     0.424376    0.3102511 -10.01  0.002391649    1.496    0.332
        52  -9.2916    109.5857      7.4133   5.0774228717e+01   5.6153773065e+01    0.2989829    0.2081709 -48.20  0.001119895    1.825    0.452
        53  -9.3623    113.7677      3.9562   4.8547017683e+01   5.5483359120e+01    0.4403854     0.277161  39.42  0.002168068    1.454    0.312
        54 -10.6171    236.6935     13.0930   3.5378400748e+01   2.5348992807e+01     0.488894    0.3934481  -4.39  0.001324611    1.792    0.442
        55  -9.3410    250.2991      7.8403   3.3274588939e+01   2.3054542085e+01    0.2052278    0.1431682 -50.40 0.0005833796    1.220    0.180
        56  -9.8577    233.4298      6.1008   3.4113915356e+01   2.6809037680e+01    0.3542016    0.2610505  67.20  0.001412031    1.413    0.292
        57  -9.4993    234.8607      1.4319   3.3007370336e+01   2.6980781589e+01    0.2035732    0.1180529 -85.57 0.0005423192    1.602    0.376
        58  -9.5646    243.9971      4.9751   3.3116783686e+01   2.4670255313e+01    0.4126989    0.2089836 -77.90   0.00192301    1.991    0.498
        59  -9.3537    241.7242      1.5486   3.2560673465e+01   2.5505294215e+01    0.2394174    0.1042789  83.98 0.0008743145    2.263    0.558
        60  -9.8273     94.1517      4.9275   5.3475031491e+01   5.9799991798e+01    0.6950454     0.219111  55.46  0.002802413    2.613    0.617
        61  -8.9689     80.6063     12.1604   6.0480777945e+01   6.1927805802e+01    0.2641979    0.1938363  46.20 0.0008279263    1.291    0.226
        62  -9.3642     84.3920      9.8263   5.8291839026e+01   6.1401252084e+01     0.358384    0.2263112  17.67  0.001302432    1.644    0.392
        63  -8.2874    228.7036     11.6909   3.5715347288e+01   2.7250008848e+01    0.1982575    0.1431262 -37.71  0.000614677    1.391    0.281
        64  -8.6540    195.7216      5.1945   3.7145745464e+01   3.5520504579e+01    0.2973161    0.2269794  73.21 0.0008520696    1.187    0.158
        65  -8.6359    162.0973     10.9309   4.2680153980e+01   4.3174967965e+01    0.1960248    0.1732162  71.70 0.0003209474    1.009    0.009
        66  -8.1308    163.8571      7.6935   4.1479992991e+01   4.3042985730e+01    0.3714108    0.2501309 -61.59  0.001837914    1.638    0.390
        67  -9.6070    150.2846      2.3075   4.1706820133e+01   4.6852334700e+01    0.4159002    0.2284066  38.37  0.002012409    2.021    0.505
        68  -8.1015    144.9869      5.7816   4.3593850804e+01   4.7858308215e+01    0.1778617     0.142666  87.85 0.0003168781    1.268    0.211
        69  -8.0421    150.4278     10.5655   4.4280458808e+01   4.6092877652e+01    0.1959011    0.1856362  87.11  0.000670016    1.088    0.081
        70  -8.3113    148.4521      6.9821   4.3447638013e+01   4.6903665605e+01    0.1869235    0.1572744 -86.70 0.0003509375    1.218    0.179
        71  -8.1338    123.2901     10.1881   4.8920225817e+01   5.2714951891e+01    0.3244697    0.1564385  39.20  0.001443222    2.100    0.524
        72 -10.0015    209.4654     11.4813   3.7369829834e+01   3.1646314411e+01    0.2917701    0.2089689 -69.64 0.0007193833    1.298    0.229
        73  -7.3258    174.3530      8.2953   4.0317959021e+01   4.0402743770e+01    0.1373916   0.08870213  44.14 0.0001856501    1.687    0.407
        74 -10.1965    223.9890      5.2527   3.4655739439e+01   2.8977139013e+01    0.4442832    0.2069712 -36.99  0.001487397    1.991    0.498
        75  -8.0416    227.4267      2.9418   3.3875755694e+01   2.8449327051e+01    0.2328131    0.1193283 -44.91  0.001257308    1.732    0.423
        76  -8.9487    139.4958      5.3097   4.4308939374e+01   4.9239849903e+01    0.4178753    0.1971051  31.08  0.001718219    2.850    0.649
        77  -8.9835    218.0482      3.1568   3.4657576768e+01   3.0524975727e+01    0.2306925    0.1578809 -44.42 0.0005296681    1.389    0.280
        78  -8.5524    121.7446      3.4265   4.6768847970e+01   5.3659754567e+01    0.2667404    0.1559143  38.19   0.00116986    1.659    0.397
        79  -8.4907     81.9352      2.3653   5.5694147892e+01   6.2585353219e+01    0.1843586    0.1558776  -9.50 0.0004246129    1.254    0.203
        80  -8.4072     78.0711      2.4775   5.6887046790e+01   6.3356012417e+01    0.2020046    0.1631292 -29.59  0.000690252    1.466    0.318
        81  -8.9809    248.3008      1.9217   3.2204906451e+01   2.4094634094e+01    0.1878796    0.1447998  84.73 0.0002295767    1.240    0.193
        82 -10.0395    197.0648     18.1698   4.0320506128e+01   3.3865536476e+01    0.4054352    0.2350898 -61.05  0.001786849    1.825    0.452
        83  -8.6433    168.8816      4.9856   4.0050549425e+01   4.2051575356e+01      0.20038    0.1746695  77.31 0.0008246528    1.006    0.006
        84  -7.9775    169.3190     81.6480   6.2412953473e+01   3.1556046506e+01    0.1613079    0.1189256 -71.24 0.0007047399    1.743    0.426
        85  -8.4368    249.5087    249.9281   8.3220180777e+01  -1.1493052805e+01    0.1757642    0.1185409  15.87  0.001214973    1.146    0.127
        86  -7.9626    232.5010    250.4652   8.6258835216e+01  -9.3730384574e+00    0.1178983   0.08686981  10.85 0.0008095948    1.018    0.017
        87  -7.9544    110.5117    250.0130   1.0934680440e+02   8.6134108577e+00    0.1582836    0.1186112 -68.45  0.001030182    1.588    0.370
        88  -7.6335     21.3254     81.3240   1.0820625951e+02   5.7532703561e+01     0.137462   0.07583877 -38.68 0.0007048504    1.689    0.408
        89  -8.1807     49.4933     79.9464   9.7374287276e+01   5.5239468646e+01    0.1981443    0.1740481   3.58 0.0005013574    1.217    0.179
        90  -8.7145     80.5040     78.9967   8.5990412495e+01   5.1106986091e+01      0.29789    0.1755363  53.93  0.001026386    2.386    0.581
        91  -8.3442    155.8369     77.9136   6.4250967702e+01   3.5469719945e+01    0.2407186    0.2119432   8.25 0.0006522645    1.257    0.204
        92  -9.0735    151.8007     78.0370   6.5208114741e+01   3.6412769841e+01    0.2557076    0.2209502  58.68  0.001296091    1.186    0.157
        93 -10.1325     72.5635     73.7571   8.7140856337e+01   5.3479879073e+01    0.4898911    0.2894383 -47.16 0.0008270533    1.592    0.372
        94  -9.6142    199.9074     76.3190   5.5225287905e+01   2.5154401908e+01    0.3863527    0.3033251  27.46  0.001469792    1.564    0.361
        95  -7.9702    195.4817     77.4925   5.6287402959e+01   2.6004277562e+01    0.1476625    0.1394014 -59.84 6.910976e-05    1.025    0.024
        96  -8.9296    107.4992     77.4467   7.6800035349e+01   4.6442674871e+01    0.2650215    0.2171828 -67.88 0.0009030973    1.544    0.352
        97  -9.4926     31.9265     77.0614   1.0325340659e+02   5.7661515728e+01    0.3871101    0.1961487  12.10  0.001470906    2.499    0.600
        98  -8.4617      9.9627     76.2937   1.1143785589e+02   5.9393059390e+01    0.2391497    0.1237078 -47.06 0.0005542246    1.551    0.355
        99  -9.1376    220.5279     75.0730   5.1699691769e+01   2.0618425418e+01    0.2859898    0.2080808 -51.87  0.001038551    1.314    0.239
       100  -8.3184     86.3381     75.9895   8.3079178179e+01   5.0745988997e+01    0.2115591    0.1784316 -33.44   0.00105538    1.111    0.100
       101  -8.5416     50.2071     75.1714   9.5796949710e+01   5.6214605619e+01    0.2215475    0.2010543 -83.91 0.0008235536    1.372    0.271
       102  -8.2550    232.7431     74.3835   4.9835779839e+01   1.8047530161e+01    0.2607718    0.1439122 -47.24 0.0008638615    1.675    0.403
       103  -9.1459    249.3652     73.3154   4.7493990045e+01   1.4745029887e+01    0.2711042    0.2019837 -25.62  0.001535716    1.415    0.293
       104  -9.4743    135.0238     59.3270   6.3347853260e+01   4.3642747982e+01    0.5028102    0.2834976 -52.32  0.001373953    2.255    0.557
       105 -11.3377    149.4198     66.9384   6.2380757555e+01   3.8934327687e+01    0.3803138    0.3022733  38.06 0.0001978859    1.286    0.223
       106  -9.7600    144.1475     64.1753   6.2729202042e+01   4.0668152982e+01    0.4272336    0.3179697 -78.68  0.001018474    1.866    0.464
       107  -9.0692    148.2127     72.5761   6.4390138683e+01   3.8248419761e+01    0.3334248    0.2919818  22.22   0.00105138    1.215    0.177
       108  -8.6430    152.5007     71.5607   6.3098795540e+01   3.7397429926e+01    0.2731435    0.2055987  50.89 0.0004379718    1.311    0.237
       109  -8.2440    189.0308     73.4986   5.6341660669e+01   2.8206723607e+01    0.2159562    0.1455365  58.23 0.0004243328    1.509    0.337
       110  -8.5230    160.9381     72.0482   6.1395111208e+01   3.5270634380e+01    0.3750917    0.1939905 -46.57  0.001099267    2.062    0.515
       111 -10.0406    113.6101     70.4840   7.2744528639e+01   4.6515669503e+01    0.4826427    0.4073325 -61.88  0.001473294    1.419    0.296
       112  -9.0234     67.1000     72.4767   8.8710970020e+01   5.4569570183e+01    0.3849352    0.2261393  15.08  0.001152012    2.222    0.550
       113  -8.0732     56.8912     66.6671   9.0710865810e+01   5.7199617407e+01    0.2165513     0.160147  -7.17  0.001031402    1.459    0.315
       114  -9.0855     59.4235     71.3046   9.1188714033e+01   5.5891614656e+01    0.3924921    0.2623104 -41.94   0.00184539    1.328    0.247
       115  -8.4159     55.5971     71.2396   9.2611781996e+01   5.6405464879e+01    0.2091826    0.1231262 -49.57 0.0006229615    1.536    0.349
       116  -9.5151    243.4011     71.4125   4.7783797722e+01   1.6249703306e+01    0.2777313     0.226926  31.45 0.0005586197    1.581    0.367
       117  -8.1586    141.3110     69.5641   6.5095328757e+01   4.0420173873e+01    0.2901078    0.1948722  51.84  0.001014727    1.475    0.322
       118 -11.3494    129.4973     70.8075   6.8464776164e+01   4.2945929737e+01    0.6930336     0.319418  38.74 0.0005445094    2.430    0.588
       119  -9.8835     28.9320     71.5284   1.0304760641e+02   5.9150893162e+01    0.2481798    0.1819849 -48.44 0.0003356953    1.115    0.103
       120  -8.9744    210.8240     69.7296   5.1792779800e+01   2.3666082815e+01    0.3899056    0.2638231 -88.49  0.001826991    1.887    0.470
       121  -8.0223     80.2458     71.6615   8.3773394677e+01   5.2675975064e+01    0.1965912    0.1304372  25.62 0.0009368732    1.633    0.387
       122  -9.9754     37.3987     68.9123   9.9009124677e+01   5.8956100738e+01    0.5515992    0.3034933 -39.92  0.001369157    1.593    0.372
       123 -10.9582     48.9692     65.4657   9.3418572593e+01   5.8439840384e+01    0.3965538    0.2775095  13.62  0.002187358    1.564    0.361
       124  -8.9936     40.7875     62.0029   9.5638456090e+01   6.0079897564e+01    0.3570538    0.2424509 -72.13  0.001627109    2.086    0.521
       125  -9.7958     35.1962     58.8478   9.6986609631e+01   6.1302568191e+01    0.4949807    0.2664056 -35.22  0.002520664    1.695    0.410
       126  -9.1006    192.0280     69.6078   5.4765139107e+01   2.8121470432e+01    0.3155224    0.2170838  42.47  0.001493769    1.610    0.379
       127 -10.0941     94.6340     67.8260   7.7680228944e+01   5.0856488377e+01    0.4456214    0.3200742 -16.69  0.002154979    1.558    0.358
       128  -9.5275    101.2522     69.8220   7.6243521185e+01   4.9186372170e+01    0.3658057     0.259508  73.20   0.00144968    2.332    0.571
       129 -10.8238    100.3616     62.8151   7.4155742451e+01   5.0673290303e+01    0.7502135    0.5483096  57.35  0.003001459    1.651    0.394
       130  -8.7737    204.1974     68.9175   5.2597682254e+01   2.5338065937e+01    0.2276741    0.2002501  73.76 0.0003307685    1.162    0.140
       131  -8.4392    222.1725     67.9490   4.9718550459e+01   2.1357367803e+01     0.220792    0.1915875  73.19  0.000319964    1.204    0.170
       132  -9.2257    172.3366     66.9933   5.7602929067e+01   3.3333452379e+01    0.5335348    0.2975288  40.37   0.00217853    2.063    0.515
       133  -7.8736      3.4465     68.2354   1.1236478622e+02   6.1520769952e+01    0.1648849    0.1003691 -75.71  0.000944152    1.624    0.384
       134 -10.2426     24.4863     59.2590   1.0161353289e+02   6.2161347524e+01    0.4983429    0.4047421  24.46  0.003260996    1.461    0.316
       135  -9.0603     28.3617     54.3569   9.8525948671e+01   6.2856594546e+01    0.3906765    0.1452407 -40.12  0.001245494    2.341    0.573
       136 -10.0570     15.0412     66.4067   1.0734900739e+02   6.1292952388e+01    0.3033991    0.2003912 -16.52  0.000403115    1.637    0.389
       137  -9.1398     19.5203     62.9877   1.0468465037e+02   6.1737474333e+01    0.3549673    0.1761789 -58.65  0.001519613    1.688    0.407
       138  -8.9566    208.7327     64.4677   5.0760862996e+01   2.4966478992e+01    0.3123702    0.2365843  29.28  0.001140354    1.707    0.414
       139 -10.3294    234.5876     63.6248   4.7065357702e+01   1.9273064361e+01    0.6826793    0.3161861 -41.34  0.003073056    1.883    0.469
       140  -8.5160    201.7680     63.9888   5.1687518342e+01   2.6679314957e+01    0.2067202    0.1919184   7.33 0.0004739345    1.248    0.198
       141  -8.5318    126.6401     64.0423   6.7021438470e+01   4.4796621652e+01    0.2922969    0.2099957  44.14 0.0009597942    1.359    0.264
       142  -9.5196      7.3470     63.2312   1.0975582785e+02   6.2425550845e+01    0.4457415    0.2599536  -1.13  0.001799051    2.034    0.508
       143  -8.2413    160.9787     62.7785   5.8618993000e+01   3.6805342187e+01    0.2375407    0.1952868  25.98   0.00119449    1.366    0.268
       144  -9.2102     81.9563     61.7990   7.9876769341e+01   5.4321261700e+01    0.4771346    0.2797053  18.60  0.002033261    2.263    0.558
       145  -8.2605    117.1078     61.8355   6.8869273714e+01   4.7317751887e+01    0.2109753    0.1988022 -70.84 0.0003690908    1.237    0.191
       146  -8.7127      5.2740     58.5404   1.0956029174e+02   6.3540676669e+01    0.2852591    0.1312236 -44.51  0.001162418    1.674    0.403
       147 -10.0465    243.7391     58.7583   4.4867498988e+01   1.8030889441e+01    0.3115463    0.2896168 -55.93 0.0005796871    1.104    0.095
       148  -8.6722    249.1711     58.3186   4.4170450693e+01   1.6966648770e+01    0.2740959    0.2406678  44.51  0.001740702    1.414    0.293
       149  -8.1380     60.7477     61.5986   8.7582929205e+01   5.7706362959e+01    0.2349176    0.1297424  26.38 0.0009528195    1.975    0.494
       150  -9.5779    183.6644     50.3295   5.0843854032e+01   3.3095955986e+01    0.5425683    0.3313618  32.16  0.002322709    2.278    0.561
       151 -11.6434    192.5877     56.6729   5.1168027544e+01   2.9989579046e+01    0.5423428    0.4728442  79.20 -0.0001541599    1.139    0.122
       152 -10.5843    192.9668     49.2042   4.9086408509e+01   3.0978861690e+01    0.6346651    0.4182707 -79.76  0.002959461    1.868    0.465
       153  -9.3852    197.5015     48.5142   4.8235314932e+01   2.9977142348e+01    0.3475679    0.2337652 -88.09  0.001151265    1.731    0.422
       154 -10.2148    174.5918     57.1406   5.4334327079e+01   3.4330624721e+01    0.7737482    0.4590779 -19.74  0.002112915    2.126    0.530
       155  -9.2286     89.4692     57.5632   7.5828340328e+01   5.3738225210e+01    0.3089302    0.2274827 -18.23    0.0015779    1.403    0.287
       156  -9.1779    235.0902     56.4360   4.5326225732e+01   2.0205881552e+01    0.4455372    0.2310046 -68.55  0.001846799    2.728    0.633
       157  -8.3056    228.5359     64.4789   4.8030798951e+01   2.0466625507e+01     0.228343    0.1983627 -53.98  0.001354241    1.032    0.031
       158  -8.3809    159.7799     58.3478   5.7524095535e+01   3.7802863170e+01    0.2924678    0.2047092  60.54 0.0008622381    1.420    0.296
       159  -9.3419    155.9100     56.5012   5.7750447005e+01   3.9042147816e+01    0.3855334    0.2558579  59.30   0.00150331    1.487    0.328
       160  -7.6617     54.9268     50.5027   8.6017110367e+01   6.0650476610e+01    0.1976859    0.1667993  44.13  0.001180354    1.518    0.341
       161  -9.6532     63.2611     55.9414   8.4671019957e+01   5.8446244255e+01    0.4428904    0.3508546  84.23  0.001751985    2.301    0.565
       162  -7.8309     57.2785     53.6951   8.6217786638e+01   5.9727296517e+01    0.1180691    0.1078804 -78.15  0.000163821    1.550    0.355
       163  -8.3678    224.3331     56.9717   4.6761231558e+01   2.2503810571e+01    0.1877306    0.1626043 -46.39 0.0005172096    1.086    0.079
       164  -8.8668    142.1814     54.4527   6.0076121403e+01   4.2708744019e+01    0.4429818    0.2445857  37.90  0.001348401    2.028    0.507
       165  -9.2512    129.1683     52.6254   6.2563906132e+01   4.6089206655e+01     0.496795     0.448447  28.07  0.001656543    1.075    0.070
       166  -8.8422    124.8015     54.1860   6.4200742959e+01   4.6856851491e+01    0.3091093    0.2151531   4.49 0.0008074127    1.897    0.473
       167  -8.1517    122.5264     43.0626   6.0924626391e+01   4.9063010603e+01    0.1920469    0.1762135  -7.95 0.0003425625    1.107    0.097
       168  -9.2292    127.5995     41.6787   5.9194481204e+01   4.8072734125e+01    0.3385091     0.248764  53.14  0.000999344    1.293    0.227
       169  -9.7449    113.4781     54.2946   6.7293081978e+01   4.9386595204e+01    0.5270027    0.4055784  14.11  0.001626404    1.437    0.304
       170 -10.4649    120.1368     49.8223   6.3913692155e+01   4.8608073702e+01     0.485346    0.2698422 -34.54 0.0009887102    1.838    0.456
       171  -8.3198    207.7996     55.2008   4.8518864240e+01   2.6566972711e+01    0.2348973    0.1880731  50.41  0.001283041    1.353    0.261
       172  -9.3704    204.8799     51.8245   4.8057016225e+01   2.7742970725e+01    0.2915785    0.2394105  40.51 0.0004835414    1.410    0.291
       173  -8.5142    207.4384     48.4477   4.6837391953e+01   2.7612364846e+01    0.2407792    0.1928111 -38.71  0.000654773    1.231    0.188
       174  -7.9803      5.6695     50.7018   1.0749271536e+02   6.5172027971e+01     0.196304   0.08830665 -53.80 0.0007447029    1.632    0.387
       175 -10.3698      9.8108     52.7401   1.0618614909e+02   6.4525147872e+01    0.3128854    0.3055009  21.10  0.002362218    1.346    0.257
       176  -8.3294     14.4781     49.5305   1.0322924419e+02   6.4901501529e+01    0.1948829    0.1468902 -24.10 1.071354e-05    1.205    0.170
       177  -8.2254    220.8834     54.1684   4.6516152066e+01   2.3686009461e+01    0.2070921    0.1639176 -67.19 0.0003751235    1.229    0.186
       178  -8.3812     41.9433     53.5643   9.2462863264e+01   6.1667451289e+01    0.2536893    0.1433642 -36.13 0.0006237877    1.559    0.359
       179  -8.5906     94.4627     52.0499   7.2204556418e+01   5.3732163090e+01     0.386128    0.2505736  -0.29  0.001708343    2.103    0.525
       180  -8.5444     92.8217     48.3241   7.1356077008e+01   5.4671980561e+01    0.2587735    0.2342689 -49.42 0.0007302928    1.324    0.245
       181  -8.9070     88.5832     46.2965   7.1978370881e+01   5.5825746132e+01      0.29222    0.2455729  35.80  0.000861952    1.189    0.159
       182  -9.5445    244.9521     49.5803   4.2673400528e+01   1.9057736033e+01     0.329843    0.2739557  35.56  0.001280245    1.602    0.376
       183  -9.8429    248.2014     37.1073   3.9608117402e+01   2.0029225461e+01    0.4412185    0.2559123 -55.69  0.002402343    1.554    0.357
       184  -9.3537    246.8531     44.5934   4.1374215322e+01   1.9332345710e+01     0.257389    0.1932782 -39.35 0.0004703347    1.243    0.196
       185  -9.1220    250.1822     40.6328   4.0188402109e+01   1.9162663590e+01    0.2953062    0.2104276  62.53  0.001776842    1.552    0.356
       186  -9.5666    212.6459     49.0095   4.6293851599e+01   2.6311450291e+01    0.4160068    0.3126329  34.05  0.002197216    1.719    0.418
       187  -9.9107     81.5030     50.2261   7.5868027911e+01   5.6490004447e+01    0.5915347    0.3255296  45.37  0.002722273    1.941    0.485
       188  -9.9346     72.5417     49.9386   7.8979142525e+01   5.8090449091e+01    0.4447956    0.3329649 -14.91  0.001407765    1.309    0.236
       189  -8.3151     67.9931     50.2493   8.0796844376e+01   5.8773138030e+01    0.2246788    0.1702054  -3.98  0.001004359    1.331    0.248
       190 -10.5231    233.5149     35.5469   4.0673238774e+01   2.3371922741e+01    0.5713662    0.5417726  38.06  0.003018611    1.335    0.251
       191  -9.5444    237.3785     48.6021   4.3258443139e+01   2.0804351704e+01    0.4639607    0.3616957  34.91  0.002663183    1.733    0.423
       192  -8.8024    237.8622     43.0768   4.1945970260e+01   2.1444633030e+01    0.2361184    0.1752664  89.52 0.0007506634    1.360    0.265
       193  -9.5613    233.8771     44.9028   4.2787008316e+01   2.2067457628e+01    0.2902595    0.2623041 -65.66 0.0008606499    1.057    0.054
       194  -8.7985    232.3145     41.6632   4.2205308055e+01   2.2842362561e+01    0.2669512    0.1710373 -59.79 0.0008090941    1.499    0.333
       195  -8.3305    228.3159     49.7543   4.4548376800e+01   2.2633662929e+01    0.2525999    0.1671032  -6.12  0.001176224    2.441    0.590
       196  -9.1462    222.1896     49.9525   4.5326895864e+01   2.3983526381e+01    0.3309768    0.2425329  78.61  0.001426683    1.402    0.287
       197  -8.8040    220.6531     45.9872   4.4549604767e+01   2.4879291084e+01     0.254755    0.2398979 -72.17 0.0008445167    1.083    0.076
       198  -7.8882     62.1958     50.0838   8.2968421595e+01   5.9693157269e+01    0.2019367     0.157479 -66.45  0.001070064    1.954    0.488
       199  -7.7453    168.5037     49.5116   5.3198611324e+01   3.6966341897e+01    0.1447638     0.137384  89.41 0.0008102718    1.038    0.037
       200  -9.8371     41.5973     46.4525   9.0141781551e+01   6.3077995712e+01    0.4878843    0.3815797  74.12  0.002636036    2.474    0.596
       201  -9.5079     20.5093     47.0017   9.9739510864e+01   6.4983364706e+01    0.2254793    0.2104849  15.68 0.0003330898    1.351    0.260
       202 -10.1518    173.6894     45.1386   5.1007995879e+01   3.6293331181e+01    0.3716386    0.3084709  28.44  0.001126302    1.387    0.279
       203  -9.1666    164.7778     46.5602   5.2992506781e+01   3.8311659521e+01    0.2526989    0.2247363 -62.72  0.000414327    1.168    0.144
       204  -9.4372    162.8473     42.0921   5.1990489655e+01   3.9407113600e+01    0.3853649    0.2183143  60.12 0.0006442116    1.665    0.399
       205  -7.9447    155.3335     47.3221   5.5019042749e+01   4.0547798681e+01    0.2019492    0.1529973  -3.53 0.0005701344    1.628    0.386
       206  -8.4373    155.9663     44.2108   5.3925032134e+01   4.0827921102e+01    0.2313032    0.1563496  50.03 0.0003607675    1.415    0.293
       207  -9.1578    153.1166     41.0433   5.3481105751e+01   4.1965894939e+01     0.408164    0.2759427 -62.07  0.001349625    1.847    0.459
       208  -8.5755    111.5547     46.8910   6.5200673283e+01   5.0978976935e+01    0.3813842    0.1420647  51.81  0.001377114    2.651    0.623
       209  -9.8112    137.2459     44.5315   5.7928431787e+01   4.5371016353e+01    0.5777599    0.4863917 -38.41  0.002178233    1.254    0.203
       210  -9.2589    142.0126     39.5384   5.5232892523e+01   4.4900409561e+01    0.4923215    0.3113412  20.31  0.002064027    2.182    0.542
       211  -9.3733     29.3941     44.7576   9.4960738608e+01   6.4668326515e+01    0.3080594    0.1832703 -57.35 0.0008767983    1.832    0.454
       212 -10.6275     34.1801     43.7275   9.2438485804e+01   6.4395659124e+01     0.463135    0.3640688  -1.45 0.0007881257    1.226    0.184
       213  -8.4725      8.9397     44.0509   1.0418775955e+02   6.6350410304e+01    0.3805186    0.1174238 -44.42  0.001749356    2.316    0.568
       214  -8.5297     25.3676     37.9956   9.4441714023e+01   6.6314329367e+01    0.2640234    0.1553309 -25.23 0.0008452004    1.565    0.361
       215  -8.5660      2.0809     20.1634   9.9736112636e+01   7.1246547231e+01    0.4029207    0.1274638 -45.67  0.002020813    2.187    0.543
       216 -10.1564     22.0636     32.3859   9.3955361459e+01   6.7630965733e+01    0.4880137    0.3925082 -18.01  0.001823213    1.078    0.072
       217  -9.5872      1.7711     28.8074   1.0298221441e+02   6.9693490502e+01    0.2057507    0.1390244 -54.06 0.0009671441    1.357    0.263
       218  -9.6167      1.4817     37.0177   1.0569840371e+02   6.8137049483e+01    0.8295763    0.2832802 -67.89  0.003098707    4.198    0.762
       219  -8.0642      3.6843    249.6839   1.2852326207e+02   2.1691914183e+01   0.08560967   0.07372762 -68.37 0.0004759825    1.648    0.393
       220  -9.5262     13.9471     30.5313   9.7319172591e+01   6.8616015788e+01    0.3274242    0.1993437   9.69  0.001557374    1.723    0.420
       221  -7.7958     19.6706    248.3038   1.2582701671e+02   2.0364199983e+01    0.1152729   0.05495637  62.27   0.00040949    1.651    0.394
       222  -8.7530     96.3274     43.4202   6.8400767801e+01   5.4742187727e+01    0.2731774     0.201949  27.28  0.001177586    1.325    0.245
       223  -9.2687    185.5188     41.5344   4.8100441180e+01   3.3854050243e+01    0.4455484    0.2587487 -65.00  0.001920903    2.189    0.543
       224  -8.9057    147.5700     41.7169   5.4795955188e+01   4.3244443998e+01    0.3088252    0.2201758  36.91 0.0006492363    1.476    0.323
       225  -9.5778    100.3875     37.9055   6.5066586219e+01   5.4710663358e+01    0.5707781    0.2998441 -26.34  0.002543958    2.019    0.505
       226  -8.5486     67.1806     42.2188   7.8030387834e+01   6.0289050924e+01    0.3064815    0.1947421  36.27 0.0008879103    1.593    0.372
       227  -9.8517     67.0485     28.3021   7.2331093662e+01   6.2456042535e+01    0.4746219    0.2835229 -26.11  0.002003314    1.618    0.382
       228 -10.2494     51.7705     37.1912   8.2222913907e+01   6.3441615685e+01    0.3669182    0.2269438 -35.99  0.000233736    1.474    0.322
       229  -9.7726     58.3375     34.7283   7.8487334113e+01   6.2891526695e+01    0.4720089    0.2980105  12.79  0.001413046    1.738    0.425
       230  -9.7354     62.5393     38.6779   7.8421737510e+01   6.1609402143e+01    0.7097073    0.3202591  25.34  0.002893392    2.822    0.646
       231  -9.8203     69.0437     35.7220   7.4704135807e+01   6.1021322745e+01    0.5312025    0.3502665  14.52  0.001615782    1.628    0.386
       232  -8.6865     12.3905     36.1366   1.0006148647e+02   6.7680893143e+01    0.2164179    0.1780738 -10.54 0.0009569553    1.210    0.174
       233  -8.1711     15.3232     39.3194   9.9695979280e+01   6.6869686564e+01    0.2241108    0.1377007 -27.19  0.001352127    1.420    0.296
       234  -9.6457    223.8835     39.7886   4.2683412913e+01   2.4972324543e+01    0.3911324    0.2074012 -48.64  0.001490988    1.745    0.427
       235  -8.5937    225.5360     36.0577   4.1618026687e+01   2.5081812711e+01    0.2801949    0.1946134 -40.35 0.0003890263    1.352    0.260
       236  -8.0105    171.1258     41.3452   5.0329022749e+01   3.7445651318e+01    0.2911229    0.1080791  54.39  0.001079337    2.457    0.593
       237  -8.6668     78.3744     41.5149   7.3626920036e+01   5.8490493255e+01    0.3266901    0.1257246  40.78  0.001296016    2.556    0.609
       238  -8.0911    241.9588     40.5395   4.0959404947e+01   2.0900078604e+01    0.1819271    0.1202667  75.07  0.001018683    1.560    0.359
       239  -8.0465    106.5286     39.8953   6.4043689460e+01   5.3111171429e+01    0.1902721    0.1364849 -27.80 0.0003452385    1.427    0.299
       240  -9.6445     91.6132     34.4128   6.6376855151e+01   5.7015304153e+01    0.4235831    0.3948092 -38.32  0.002112813    1.281    0.219
       241  -9.2795    216.5089     38.5663   4.3226978765e+01   2.6819648041e+01    0.2512803    0.2263792 -65.25  0.000567864    1.035    0.034
       242  -9.5392    212.7721     37.5947   4.3425812675e+01   2.7814138953e+01    0.3428366    0.2096535  73.79 0.0009569974    1.638    0.389
       243  -9.0716    119.8621     38.9258   6.0123773536e+01   5.0256937082e+01    0.2366266    0.1896306  46.16 0.0004812657    1.165    0.142
       244  -9.0869    193.0688     36.7003   4.5699817055e+01   3.2636137490e+01    0.2885933    0.2315066  88.57 0.0009424658    1.221    0.181
       245  -9.1587    110.3368     36.6578   6.1780799017e+01   5.2724359368e+01    0.3846574    0.2633929  76.99   0.00171003    2.179    0.541
       246  -8.9847    114.0015     35.4961   6.0377144897e+01   5.2058132878e+01    0.3893136    0.2002288  40.65  0.001692399    1.899    0.473
       247 -10.8516    123.9690     35.2039   5.7785414444e+01   4.9798310103e+01    0.4645297    0.4043385 -89.27  0.002597864    1.381    0.276
       248 -10.1688    123.8170     26.6615   5.4762546579e+01   5.0886022338e+01    0.3294953    0.2394449 -22.32 0.0005851643    1.478    0.324
       249  -8.1482    241.2071     36.4288   4.0116779013e+01   2.1592284615e+01    0.1653919    0.1109543 -86.41 0.0003561119    1.531    0.347
       250  -7.6728    173.3044     36.2905   4.8494335540e+01   3.7562457400e+01    0.1404782    0.1038635  34.51 0.0006989273    1.571    0.364
       251  -9.9303    153.4306     33.5882   5.1065454835e+01   4.2851296928e+01    0.4213051    0.3732609  19.61 0.0005595069    1.235    0.190
       252  -7.8638     71.6836    247.7141   1.1652226456e+02   1.4397633426e+01   0.09847456   0.09003285   7.70 0.0003320442    1.586    0.370
       253  -8.3579    159.3856     27.8280   4.8226375004e+01   4.2062575792e+01    0.4027076    0.1261867 -31.01   0.00144315    3.165    0.684
       254  -8.6620    155.3129     28.6214   4.9165911666e+01   4.2983242473e+01    0.3885225    0.1710662  65.17 0.0007771329    2.177    0.541
       255  -8.7168    153.0782     23.2756   4.7867962584e+01   4.4146408564e+01    0.4497881    0.2142635 -39.44  0.001962465    2.213    0.548
       256  -9.0097    157.1608     22.8799   4.7065350849e+01   4.3175898655e+01    0.2976344    0.2092874  79.25 0.0006281807    1.452    0.311
       257  -8.4256    161.4344     21.7436   4.6036157411e+01   4.2237226732e+01     0.282109     0.235989  43.07 0.0009491885    1.228    0.186
       258  -8.2163    165.7995     35.0892   4.9362111404e+01   3.9584175408e+01     0.208715    0.1807536 -76.98 0.0006765781    1.198    0.165
       259  -8.8674     33.9563     34.6366   8.9126447312e+01   6.6073626135e+01    0.3330526    0.2155081  37.28  0.001923542    1.929    0.482
       260  -9.1394     39.4718     32.6409   8.5774858220e+01   6.5790964632e+01    0.2775398     0.178849 -20.46 0.0007624106    1.426    0.299
       261  -8.6579    188.6269     32.2728   4.5107759786e+01   3.4277437633e+01    0.2182296    0.1767987 -76.68 0.0006323533    1.224    0.183
       262  -8.9502    186.4882     29.0599   4.4519812190e+01   3.5191878521e+01    0.4162212    0.3196566 -11.29  0.001456367    1.613    0.380
       263  -9.3912    242.7907    245.4379   8.3652307528e+01  -1.0123596454e+01    0.2862224    0.1387234  -2.77   0.00130972    3.108    0.678
       264  -9.5652    189.4274     22.1889   4.2277242991e+01   3.5269115216e+01    0.3289604    0.2519432 -69.82  0.000658204    1.295    0.228
       265  -9.3085    134.2578     32.1191   5.4380675052e+01   4.7737730738e+01    0.2516269    0.1957157  62.97 0.0004584054    1.254    0.203
       266  -9.0165    130.6052     28.1374   5.3787235273e+01   4.9097379789e+01    0.3839717    0.1795882 -35.77  0.001425521    2.251    0.556
       267  -9.9145    211.4171     31.8924   4.2167868992e+01   2.8852769624e+01    0.7108268     0.355902 -76.92  0.002858388    2.862    0.651
       268  -9.0838    213.8587    244.8750   8.8743271248e+01  -6.1194392524e+00    0.2542401    0.1316745  30.41  0.001106009    1.613    0.380
       269  -8.8647    234.3906    243.0504   8.4739083983e+01  -8.7301106091e+00    0.2763768    0.1442104  13.36  0.001460119    2.068    0.516
       270  -9.3106    194.0340    241.9081   9.2001832728e+01  -2.8151134356e+00    0.2851496    0.2033217  53.47  0.001609434    1.914    0.477
       271  -9.5215    247.8961    240.1441   8.1901001985e+01  -1.0155189689e+01    0.2548579    0.1178225 -34.52  0.001404647    2.240    0.554
       272  -9.0318    227.7144    240.2784   8.5481917752e+01  -7.4743021960e+00    0.2438322    0.1221323 -14.13  0.001176927    2.626    0.619
       273  -8.1232     13.6646    238.6788   1.2637947762e+02   2.2735970324e+01   0.09175147    0.0784228 -57.40 0.0007050048    1.706    0.414
       274 -10.0244    171.8459    233.5982   9.5069927598e+01   1.8582620051e+00    0.3765984    0.3591406  82.61  0.002567414    1.385    0.278
       275  -9.4931     32.1278     16.0467   8.1926791666e+01   6.9272699691e+01    0.3746979    0.2018302  38.58  0.002063209    2.235    0.553
       276  -7.9455      4.6588    235.3091   1.2776348724e+02   2.4227945895e+01    0.1162298   0.05363182  62.76 0.0007044258    1.691    0.409
       277  -7.9492    152.7514    233.9322   9.8959849874e+01   4.8463584692e+00     0.148722    0.1102741 -44.42 0.0008825186    1.581    0.368
       278  -9.4952     19.8248     40.3994   9.7910686288e+01   6.6326449637e+01    0.2776101    0.2174087  29.72  0.001162548    1.599    0.375
       279  -8.7563    224.2876     28.0416   3.9862166093e+01   2.6362074889e+01    0.3810131    0.1794432 -33.38  0.001444155    2.054    0.513
       280  -9.5074     84.6053     29.4131   6.6599250383e+01   5.9090095217e+01     0.284144    0.2409847  21.18 0.0006785214    1.045    0.043
       281  -7.5742     71.5136    239.5180   1.1586365465e+02   1.5920514692e+01    0.1192359   0.09491995  60.66  0.000810263    1.001    0.001
       282  -8.3639    163.5620     29.5412   4.8060107767e+01   4.0820581034e+01     0.240659    0.1277207  63.07 0.0006244674    1.733    0.423
       283  -9.1936    168.4344     23.0953   4.5377252425e+01   4.0347502060e+01    0.4868226    0.2382548  69.39  0.001676768    1.952    0.488
       284  -9.1606    167.5024     28.5501   4.7133120591e+01   3.9955792019e+01    0.2501612     0.238469  65.94 0.0006092915    1.055    0.052
       285  -9.3562    170.4717     26.5252   4.6080413181e+01   3.9452524926e+01    0.4966318     0.244903  69.33  0.001425911    1.965    0.491
       286  -9.0470    105.3008     26.2188   5.9161679437e+01   5.5175333809e+01    0.3272803    0.1905231 -15.10 0.0006542539    1.971    0.493
       287  -9.0789    103.9072     21.1445   5.7544244125e+01   5.6069498152e+01    0.3063665    0.2474162  -3.66  0.001170518    1.270    0.213
       288  -7.7549    247.5189     28.5202   3.7815623419e+01   2.1247246407e+01    0.1255132     0.102368 -63.62 0.0002445695    1.015    0.014
       289  -8.2928    202.7979     27.8714   4.2153142673e+01   3.1381300440e+01    0.1817387    0.1695748  58.16 0.0003157503    1.193    0.161
       290  -9.1927     62.0604     27.0677   7.3723728643e+01   6.3462254000e+01    0.3390483    0.2215515  -1.01  0.001817537    1.646    0.392
       291  -7.8620    115.0352     27.0515   5.6979110240e+01   5.2884414461e+01    0.1688388    0.1431664  43.60  0.000445029    1.072    0.067
       292  -8.6548     38.2715     25.5454   8.3315227698e+01   6.7092623118e+01    0.2873831    0.1676029 -19.97  0.001192469    1.666    0.400
       293  -8.2067     41.9922     25.0514   8.1375770665e+01   6.6701040661e+01    0.1766185    0.1516998 -10.52 0.0004907964    1.163    0.140
       294  -8.1802     30.1758     26.4492   8.7579240304e+01   6.7872616697e+01    0.3203399    0.2456666 -26.07  0.001479386    1.103    0.093
       295  -8.9582    234.6396     25.7439   3.8345212291e+01   2.4337960173e+01    0.2438957    0.1997623  76.49 0.0006285475    1.235    0.190
       296  -8.6098    238.8063     24.8828   3.7780831329e+01   2.3536716981e+01    0.1874435    0.1626933 -66.36 0.0005310581    1.058    0.055
       297  -9.2354    237.2229     20.5653   3.6967579115e+01   2.4387492408e+01    0.2514716    0.2085389 -66.97  0.001073776    1.009    0.009
       298  -7.7698    102.5023    229.4488   1.0868222175e+02   1.3472788827e+01    0.1278412    0.1051414  55.01 0.0001041202    1.042    0.041
       299  -9.7527    136.8470     25.3724   5.1541643832e+01   4.7907549507e+01    0.3444944    0.2675317  82.46 0.0005367579    1.437    0.304
       300  -8.5018    219.9877    228.4735   8.4934935756e+01  -4.8081700420e+00    0.1897293    0.1047224  32.26 0.0006206339    1.591    0.371
       301  -8.3199    233.3086    210.8833   7.9391223897e+01  -4.3095141903e+00    0.2033207    0.1576709  31.16 0.0007053522    1.341    0.254
       302  -8.3490     29.5296    199.3503   1.2095582999e+02   2.9066156185e+01    0.2399488     0.101278 -75.19  0.001068011    2.116    0.527
       303  -7.9081    141.4865    189.4926   9.4390115913e+01   1.5030032437e+01    0.1422155    0.1324571  43.09 3.003163e-05    1.032    0.031
       304  -8.3511    191.9987    182.4068   8.1967165113e+01   7.1612716121e+00    0.2068877    0.1771217 -23.06 6.113791e-05    1.145    0.127
       305  -7.8304    137.5230    170.9837   9.1918066333e+01   1.9678035081e+01    0.2104782    0.1238769 -27.71 0.0008097388    2.510    0.602
       306  -7.4613    224.5096    153.4811   6.9498354603e+01   6.3194026040e+00    0.1420645    0.1252966 -13.80 0.0008103108    1.004    0.004
       307  -8.9974    128.3646     18.8181   5.0982367052e+01   5.0666571595e+01    0.3978125    0.1791232  58.66  0.001568604    1.949    0.487
       308  -8.1696     89.6085     25.6867   6.3466362766e+01   5.8573546579e+01    0.2284407    0.1450925  18.20  0.001128637    1.753    0.430
       309  -8.6439     78.0001     25.5083   6.7172241498e+01   6.0871420284e+01    0.4646296    0.1763634  44.48  0.001938718    2.439    0.590
       310  -9.0703     80.0758     21.2432   6.4637213420e+01   6.1010749695e+01    0.3139096    0.2022118   7.50 0.0007387446    1.730    0.422
       311  -8.0459    198.1972     25.2245   4.2014988648e+01   3.2796531708e+01    0.1926998    0.1392578 -65.47   0.00105146    1.373    0.272
       312  -8.3675     22.3560     23.6188   9.0288357053e+01   6.9124489015e+01    0.2902564    0.1362218 -48.68  0.001440766    2.119    0.528
       313  -8.9525    246.0798     23.2667   3.6811630318e+01   2.2181824131e+01    0.1885158    0.1503498 -53.55 0.0003519368    1.099    0.090
       314  -8.6521    113.3986     22.5195   5.5676810145e+01   5.3780825128e+01    0.3979203    0.1912623  33.29  0.001300168    2.432    0.589
       315  -7.8725    171.5351    152.4809   8.0070077226e+01   1.6935678041e+01     0.151044    0.1446526  -1.32 0.0002085594    1.006    0.006
       316  -8.0977     95.8709     23.2225   6.0589339525e+01   5.7571057994e+01    0.1888834     0.178726  75.80  0.001172277    1.321    0.243
       317  -9.9811     66.0159    131.6024   1.0342435851e+02   4.0871891351e+01     0.513427     0.323419  19.79  0.001330656    2.001    0.500
       318  -8.6376     13.4460    133.0776   1.1866603887e+02   4.5797200191e+01    0.2016854    0.1714737  54.59 0.0005945216    1.308    0.235
       319  -8.0253     25.5076    128.4977   1.1473616997e+02   4.5974948332e+01    0.1300461    0.1079284 -75.98 -8.390954e-05    1.023    0.022
       320 -10.7226     69.3750    122.8804   1.0072523974e+02   4.2566343485e+01    0.2498359    0.2366201 -58.92 0.0002751864    1.040    0.038
       321  -7.9286     17.4132    124.4604   1.1653451961e+02   4.7581783597e+01    0.1272064    0.1024897 -77.25 5.675414e-05    1.043    0.042
       322  -7.3359    236.3129    117.2489   5.9333997231e+01   1.0312613761e+01    0.1322201    0.1043054   6.94 0.0001891075    1.516    0.341
       323  -9.0606     12.0375    114.9970   1.1689836940e+02   5.0222422703e+01    0.2487044    0.1789914 -48.13 0.0004308275    1.339    0.253
       324  -9.1051     15.4266    112.2853   1.1550685285e+02   5.0647717823e+01     0.214734    0.1619829 -75.02 0.0005886811    1.122    0.109
       325  -8.4300     22.8386    113.7265   1.1343696983e+02   4.9767466557e+01    0.2353056    0.1394674 -60.24 0.0006001425    1.366    0.268
       326  -9.0597     70.8240     20.0224   6.7291641162e+01   6.2892646806e+01    0.2841655    0.2282516 -48.29  0.001684092    1.738    0.425
       327  -8.6749      6.2011    112.8051   1.1836620383e+02   5.1099948208e+01    0.2436182    0.2263202 -86.12  0.001756892    1.184    0.155
       328  -7.6708     65.4518    110.5200   9.9319258870e+01   4.6110021985e+01    0.1437958    0.1280676 -48.87 0.0001198313    1.030    0.030
       329  -7.2620    180.6406    105.6871   6.6621293572e+01   2.4399894310e+01    0.1613301     0.121276  11.30 0.0007042751    1.747    0.428
       330  -8.0128     44.1970    105.1359   1.0509443725e+02   4.9930990662e+01    0.1795713    0.1486511 -88.53 0.0003670899    1.324    0.245
       331  -9.4626    119.5022    102.1672   8.0639426484e+01   3.8795044451e+01    0.4449199    0.3123647 -55.68  0.000978678    1.543    0.352
       332  -8.4711     25.8614    103.4874   1.1082830039e+02   5.1995802460e+01     0.164288    0.1303349  18.86   0.00066151    1.511    0.338
       333  -7.9909     58.1137     21.2104   7.2679610886e+01   6.4912429094e+01    0.1865382    0.1413199   2.16 0.0006346955    1.160    0.138
       334  -7.9248    217.9625    102.5465   5.8844087083e+01   1.6611884879e+01    0.2093867    0.1446563  53.26 0.0007949768    1.571    0.363
       335  -9.6535    169.5546     17.9335   4.3703557159e+01   4.0626565157e+01    0.4588044    0.2035185  57.39  0.001411488    1.989    0.497
       336  -9.1572     10.4766    101.5004   1.1551929231e+02   5.3527747573e+01    0.2191768    0.1223221  20.63  0.001206656    2.188    0.543
       337  -8.1215     56.1530    100.1459   1.0002884199e+02   4.9782981776e+01    0.1900247    0.1606388 -86.75 0.0005583236    1.357    0.263
       338  -9.1161     16.6258     99.0803   1.1313484413e+02   5.3714062158e+01    0.2166667    0.1771925  -4.63 9.849056e-05    1.477    0.323
       339  -8.9470    203.7514     97.6224   6.0068791857e+01   2.0612755284e+01     0.327689    0.1919981 -46.92  0.001423877    1.692    0.409
       340  -8.2232    130.7235     97.7333   7.6293253016e+01   3.7371529402e+01    0.2047416    0.1807378 -73.47 0.0004911506    1.309    0.236
       341  -7.9939     43.2917     98.0583   1.0393104930e+02   5.1718751415e+01    0.2382086   0.05472658 -45.95 0.0007028794    4.178    0.761
       342  -8.7402    250.5880     96.2420   5.2479381603e+01   1.0969139102e+01    0.3105791    0.1661246 -26.88  0.001415095    1.977    0.494
       343  -8.9314    249.3351     92.6751   5.1846410289e+01   1.1775884016e+01    0.2083434     0.116632 -47.70 0.0008341097    1.658    0.397
       344  -9.1627     72.3624     95.3617   9.3396781147e+01   4.8734674020e+01    0.3353021     0.289712  27.07  0.001451214    1.247    0.198
       345  -8.3866    156.8296     17.6109   4.5487947529e+01   4.3818668372e+01     0.208084    0.1633975  72.30  0.001169282    1.178    0.151
       346  -9.3168    211.0993     92.3104   5.7459986063e+01   1.9887879339e+01    0.5513029    0.2878029 -58.04  0.001695077    2.663    0.624
       347  -9.2505    165.2206     94.6494   6.6955620617e+01   3.0115146459e+01    0.2846816     0.268252   2.13  0.000476783    1.104    0.094
       348  -9.0991     38.8365     94.0795   1.0461604052e+02   5.3103508991e+01     0.322572    0.1424887 -53.18   0.00106493    1.833    0.455
       349  -8.2581    145.5421     93.0099   7.1108774619e+01   3.5020873371e+01    0.2294369    0.2031263  43.62  0.001154447    1.137    0.120
       350  -8.1475    237.4646     92.4494   5.3426179154e+01   1.4194148213e+01    0.1386472    0.1225771 -44.04 0.0001667166    1.013    0.013
       351  -7.6674    216.6738     92.7271   5.6647792058e+01   1.8578825014e+01    0.1401303    0.1120767  14.99 0.0002478673    1.582    0.368
       352  -9.5664     19.8237     90.9497   1.1063723602e+02   5.5410740925e+01    0.3067437    0.2744388 -62.69  0.001457233    1.108    0.097
       353  -8.5170    241.4339     91.2411   5.2590001064e+01   1.3578178091e+01    0.2009826    0.1119474 -44.85 0.0006050428    1.613    0.380
       354 -10.0431    189.1356     88.0097   6.0240135594e+01   2.5693427896e+01    0.2941434    0.2643352 -88.84            0    1.205    0.170
       355  -9.3687     55.4034     89.2502   9.7657652897e+01   5.2425883563e+01    0.4142934    0.2624864  57.88    0.0019055    2.344    0.573
       356  -8.5330    137.2108     88.7414   7.1969745357e+01   3.7772733882e+01    0.3896874    0.1903348 -30.36  0.001371999    2.485    0.598
       357  -8.3950     99.6761     90.1789   8.3091754790e+01   4.5320756883e+01    0.2197873    0.1858562 -34.56 0.0008841811    1.134    0.118
       358  -8.2973     79.2466     15.3780   6.2342103094e+01   6.1850725745e+01    0.2049323     0.154907  13.41 0.0006137807    1.220    0.180
       359  -8.5906     27.8466     88.8940   1.0740291967e+02   5.5290107956e+01    0.3046184    0.1867918 -83.98  0.001187308    2.037    0.509
       360  -9.0145      5.9495     87.6575   1.1490446684e+02   5.7011197333e+01    0.2748841    0.2141358  10.95  0.001417441    1.590    0.371
       361  -8.0517      1.4260     13.7223   9.7539186869e+01   7.2394229117e+01    0.1595366   0.07519452 -40.03 0.0008143858    1.566    0.361
       362  -9.1105    242.2410     86.4330   5.1374556430e+01   1.4177017148e+01    0.2699746    0.1746901 -34.93  0.001393725    1.392    0.282
       363  -7.8266    170.1638     86.8584   6.3707568972e+01   3.0408278320e+01    0.2109647    0.1819806  11.03 0.0006237794    1.324    0.245
       364  -8.0282    174.5075     92.9126   6.4474198690e+01   2.8255007015e+01    0.2312827     0.150057 -36.38 0.0006236629    1.520    0.342
       365  -8.2070    159.4565     85.8432   6.5752270136e+01   3.3149047246e+01     0.304354     0.145648 -42.12 0.0009825637    2.072    0.517
       366  -7.9241    102.7696     86.3366   8.0993551727e+01   4.5554432873e+01    0.2057124    0.1383189  30.53 0.0005104584    1.605    0.377
       367 -10.6091    195.8298     82.1851   5.7471258364e+01   2.5130481871e+01    0.3660297    0.3113613  63.79 0.0003315533    1.223    0.182
       368 -10.8689    188.7906     82.1759   5.8737428585e+01   2.6796436840e+01     0.336101    0.2768706  39.38 0.0003109499    1.308    0.236
       369  -7.9986     97.1465     85.1589   8.2392497397e+01   4.6871563176e+01    0.1895757    0.1784315  81.28 0.0002831956    1.256    0.204
       370  -8.1311    230.4696     84.4968   5.2551320124e+01   1.6942130664e+01    0.2871254    0.1373577  56.66  0.001237354    2.273    0.560
       371  -9.4615     87.2612     82.8555   8.4892317865e+01   4.9141597371e+01    0.3958206    0.2967141 -70.85  0.001226578    1.811    0.448
       372  -9.8670     65.1249     83.0481   9.2551457225e+01   5.2562657125e+01    0.5800648    0.3902242  34.99  0.002691991    1.620    0.383
       373  -9.1934     12.2338     82.0659   1.1169620433e+02   5.7952162349e+01    0.5061476    0.2128752 -37.77  0.002376538    2.368    0.578
       374  -8.9261     24.5673     75.5139   1.0570604541e+02   5.8611372201e+01    0.3106873    0.1752614  20.61  0.001665704    2.057    0.514
       375  -8.3435     20.5518     68.5961   1.0565173948e+02   6.0444313225e+01    0.1955817    0.1335065 -57.91 9.124232e-05    1.246    0.198
       376  -9.4693     19.0726     74.9303   1.0768726540e+02   5.9139063860e+01    0.3338023     0.206481 -37.26  0.001305392    1.470    0.320
       377  -8.4277     17.6933     71.6612   1.0749608634e+02   5.9962551603e+01    0.2049849    0.1551343 -32.04  0.000638373    1.238    0.192
       378  -8.0295    146.0524     82.7220   6.7968198545e+01   3.6903053372e+01    0.2051757    0.2014246  -3.27 0.0004148839    1.005    0.005
       379  -8.1300    135.6857     82.9515   7.0631808031e+01   3.9256264694e+01    0.2204736    0.1898109 -42.70 0.0004440532    1.172    0.146
       380  -9.0159    125.0037     81.9212   7.3161221617e+01   4.1849990721e+01    0.3695098    0.2255687  44.27  0.001587925    1.643    0.391
       381  -8.2451     37.5015     82.0226   1.0235482002e+02   5.6028824073e+01    0.2106275    0.1147475 -58.51  0.001034519    1.599    0.375
