#   1 NUMBER                 Running object number                                     
#   2 MAG_AUTO               Kron-like elliptical aperture magnitude                    [mag]
#   3 X_IMAGE                Object position along x                                    [pixel]
#   4 Y_IMAGE                Object position along y                                    [pixel]
#   5 X_WORLD                Barycenter position along world x axis                     [deg]
#   6 Y_WORLD                Barycenter position along world y axis                     [deg]
#   7 A_WORLD                Profile RMS along major axis (world units)                 [deg]
#   8 B_WORLD                Profile RMS along minor axis (world units)                 [deg]
#   9 THETA_WORLD            Position angle (CCW/world-x)                               [deg]
#  10 FWHM_WORLD             FWHM assuming a gaussian core                              [deg]
#  11 ELONGATION             A_IMAGE/B_IMAGE                                           
#  12 ELLIPTICITY            1 - B_IMAGE/A_IMAGE                                       
         1  -9.9335    189.8030      8.5616   6.2071775744e+01   3.6076747963e+01    0.9834759    0.1641006  54.48  0.003034849    4.858    0.794
         2 -11.1632    183.4885     27.8738   6.7614293643e+01   3.5517467496e+01    0.7415924    0.4649065  17.59  0.003329202    2.858    0.650
         3 -11.3207    200.3496      7.2344   6.0593840324e+01   3.3733591090e+01     0.632152    0.2701359 -39.56  0.003074978    2.373    0.579
         4 -10.3215    204.3061      6.9106   6.0107523417e+01   3.2846865042e+01    0.2146367    0.1495761  73.07 0.0003890425    1.216    0.177
         5 -11.3839    208.5281      3.6300   5.8965224772e+01   3.2202054140e+01    0.5226071    0.3095205 -89.03  0.002911701    1.562    0.360
         6 -10.4807    185.1512     15.7353   6.4368385457e+01   3.6454823012e+01    0.4881939     0.396046  31.87  0.002974526    1.544    0.353
         7 -11.0205     50.2164     10.5438   9.3012815279e+01   6.5288122256e+01    0.4205918    0.2864984  20.04  0.002584448    1.216    0.178
         8  -9.7767     54.9332     17.8987   9.4311865352e+01   6.3783147014e+01    0.4011463    0.2141764   7.22  0.002005549    2.429    0.588
         9 -10.9966     40.8798     21.7228   1.0115616394e+02   6.5243638707e+01    0.2800239    0.1642465 -29.14 0.0007162478    1.559    0.358
        10 -11.0665     42.2581     15.1875   9.7964331369e+01   6.5871124152e+01     1.202734    0.4732909  42.08  0.005953857    2.821    0.645
        11 -11.9162     29.8715     24.0047   1.0651879028e+02   6.6220123139e+01    0.5397759     0.247986 -32.06   0.00235872    1.915    0.478
        12 -11.5449    212.0419     33.0476   6.5128528852e+01   2.8086619031e+01    0.7408662     0.474747 -55.41  0.004008814    1.540    0.351
        13 -10.4250    140.2814      6.6741   6.8501248012e+01   4.7946423474e+01    0.6431639    0.1861882 -28.50  0.002568237    3.681    0.728
        14 -11.8608    117.1482     15.4304   7.5670881459e+01   5.2390829683e+01    0.2457262    0.2160926  47.42 0.0002867257    1.065    0.061
        15 -11.9954    132.8606      3.9711   6.8967596022e+01   4.9873531735e+01    0.6135827    0.2700052  48.88  0.002507531    1.888    0.470
        16 -11.9822    112.6314     22.5156   7.9046583286e+01   5.2667116701e+01    0.5809392    0.4660495  64.47  0.001699231    1.331    0.249
        17 -11.0725    111.9878     14.9498   7.6655251059e+01   5.3554356743e+01    0.5545449    0.2467219 -28.37  0.001846908    2.484    0.597
        18 -11.4795    113.4959      7.6196   7.3870657063e+01   5.3880483163e+01     1.030039    0.2819809  61.23  0.003742862    3.421    0.708
        19 -10.6774    122.9031      3.1625   7.0530950001e+01   5.2178826426e+01    0.4849785     0.190183  44.43  0.002203491    2.231    0.552
        20 -13.5274    100.1902      6.6618   7.6531239752e+01   5.6766134033e+01    0.5940363    0.3968986 -31.18  0.001908683    1.760    0.432
        21 -11.6009     93.2397      8.5264   7.8910618672e+01   5.8011005464e+01    0.3927501    0.3037634  41.60 0.0009490538    1.087    0.080
        22 -11.3469     77.9572     28.8177   9.0779014913e+01   5.8767891550e+01     1.270659    0.6805903  18.40   0.00594628    2.397    0.583
        23 -11.1267     26.4998      4.0333   9.9652036233e+01   6.9078053257e+01    0.5637413    0.3154988  -1.24  0.003526866    1.756    0.431
        24 -11.5446     19.0702      3.4989   1.0269214705e+02   6.9948418346e+01    0.5291401    0.2981382  28.92  0.003589308    1.742    0.426
        25 -10.8219     11.9158     25.7781   1.1488455073e+02   6.7628485353e+01    0.5961069     0.256549 -20.95  0.003010524    2.700    0.630
        26 -11.1533      9.6694     19.3814   1.1352825983e+02   6.8744321867e+01    0.5388767    0.2606634  13.14  0.003277262    2.124    0.529
        27 -12.0484     18.6750     13.4539   1.0713070637e+02   6.8769855644e+01     0.424423    0.3039071  -0.37  0.002178326    1.121    0.108
        28 -11.4080     13.1453      8.7575   1.0768266106e+02   6.9887890609e+01    0.3293466     0.241472 -12.06  0.001379959    1.062    0.058
        29 -11.9990      3.7893     16.6451   1.1518936813e+02   6.9575343740e+01    0.4838695     0.183758 -27.35  0.002207292    2.540    0.606
        30 -13.1685      4.2749     10.2174   1.1244793773e+02   7.0433475676e+01    0.7828124    0.4079629 -36.01  0.003929447    1.558    0.358
        31 -11.7519    131.2763     20.4690   7.4335219070e+01   4.8739520684e+01     1.013846    0.4535951  62.32  0.002835943    2.068    0.516
        32 -10.4298    128.8242     14.6449   7.3006100243e+01   4.9863196685e+01    0.3547751    0.1683315  48.98  0.001707385    1.760    0.432
        33 -10.0098     90.6416     21.0810   8.4177337598e+01   5.7309425020e+01    0.4615583    0.2247712  18.45  0.001869129    3.275    0.695
        34 -10.9538     67.1212     21.5797   9.1543289316e+01   6.1459041381e+01    0.3773308    0.2864797 -13.33  0.001905766    1.254    0.202
        35 -10.2352    211.7185     13.6468   6.0828878059e+01   3.0428811981e+01    0.3953416    0.2314531  53.16  0.001456103    1.821    0.451
        36 -10.9585    202.2569     19.4796   6.3178474437e+01   3.1991539853e+01    0.4741297    0.3091313 -82.41  0.002285968    1.539    0.350
        37 -10.1904    147.2372     11.9476   6.8873300337e+01   4.5858397828e+01    0.2635473    0.1934266  77.33 0.0008285265    1.330    0.248
        38 -10.1056    151.1164     14.4509   6.8948988360e+01   4.4709526619e+01    0.2725862    0.1675766 -46.58  0.001049247    1.904    0.475
        39 -11.1564    221.0513     12.4763   5.9645355484e+01   2.8426619129e+01    0.6894595    0.3112635  67.55  0.003449442    1.916    0.478
        40  -9.7182    224.9005      8.5276   5.8464053059e+01   2.7990345400e+01     0.274675    0.1223771  71.16 0.0008874671    1.932    0.482
        41 -10.2705    229.5098     13.4319   5.9049049702e+01   2.6427842992e+01     0.239595    0.1433871 -80.88 0.0006715719    1.586    0.370
        42 -11.7061    232.4983     10.2902   5.8145407566e+01   2.6117807377e+01    0.5370117     0.324126 -78.58  0.002586777    1.534    0.348
        43  -6.6800    168.4751      4.5153   6.3706212996e+01   4.1508679224e+01    0.2419347    0.2238578  22.82  0.001643416    1.318    0.241
        44 -10.0450    165.9798      1.7883   6.3329232599e+01   4.2336141777e+01     0.259504    0.1628182  71.93  0.001013494    1.338    0.253
        45 -10.7780    170.1498     14.0055   6.5938927089e+01   4.0219180762e+01    0.3443125    0.1767228 -45.61  0.001016224    2.174    0.540
        46 -11.0823    165.1491     11.5585   6.6005233620e+01   4.1651291798e+01    0.5271369    0.3228696 -65.27  0.002215522    2.014    0.503
        47 -10.2883    163.9591      5.9788   6.4696581480e+01   4.2448520283e+01    0.4377255     0.275534 -75.11  0.002307007    1.902    0.474
        48 -10.2776    239.1548     13.3359   5.8173146510e+01   2.4327917071e+01    0.2187545    0.1817911  88.24  0.000579239    1.126    0.112
        49 -10.6723    123.1782      9.9641   7.2643212016e+01   5.1554330940e+01    0.3187065    0.1860169  60.58 0.0009898284    1.488    0.328
        50  -9.4580    250.5753      9.4021   5.6486478976e+01   2.2350608261e+01    0.1827106    0.1157554 -20.67 0.0008735911    2.497    0.600
        51 -10.3597     77.0848      9.5051   8.3713364100e+01   6.0991285043e+01    0.2298264      0.18778  17.31 0.0006955296    1.063    0.059
        52  -9.3593     77.3685      4.7573   8.1784316534e+01   6.1361755876e+01    0.1544219    0.0996585   0.44 0.0003722002    1.608    0.378
        53  -9.4084    174.3350      8.6889   6.4005253576e+01   3.9734647246e+01    0.1872328    0.1067924 -44.85 0.0008675205    1.924    0.480
        54 -10.6695    175.7680      4.5735   6.2787691754e+01   3.9775768058e+01    0.5051221    0.2030808  69.65  0.001966279    2.097    0.523
        55  -9.7099     82.1350      3.1254   7.9821131961e+01   6.0613790928e+01    0.1867829      0.14346 -41.47 0.0004763641    1.780    0.438
        56 -11.1059    156.6187      4.4680   6.5328798192e+01   4.4315297410e+01    0.5091981    0.3245019  46.06  0.002531586    1.518    0.341
        57 -10.8888     68.1850      4.8723   8.4574634467e+01   6.2980126727e+01    0.6241857    0.2394188  40.43  0.003092812    2.145    0.534
        58 -10.8864     60.2818      4.1737   8.6829040087e+01   6.4363567417e+01    0.3696713    0.1867869  18.40  0.001939307    2.199    0.545
        59 -11.1929     55.2951      2.8462   8.7958735554e+01   6.5279187667e+01    0.3690547    0.2410456  29.92  0.001091417    1.245    0.197
        60  -9.4248     42.1838      4.5393   9.3472689788e+01   6.7045778446e+01    0.1992253   0.07369941 -31.21  0.001011788    2.692    0.629
        61 -12.1614    247.2705      2.7097   5.5488351710e+01   2.3777271302e+01    0.3582841     0.210882  71.43 0.0007840986    1.545    0.353
        62  -9.8702    223.8046      2.1983   5.7267205726e+01   2.8896514022e+01    0.2342067     0.137157  64.64  0.001228565    1.577    0.366
        63  -9.5362    217.0512      1.5092   5.7719271561e+01   3.0476487504e+01    0.1889984    0.1003528  74.47  0.001029599    1.582    0.368
        64  -9.2296    189.7600      1.3165   6.0373243930e+01   3.6775953888e+01    0.1829479   0.09102429  65.18 0.0009364747    1.649    0.394
        65  -8.6048    183.2974      1.2759   6.1083627074e+01   3.8296163273e+01    0.1216234   0.08228156  49.70  0.000202575    1.531    0.347
        66  -9.2063     44.9674      1.5528   9.1110660715e+01   6.6947220922e+01    0.1534214   0.08882031  32.52            0    1.459    0.315
        67 -12.4433    245.5155    107.6371   7.7273909635e+01   9.2546947055e+00    0.9594899     0.363236 -45.16  0.003754739    2.428    0.588
        68 -11.3905    241.1017    100.3800   7.6340971194e+01   1.1393280406e+01    0.4193189    0.3341088 -54.69  0.001474434    1.170    0.145
        69 -11.3504    237.7368    113.4222   7.9724015395e+01   9.8545506196e+00    0.2868264    0.2512055 -55.92 0.0009579597    1.089    0.082
        70 -11.8424    228.1340    112.5205   8.1065386661e+01   1.2035528252e+01    0.8353404    0.3090566  49.83  0.003087114    2.835    0.647
        71 -11.2126    207.3681    112.6940   8.4712050117e+01   1.6581625636e+01    0.4282473    0.2355641 -56.61  0.001032157    2.228    0.551
        72 -10.5875    132.8453    111.8300   1.0086541392e+02   3.3785700789e+01    0.3907602    0.3486212 -34.66  0.002027208    1.138    0.122
        73 -10.6769    133.9154    103.6165   9.8423040064e+01   3.5252055107e+01    0.5662338    0.1955164 -42.14  0.001834301    2.940    0.660
        74 -10.9085     66.3304    109.3337   1.1905055851e+02   4.6208415256e+01    0.2645479    0.1990582 -26.88  0.001364995    1.438    0.305
        75 -10.6065     68.4793    106.0207   1.1762495396e+02   4.6642893641e+01    0.3227857    0.1838291 -27.45  0.001382784    2.361    0.576
        76  -9.7818    104.9992    109.2777   1.0770344964e+02   3.9948455414e+01    0.2097842    0.2007187  31.59  0.001168594    1.066    0.062
        77 -10.1257     35.3128    108.8696   1.2833583960e+02   4.9894272918e+01    0.2757659    0.1522658  37.65  0.001121969    2.096    0.523
        78 -11.0757    194.8003    112.4878   8.7038085410e+01   1.9492830894e+01    0.3510232    0.2928413 -31.33  0.001786853    1.249    0.200
        79 -10.1082     73.9625    108.0403   1.1645023585e+02   4.5413949088e+01    0.2121701    0.1982092 -31.90 0.0006494819    1.032    0.031
        80 -10.0410    230.9500    105.2047   7.8959388878e+01   1.2717432554e+01    0.2539928    0.1931241 -43.77 0.0007315352    1.226    0.184
        81 -10.1574     53.6871     96.6814   1.1999608199e+02   5.0584304731e+01    0.2101661    0.1698017 -25.71 0.0008430468    1.223    0.183
        82 -11.0593     48.5190    102.6682   1.2299943789e+02   4.9890298947e+01    0.5151851    0.1937464 -39.33  0.001951199    3.069    0.674
        83 -10.7221     49.7762     97.8058   1.2150163275e+02   5.0801147328e+01    0.2956795    0.1857999 -29.94  0.001048632    1.723    0.420
        84  -9.7609     45.9948     98.3336   1.2282017637e+02   5.1109959903e+01    0.2520179    0.2382648   5.74  0.001006619    1.176    0.150
        85  -9.1150    105.8431    102.7806   1.0576457490e+02   4.1171867558e+01    0.1884702    0.1734852 -82.91 0.0006087176    1.246    0.197
        86 -10.2785     28.5052    102.1171   1.2909445169e+02   5.1995619532e+01    0.2300373    0.1994934 -26.87 0.0009030617    1.196    0.164
        87  -9.3828     81.2064    102.1782   1.1282019038e+02   4.5585957690e+01    0.1880918    0.1699315  87.85  0.001065694    1.329    0.248
        88  -9.7793     75.6753    102.0225   1.1445710884e+02   4.6470335960e+01    0.2041958    0.1719225 -47.71 0.0008539572    1.121    0.108
        89  -9.9585    151.2557    100.3920   9.3298006974e+01   3.1998942495e+01    0.2785072    0.1889912 -60.95  0.001194531    1.817    0.450
        90 -10.6414      4.5599     99.2852   1.3588709355e+02   5.4333500332e+01    0.3451116    0.1904217 -54.14  0.001737063    1.385    0.278
        91 -10.8202    174.5610     96.5916   8.7122325736e+01   2.7244416001e+01    0.3146134    0.2884392  29.34     0.001664    1.171    0.146
        92 -10.0511     90.9554     96.7933   1.0848405205e+02   4.5116498444e+01    0.3875805    0.2494923   7.82   0.00164527    2.369    0.578
        93  -9.7030    233.1334     98.2861   7.7066201031e+01   1.3439049229e+01    0.2831487     0.170991 -24.62  0.001251187    2.123    0.529
        94  -9.6700     34.7919     99.1272   1.2652968470e+02   5.2076656598e+01    0.1871393    0.1644445 -80.09 0.0008252834    1.282    0.220
        95 -10.2584    177.6069     99.7691   8.7310443061e+01   2.5927659017e+01    0.2902038     0.150685 -44.57 0.0006935165    1.949    0.487
        96 -10.9928    158.5773     96.6649   9.0611092166e+01   3.1014387424e+01    0.4629861    0.3722727  71.74  0.002110813    1.386    0.278
        97  -9.7147     38.9558     96.8747   1.2472856825e+02   5.2158307974e+01    0.2012995    0.1495147 -32.40 0.0009677029    1.298    0.230
        98 -10.9486    114.2721     94.1358   1.0104717442e+02   4.1292811720e+01    0.3707988    0.2240521 -55.17 0.0009832337    1.959    0.489
        99  -9.8522    188.1629     93.9669   8.3730210009e+01   2.4483355259e+01    0.2373691    0.2011059 -76.65 0.0007148588    1.275    0.216
       100  -9.9431    221.1436     92.2911   7.7560309322e+01   1.7103301056e+01    0.2765571    0.1666843 -62.51  0.001023098    2.009    0.502
       101 -10.2132    193.7428     91.2792   8.2005479415e+01   2.3636266173e+01    0.4275872    0.2547503 -29.56  0.001823456    1.941    0.485
       102  -9.8741     39.4704     92.4875   1.2357959628e+02   5.3041643275e+01    0.2217528    0.1813136 -28.18 0.0008152396    1.169    0.145
       103 -11.0875     34.6410     91.6020   1.2494714666e+02   5.3698406327e+01    0.3996052     0.291512 -16.14  0.002420587    1.507    0.336
       104 -10.8934      3.2143     88.8738   1.3452405224e+02   5.6602959952e+01    0.5717623    0.2509465 -44.32  0.003125739    1.877    0.467
       105 -11.6394      4.5752     81.5916   1.3272983079e+02   5.8026620016e+01    0.5562943    0.1819116 -44.01  0.002359371    2.432    0.589
       106 -11.0282     13.8831     88.6231   1.3106215306e+02   5.5998257720e+01    0.3118911    0.2812457  18.13   0.00114938    1.351    0.260
       107  -9.4384      9.3736     86.1484   1.3204083013e+02   5.6805742692e+01    0.1811213   0.09656578 -63.57 0.0008579555    1.598    0.374
       108 -10.9815    199.8449     89.8558   8.0549576922e+01   2.2441522893e+01    0.3493736    0.2723246 -83.44  0.001056176    1.468    0.319
       109 -10.6020     88.2837     89.8711   1.0739149917e+02   4.6989500484e+01    0.4323124    0.2698006 -32.64  0.001414817    1.672    0.402
       110 -11.1926     51.4329     87.8155   1.1854537232e+02   5.2715476863e+01    0.5288046    0.3957353  21.11  0.003125499    1.459    0.315
       111 -10.7548     57.3838     85.3361   1.1594790995e+02   5.2496937846e+01    0.4267177    0.2627974   8.34  0.002092394    2.130    0.531
       112  -9.7178     82.4855     90.3319   1.0929227412e+02   4.7858108374e+01    0.2633173    0.1664516  32.71  0.001189983    1.657    0.396
       113 -10.4908     82.1259     86.2818   1.0827649053e+02   4.8730863666e+01    0.5635635    0.1933461 -43.99  0.002059491    2.765    0.638
       114 -11.7765    107.1139     86.1745   1.0079627352e+02   4.4274126173e+01    0.6490172    0.4795442  33.45  0.003279389    1.366    0.268
       115 -11.2415    102.7984     80.7510   1.0045317870e+02   4.6138760992e+01    0.4892789    0.3035586 -30.94  0.001482924    1.713    0.416
       116 -10.9207     98.1186     77.4655   1.0084623176e+02   4.7633543590e+01    0.3412609    0.2586795  57.78  0.001080935    1.612    0.380
       117 -10.6436    153.2558     87.1244   8.9235244568e+01   3.4041202066e+01    0.3820192    0.2521915  55.53  0.001381403    1.509    0.337
       118 -10.2120    146.6836     86.8298   9.0678223444e+01   3.5627399148e+01    0.2412822     0.198056  -8.20  0.001189379    1.446    0.309
       119 -11.1526    119.3656     86.3940   9.7463232149e+01   4.1753258772e+01    0.5923344    0.2209551  43.41  0.002078775    2.653    0.623
       120  -9.3842    205.0651     85.7209   7.8634955180e+01   2.1924624108e+01    0.2000846    0.1887716 -83.72 0.0006499161    1.008    0.008
       121 -10.0989    248.9132     84.1699   7.1753454855e+01   1.2431272710e+01    0.2792835    0.1971239 -70.29  0.001084676    1.510    0.338
       122 -10.3856     75.7963     83.3493   1.0943762369e+02   5.0312499367e+01    0.3620144    0.2086478 -36.74  0.001727639    1.688    0.408
       123 -11.3625    217.1877     82.7834   7.5965963695e+01   1.9602001591e+01    0.4795339    0.2737422 -34.71  0.001943458    1.821    0.451
       124 -10.2942    219.7659     75.4264   7.3859252621e+01   2.0208910286e+01    0.4278733    0.2891489 -27.19  0.001822753    1.751    0.429
       125  -9.6848    186.2157     84.2229   8.1622719417e+01   2.6669147186e+01    0.2559578    0.2080396  79.25  0.001299573    1.303    0.232
       126 -10.6565    188.5091     80.4647   8.0238265547e+01   2.6759293368e+01    0.4045978    0.2668022 -35.83  0.001625717    1.585    0.369
       127  -9.6806    188.5806     75.7237   7.9016267550e+01   2.7533189844e+01    0.3032529    0.2074737 -66.33  0.001206632    1.744    0.427
       128 -10.2036    192.3600     72.9259   7.7640928864e+01   2.7077795552e+01     0.380027     0.357816   4.40  0.002160518    1.249    0.199
       129  -9.7281    240.7365     81.1776   7.2192045706e+01   1.4632265673e+01    0.3659278    0.2200837  43.76  0.001373218    2.095    0.523
       130 -10.0850    160.1527     81.4168   8.6136369983e+01   3.3427312174e+01    0.3734922    0.2510115  73.20  0.001319721    1.848    0.459
       131 -11.4564    134.8995     80.0100   9.1596850631e+01   3.9552911509e+01    0.6211234    0.2505567 -36.96  0.002240827    2.618    0.618
       132 -10.3675     17.7370     81.9339   1.2840949339e+02   5.7111144013e+01    0.2204757    0.1671978   4.42 0.0008881194    1.504    0.335
       133  -9.9694    123.9969     80.7846   9.4604959950e+01   4.1813295204e+01    0.2475809    0.1625818  22.35  0.001067277    1.966    0.491
       134 -11.0968     68.4343     75.9746   1.0969900200e+02   5.2844216678e+01    0.4813543    0.3198452 -46.36  0.002302563    1.460    0.315
       135  -9.7706     62.9183     79.3896   1.1249885467e+02   5.2958306461e+01    0.3511438    0.2722668 -88.54  0.001847335    2.143    0.533
       136 -10.0894     57.7140     77.4672   1.1369560513e+02   5.4023221460e+01    0.3839967     0.225395  -3.11   0.00171961    2.601    0.616
       137 -11.5335     58.9330     69.8948   1.1109668963e+02   5.5309305435e+01    0.5202754    0.4789583   0.51  0.002541476    1.133    0.117
       138  -9.6996    177.1687     77.9159   8.1710235030e+01   2.9929718569e+01    0.2375426    0.2016699 -78.67   0.00120616    1.270    0.213
       139 -10.9126    168.1244     76.8123   8.3210807467e+01   3.2303767879e+01    0.5471534    0.3526755  74.99  0.002351952    1.953    0.488
       140 -10.9158    240.8747     85.4377   7.3102314473e+01   1.3916540317e+01    0.5944939    0.3815066  66.76  0.003046686    1.673    0.402
       141  -9.6322     43.7405     78.4105   1.1869863580e+02   5.5490747662e+01    0.1676888    0.1150355   4.83 0.0009469468    1.660    0.398
       142 -10.1326     42.4251     86.9973   1.2131497687e+02   5.3887098558e+01    0.3149364    0.1776693 -43.17  0.001665596    1.529    0.346
       143 -11.4314     82.0126     75.0612   1.0504818530e+02   5.0910940228e+01    0.2361613    0.2144191 -25.74  0.001420967    1.078    0.073
       144 -11.3847    115.7489     70.1674   9.3636614352e+01   4.5436447644e+01    0.4752639    0.2823483 -40.85  0.002188522    1.749    0.428
       145 -11.3042    119.8191     62.0592   9.0064250312e+01   4.5908629954e+01    0.2977338    0.1946284 -37.46 0.0008278564    1.603    0.376
       146 -10.2119    126.6494     63.9812   8.8908853193e+01   4.4111375644e+01    0.3435573    0.2119827  25.66 0.0004018277    2.074    0.518
       147 -12.0761    124.8578     69.9876   9.1180763024e+01   4.3518659449e+01    0.5348601     0.400054  67.21  0.002602832    1.615    0.381
       148  -9.5503     36.9932     75.9408   1.2037995471e+02   5.6678366036e+01    0.2120489    0.1230916 -28.00  0.001123762    1.778    0.437
       149 -10.4397    234.6839     73.6487   7.1353984081e+01   1.7138363861e+01    0.4411044    0.2522467 -65.91  0.001636631    2.122    0.529
       150  -9.7684     24.4596     74.6100   1.2441888468e+02   5.8070887218e+01     0.239521    0.1467343   2.12  0.001318341    1.939    0.484
       151 -10.9272     20.5649     72.0868   1.2517693179e+02   5.8876912511e+01    0.5248426    0.2612274 -17.49   0.00256382    2.697    0.629
       152 -10.8391     32.7911     70.5107   1.2043253713e+02   5.8144787130e+01    0.4660271    0.2632986 -23.32  0.002474341    1.954    0.488
       153 -11.0898     51.4849     71.3572   1.1408891333e+02   5.5977807517e+01    0.4722491    0.3277902  54.57  0.002162799    2.210    0.548
       154 -10.2477     25.9148     65.6357   1.2161302584e+02   5.9693099784e+01     0.427425    0.1819919 -29.54  0.001925961    2.760    0.638
       155 -11.2682     31.3846     43.1683   1.1280217532e+02   6.3172085499e+01    0.3126208    0.2816047  32.41  0.001207792    1.533    0.348
       156 -11.1465     42.4170     69.1090   1.1662756156e+02   5.7442898883e+01    0.5367107    0.2765739  26.09  0.002788981    2.110    0.526
       157 -11.2577     37.2739     64.0301   1.1702870235e+02   5.8935870727e+01    0.6313593     0.370555  25.94  0.003609769    1.843    0.458
       158 -10.4005     32.2589     62.0022   1.1828386918e+02   5.9804371563e+01    0.2215822    0.1763158 -21.09 0.0007973136    1.091    0.083
       159 -11.4449     34.8358     57.4505   1.1599601274e+02   6.0381788652e+01    0.5690669     0.330284 -21.05  0.002709631    1.808    0.447
       160 -11.6239     42.5568     49.7628   1.1068303517e+02   6.0886460422e+01    0.5866008    0.2439937  27.30  0.002508467    2.559    0.609
       161 -11.1398     38.1692     44.1380   1.1047969657e+02   6.2302628971e+01     0.368508    0.3483945 -30.19  0.002233776    1.412    0.292
       162 -11.4492    250.2225     67.3383   6.8041820095e+01   1.4771892894e+01     1.187313    0.1858853 -36.05  0.002996099    6.916    0.855
       163 -10.8519    233.8123     47.0368   6.5658547515e+01   2.1261919985e+01    0.4911436    0.3510602 -62.20  0.002829723    1.290    0.225
       164 -11.6389    235.3916     56.8879   6.7596147869e+01   1.9514567020e+01      0.50777    0.2976178  58.87  0.001670011    1.734    0.423
       165 -10.8762    237.8342     51.8397   6.6221999232e+01   1.9700563637e+01    0.3689273    0.3098756  50.38  0.002263228    1.440    0.305
       166 -10.2748    246.1718     57.1269   6.6380579557e+01   1.7137067296e+01    0.5064545    0.3219858 -29.18  0.002186669    1.881    0.468
       167 -10.5194    242.6518     54.4368   6.6218079143e+01   1.8280647608e+01    0.4453109    0.2286094  61.93  0.002200989    1.944    0.486
       168  -9.3738     77.3338     74.2923   1.0630671888e+02   5.1810972048e+01    0.1394541   0.09942809  -5.28 0.0004273795    1.636    0.389
       169  -9.4067      3.2052     74.6093   1.3179773793e+02   5.9510688840e+01    0.1432573   0.09626237 -14.80 0.0006980641    1.616    0.381
       170 -10.2721    214.7568     72.0129   7.3808506757e+01   2.1908854136e+01    0.3567097    0.2682869  24.96  0.001521436    1.921    0.480
       171 -10.7300    151.0972     72.3699   8.5600905165e+01   3.7125872681e+01    0.3636711    0.2175569  50.52  0.001619988    1.578    0.366
       172 -10.9025    171.8359     71.4133   8.1017378454e+01   3.2299603670e+01    0.4713228    0.2524951  76.00  0.001681799    2.937    0.660
       173 -10.5931    102.1860     70.6507   9.7583757043e+01   4.8085669926e+01    0.2844858    0.2228776 -68.91   0.00144175    1.824    0.452
       174 -10.1983      6.3271     71.1350   1.2997946161e+02   6.0022862427e+01    0.2269032      0.14134  13.83  0.001463563    1.884    0.469
       175  -9.6835    202.2924     70.0533   7.5272149713e+01   2.5154981714e+01    0.2073453    0.1838291 -57.89  0.001167368    1.106    0.096
       176 -10.5638    132.8174     68.3929   8.8707232053e+01   4.2016785815e+01    0.3848126    0.2847658  74.91  0.001842715    1.739    0.425
       177 -10.6269     80.0867     69.3146   1.0390882572e+02   5.2277666913e+01    0.2655952    0.2039896  22.62 0.0005900895    1.296    0.229
       178 -10.9413    138.8535     68.2081   8.7202368038e+01   4.0671745455e+01    0.4241703    0.2696239  23.49  0.001800867    2.160    0.537
       179  -9.7304     68.9990     69.2262   1.0749831860e+02   5.4022068261e+01    0.1862345    0.1800952  47.76  0.000648899    1.304    0.233
       180 -11.7443    150.2887     66.1640   8.4011244059e+01   3.8328205333e+01    0.6193411    0.4198641  69.17  0.002627316    1.673    0.402
       181 -11.6376    109.8496     67.1298   9.4319416669e+01   4.7168086339e+01    0.4462191    0.3108956   2.66   0.00192237    1.882    0.469
       182  -9.3760    111.4329     62.5145   9.2443313962e+01   4.7603922464e+01    0.2070189     0.123612  35.68 5.853918e-05    1.687    0.407
       183 -11.3427    160.1179     50.8047   7.7629858926e+01   3.8267978938e+01    0.7553834    0.4002098  74.77  0.002962836    2.557    0.609
       184 -11.8495    165.2672     62.1590   7.9785717328e+01   3.5355683811e+01     0.674206    0.4635337  32.75  0.003182842    1.738    0.425
       185 -10.9810    165.6265     56.7836   7.8237255075e+01   3.6074706414e+01    0.5000361    0.3199373  47.38  0.002391001    1.518    0.341
       186  -9.8694     92.3971     66.8896   9.9315829958e+01   5.0575194934e+01    0.2735237    0.1883744   3.58 0.0005958689    1.824    0.452
       187  -9.8745    179.3126     68.7081   7.8881793224e+01   3.0917139251e+01    0.3640632     0.179922  47.34  0.001477892    2.051    0.513
       188  -9.9738    205.3658     65.4238   7.3663460973e+01   2.5145563174e+01    0.2897251    0.2052459  83.97  0.001044081    1.520    0.342
       189  -9.3790    189.8407     65.1527   7.6102257896e+01   2.8916672884e+01     0.193235    0.1687284  37.20  0.001057876    1.292    0.226
       190 -10.3560     13.1534     56.5799   1.2395366973e+02   6.2366600422e+01    0.2944446    0.1731815  29.37  0.001830639    2.047    0.511
       191 -10.8240     10.8515     63.6952   1.2663365189e+02   6.1187308233e+01      0.37548      0.22569 -42.59  0.001603192    1.284    0.221
       192 -12.7453     19.5224     59.2208   1.2225390835e+02   6.1413948754e+01    0.5465416    0.3513936 -30.32    0.0011723    1.328    0.247
       193 -11.5155     25.7155     53.0457   1.1813538104e+02   6.2021876404e+01    0.2697549       0.1821  -4.70 0.0005497561    1.495    0.331
       194 -10.0965     28.8562     48.8709   1.1564058243e+02   6.2463477604e+01    0.1796013    0.1429616 -23.09   0.00033804    1.017    0.017
       195 -10.1838     58.0064     60.4596   1.0852670634e+02   5.7138655871e+01    0.3001523     0.249217  -2.24 0.0009477962    1.103    0.093
       196  -9.7355     54.5138     63.9596   1.1083926795e+02   5.6973034861e+01    0.2660166    0.1691737 -46.32  0.001180466    1.529    0.346
       197  -9.5451     53.1548     60.1710   1.1014696401e+02   5.7822091197e+01    0.2198034     0.206017 -21.10  0.001353952    1.223    0.182
       198  -9.8348    234.2382     63.1478   6.9102415152e+01   1.8846117364e+01    0.1819612     0.177332 -68.98 0.0004681256    1.199    0.166
       199 -11.1210     67.3139     62.0020   1.0581354128e+02   5.5558907662e+01    0.2737538    0.2239833  -3.08 0.0008349966    1.139    0.122
       200 -11.0462     97.4072     61.3244   9.6049839054e+01   5.0578688775e+01    0.3407099    0.2732994 -83.31  0.001300244    2.006    0.501
       201 -10.3457    185.3655     60.7008   7.5722717292e+01   3.0682764168e+01    0.2987684    0.2115469 -77.04 0.0007790292    1.685    0.406
       202  -9.9971    171.5285     49.9469   7.5290410031e+01   3.5615086628e+01    0.4317353    0.1385891 -40.22   0.00152537    3.161    0.684
       203 -11.8062    186.0860     46.9448   7.2072036140e+01   3.2480142024e+01    0.5990188    0.4641054 -56.50  0.001958816    1.337    0.252
       204 -10.6479    174.4024     57.2556   7.6739556435e+01   3.3868094086e+01    0.3497875    0.2691336 -15.30  0.001031783    1.625    0.385
       205 -11.8324    177.1736     51.9730   7.4846746960e+01   3.3954000561e+01    0.5704435    0.3934112  40.08  0.002833914    1.620    0.383
       206  -9.8555     79.5197     61.1813   1.0152117497e+02   5.3787135382e+01    0.3655905    0.1575179  47.52  0.001046121    2.785    0.641
       207 -10.1239    216.4417     60.4521   7.0862554304e+01   2.3293403942e+01    0.4584312     0.157689  64.10  0.001661609    2.982    0.665
       208 -10.8810    221.8457     57.4437   6.9437130831e+01   2.2488454091e+01     0.451632    0.3402466  76.90  0.001740748    1.274    0.215
       209  -9.5062     46.6422     59.5960   1.1230489273e+02   5.8717979582e+01     0.187766    0.1213372 -19.54 0.0004643641    1.561    0.359
       210  -9.7424    200.0210     53.0042   7.1454098972e+01   2.8265315192e+01    0.2498053    0.1572997  44.97 0.0007315019    1.801    0.445
       211 -10.7766    200.8032     59.0097   7.2803577437e+01   2.7203565068e+01    0.4694694    0.2950755  83.38  0.002176652    1.847    0.459
       212  -8.7333    202.4301     55.5044   7.1704733872e+01   2.7328472274e+01     0.272251    0.1652931 -69.33 0.0006421703    2.036    0.509
       213  -9.5971    191.7350     59.0010   7.4229706719e+01   2.9390265506e+01    0.2022864    0.1856804 -89.95  0.001170074    1.020    0.019
       214  -9.6789     85.0196     59.5355   9.9240262254e+01   5.3127347458e+01     0.204695    0.1259032  38.52 0.0008556498    1.593    0.372
       215 -10.3016      3.1283     57.6239   1.2802081284e+02   6.2796292557e+01     0.266039    0.2049073 -74.85  0.001865942    1.656    0.396
       216  -9.8041    158.5695     58.0987   7.9983618543e+01   3.7588748787e+01     0.353863    0.2052849  24.39   0.00134217    2.926    0.658
       217 -10.4992    119.5224     54.0395   8.7633449275e+01   4.7203197946e+01    0.2790806    0.2095826 -37.15  0.001487522    1.428    0.300
       218 -10.9987    120.8102     58.0095   8.8549680467e+01   4.6326386694e+01    0.4147757    0.2387521  49.65  0.001919333    1.641    0.391
       219  -9.7554    123.0418     54.9795   8.7039058705e+01   4.6296461810e+01      0.22051    0.1955199  33.27  0.000477701    1.043    0.041
       220 -10.6795     88.5963     56.2909   9.7067010189e+01   5.3019537735e+01    0.4136794     0.292753  68.54  0.001568903    2.398    0.583
       221 -10.5268     85.8708     51.9711   9.6472779840e+01   5.4181960713e+01    0.4585939    0.2851313  -1.64  0.001654069    2.201    0.546
       222 -10.0352    100.1806     55.0202   9.3200307431e+01   5.1044462048e+01    0.3781312    0.2725034 -20.88  0.002023969    1.451    0.311
       223 -10.3662    105.1081     53.8646   9.1426652886e+01   5.0243589609e+01    0.4168109    0.2069465  38.38  0.001825805    1.980    0.495
       224 -10.5166     60.9204     53.3086   1.0518685111e+02   5.7952770922e+01    0.3529902    0.1718021 -42.03  0.001166607    1.988    0.497
       225  -9.6338    192.9306     53.9426   7.2767522112e+01   2.9839726199e+01    0.2119056    0.1865701 -89.11 0.0004385192    1.068    0.064
       226 -11.5468    140.9359     51.6889   8.1830362240e+01   4.2712039200e+01    0.8831376     0.320614  49.07   0.00328867    2.468    0.595
       227 -11.5790    150.4919     51.2968   7.9683326064e+01   4.0511551186e+01    0.5708017    0.4315187   2.56  0.002770775    1.713    0.416
       228 -10.2642    145.9746     48.4677   7.9794613125e+01   4.1977924107e+01    0.4195197    0.2311237  61.75  0.001871331    1.795    0.443
       229 -10.0119     71.2762     53.2894   1.0163183444e+02   5.6414840737e+01    0.2738166    0.1480207 -42.20 0.0008900015    1.897    0.473
       230  -9.7802    210.2986     52.3224   6.9817023345e+01   2.5916986764e+01     0.301711    0.1348237 -54.93  0.001189757    2.631    0.620
       231 -10.5824    115.9516     50.3399   8.7373735714e+01   4.8510156055e+01    0.4045024    0.3171743   4.12  0.001721679    1.409    0.290
       232 -10.6532     75.7943     51.2292   9.9440133927e+01   5.6017496520e+01    0.2757794     0.253267 -50.37  0.001539443    1.417    0.294
       233  -9.4951     10.5244     52.0211   1.2373326246e+02   6.3374171294e+01    0.1598654    0.1374343  40.96 0.0003645316    1.657    0.397
       234 -10.1006      7.0419     48.7569   1.2420302223e+02   6.4182517619e+01    0.2570407    0.1678034 -30.65  0.001161429    1.227    0.185
       235  -9.8298    219.5571     42.4507   6.6341977714e+01   2.5119665196e+01    0.2950212    0.1860306 -54.66  0.001036918    1.540    0.350
       236 -11.2764    224.2065     46.5313   6.6685595191e+01   2.3497368576e+01    0.5527284    0.4670812 -30.86   0.00228009    1.401    0.286
       237  -9.9403    224.5014     42.5004   6.5758183613e+01   2.3978515123e+01    0.2812365    0.2244777  54.96  0.001673721    1.392    0.282
       238  -9.6903     55.1257     49.9967   1.0613537002e+02   5.9289691875e+01    0.2028939    0.1553862  41.52  0.001067073    1.608    0.378
       239  -9.9945    200.9861     46.9448   6.9841388683e+01   2.8881895062e+01    0.4124374    0.1502947 -44.38  0.001595606    2.739    0.635
       240 -10.7306    178.0087     60.5382   7.6964834915e+01   3.2499749710e+01    0.6778224    0.3570161 -19.51  0.002053475    2.991    0.666
       241  -9.2863     95.0340     47.9960   9.2365033998e+01   5.3086841478e+01    0.2187711     0.150809  11.69  0.001127432    1.650    0.394
       242 -11.1099    205.3692     44.2208   6.8579429968e+01   2.8206782963e+01    0.5057235    0.3133627 -77.68  0.002418639    1.907    0.476
       243 -10.3911    207.7795     41.3977   6.7592265932e+01   2.8012703221e+01    0.2712617    0.2109496  58.34 0.0007331076    1.294    0.227
       244 -10.0778    152.7494     45.3758   7.7519501031e+01   4.0783949578e+01    0.2896193    0.1873141 -28.47  0.001255366    1.739    0.425
       245  -9.2309    129.5429     46.5370   8.2837570685e+01   4.6048227390e+01    0.1395576    0.1259963  39.47  0.000147201    1.008    0.008
       246 -10.1863     58.3841     45.3834   1.0338765082e+02   5.9574417560e+01    0.3169541    0.1605998 -43.16  0.001597041    2.056    0.514
       247  -9.3173     12.6585     34.1648   1.1746244682e+02   6.6268371543e+01    0.2227551    0.1363893  18.72 0.0008682413    1.722    0.419
       248  -9.9166     15.8554     31.4209   1.1517210502e+02   6.6450710778e+01    0.2212492    0.1654286 -41.23 0.0004091237    1.371    0.271
       249 -12.4171     20.0083     42.0841   1.1700044767e+02   6.4392062646e+01    0.5496126    0.4448349 -66.44  0.001416214    1.877    0.467
       250 -10.5822     11.7674     41.5050   1.2018079796e+02   6.5125215126e+01    0.4443389    0.2180602 -13.94  0.002403813    2.387    0.581
       251 -10.5239    118.6051     42.3610   8.4136146206e+01   4.9035115973e+01    0.4247497    0.2901186 -40.15  0.001774339    1.646    0.393
       252  -9.7172    106.3293     44.1240   8.7885644699e+01   5.1394625266e+01    0.2805087    0.2493118 -21.13  0.001709177    1.190    0.160
       253  -9.9389    248.5987     43.8523   6.3386911750e+01   1.8484254181e+01    0.3437299    0.1477941  63.21  0.001624594    2.272    0.560
       254 -10.4130    157.2164     43.9821   7.6259805605e+01   3.9895522326e+01    0.1905815    0.1825122  70.49 0.0004527139    1.061    0.057
       255 -10.8543    142.3082     43.2357   7.9011634745e+01   4.3543641647e+01    0.4988449    0.2550926  59.48  0.002156675    1.844    0.458
       256 -10.6570     66.9432     43.6001   9.9768903353e+01   5.8584782870e+01      0.22235    0.1696377 -29.68 0.0006487411    1.287    0.223
       257  -9.5258    214.2066     42.6097   6.7044067317e+01   2.6340780004e+01    0.1857323    0.1123918  58.24 0.0007406094    1.606    0.377
       258 -10.6242    194.5988     30.7038   6.6788075787e+01   3.2508454522e+01     0.400669    0.2847376 -21.00  0.002081281    1.804    0.446
       259  -9.6039    196.6181     41.8274   6.9218313943e+01   3.0618270911e+01    0.2189895    0.1702216 -83.68 0.0004058763    1.270    0.213
       260 -10.4074    193.7486     37.7819   6.8632795910e+01   3.1833719215e+01    0.3489625    0.3068548 -54.30   0.00212251    1.186    0.157
       261 -10.1699     86.8457     41.2938   9.2512715796e+01   5.5561654363e+01     0.281094    0.2276585 -37.11  0.001142496    1.404    0.288
       262 -11.3654    180.4772     38.2360   7.0709736693e+01   3.4989482592e+01    0.5818933    0.3942124 -61.22  0.002947752    1.650    0.394
       263  -9.9610    141.9993    243.5014   1.2438024184e+02   4.3680866396e+00    0.1818434    0.1063717  22.15 0.0007931034    2.508    0.601
       264  -9.8314     38.3269    241.3120   1.4388938899e+02   2.0371657758e+01    0.0971937   0.08706679 -54.02 0.0007041558    1.664    0.399
       265 -10.0590    178.0267     31.3611   6.9304181572e+01   3.6428875085e+01    0.3193302    0.1785713  59.85  0.001559736    1.565    0.361
       266  -9.4023    177.9266     27.2348   6.8252349365e+01   3.6934922290e+01    0.4515823    0.1611055  55.14  0.001817509    2.406    0.584
       267 -10.0272     16.2216    240.4020   1.4760543243e+02   2.3063370454e+01    0.1516568   0.07599574  53.07 0.0006738435    1.643    0.391
       268  -9.5047     13.2025    232.4176   1.4760695882e+02   2.4919995063e+01    0.1528683   0.07811435  52.87 0.0009540099    1.653    0.395
       269  -9.3073    126.5883    216.7954   1.2370559540e+02   1.2059594606e+01    0.1821474    0.1297518 -74.78 0.0009397169    1.669    0.401
       270  -9.9930    161.9744     41.0027   7.4545604895e+01   3.9133561489e+01    0.2463119    0.2090652  46.15 0.0006216576    1.161    0.139
       271  -9.6041    161.5316     37.5312   7.3659193874e+01   3.9678989036e+01    0.2122359    0.1948769  79.67 0.0007040311    1.070    0.065
       272  -8.5312    242.5198     40.5316   6.3337044702e+01   2.0234898837e+01    0.1313611    0.1037047 -73.33 0.0008080548    1.086    0.079
       273  -9.6341    130.2932     40.1044   8.0664834283e+01   4.6725098450e+01    0.1803034    0.1694622  29.36 0.0005088001    1.066    0.062
       274 -10.7456    203.3381     37.7029   6.7306289982e+01   2.9548109676e+01     0.472423     0.341374  48.42  0.001923061    1.526    0.345
       275 -10.2195    200.7083     35.2595   6.7072615824e+01   3.0485427519e+01    0.4032709    0.2305065  46.82  0.001940658    1.985    0.496
       276 -10.5836    170.5653     37.7709   7.2177256188e+01   3.7458376260e+01    0.5012258    0.2768292  85.86   0.00119715    2.561    0.609
       277 -10.2346     99.6826     38.1098   8.7674798893e+01   5.3535678881e+01    0.2646552    0.1877935  27.55   0.00100932    1.345    0.257
       278 -10.7106     53.9556     36.3298   1.0175777445e+02   6.1539261849e+01    0.6572869     0.372464  40.89  0.003636374    1.963    0.491
       279 -10.2047     46.1129     37.0907   1.0496214572e+02   6.2460382770e+01    0.2652386    0.1478671 -29.94 0.0007797403    1.629    0.386
       280  -9.7119     49.0206     34.2205   1.0281308914e+02   6.2504843541e+01    0.2536202    0.1385721  34.72 0.0007811324    1.842    0.457
       281  -9.8153     51.2069     30.8009   1.0071720927e+02   6.2689952063e+01    0.2122762    0.1464767 -17.63 0.0006375223    1.296    0.228
       282 -10.2818     55.0886     29.8750   9.8937389787e+01   6.2273707382e+01    0.2333423     0.150499  23.23 0.0004261006    1.427    0.299
       283 -10.1543     26.7403    212.6089   1.4373045430e+02   2.7481102472e+01    0.2226798    0.1599671  15.78   0.00136737    2.308    0.567
       284 -10.1057    124.1470     36.9447   8.1072418854e+01   4.8504727455e+01    0.3110865    0.2128545 -28.70  0.001512859    1.600    0.375
       285  -9.8337    125.3124     32.3552   7.9344474226e+01   4.8795755004e+01    0.2191858    0.1361448 -11.71 0.0008784683    2.027    0.507
       286 -10.1622    109.8206     37.3881   8.4719784972e+01   5.1553686819e+01    0.3294483    0.1766894 -38.09   0.00098885    2.077    0.519
       287  -9.5408    234.3089    201.3275   9.8824710568e+01  -4.7220267013e+00    0.1377176   0.09427916   0.75 0.0007039182    1.658    0.397
       288 -11.4590     37.8011     29.1775   1.0526957187e+02   6.4610913908e+01    0.4511372    0.3180788 -33.77  0.001820669    1.390    0.281
       289  -9.8096      7.5391    186.5005   1.4531591503e+02   3.4925852172e+01    0.1159784   0.08870641 -88.75  5.30951e-05    1.013    0.012
       290 -11.3001     23.4146     28.2984   1.1084770406e+02   6.6258167030e+01    0.3524977    0.3059259  38.49  0.002611308    1.785    0.440
       291 -11.1625    246.1420    177.6420   9.1993977494e+01  -2.8765904472e+00    0.2402914    0.1705162 -41.54  0.001317595    1.408    0.290
       292 -10.1802    229.0379    175.5393   9.4650467202e+01   5.2419746083e-01    0.2415202    0.1871367 -49.53 0.0003905248    1.445    0.308
       293  -9.6461     25.3156     38.2505   1.1357822391e+02   6.4550606168e+01    0.1508455    0.1000838  12.22 0.0002654508    1.487    0.327
       294 -10.8822     24.6608     34.3662   1.1250610433e+02   6.5222656317e+01    0.2644214    0.1939299 -48.00  0.001790375    1.620    0.383
       295 -11.2215     28.3091     29.1290   1.0910842707e+02   6.5654963809e+01    0.3108518    0.2332303 -15.58  0.001036389    1.033    0.032
       296 -11.0865    247.1087    172.4624   9.0773176619e+01  -2.1837833891e+00    0.2745342    0.1676415 -51.14  0.001289527    1.972    0.493
       297  -8.9462    114.2975     37.3100   8.3559212723e+01   5.0613684828e+01     0.138487   0.09430549  23.54 0.0007008866    1.596    0.373
       298  -9.9323    221.9756     36.1776   6.4659710497e+01   2.5389154518e+01    0.4115174    0.1754193  70.80  0.001558241    2.280    0.561
       299 -10.9966    247.1796    166.0372   8.9443264835e+01  -1.1186908052e+00    0.2749698     0.195094  31.74 0.0008795895    1.508    0.337
       300 -10.6876    217.6177     29.2939   6.3636933066e+01   2.7258103681e+01    0.3393134    0.2347271 -88.57  0.001243635    1.355    0.262
       301 -10.9561    148.1133     35.1231   7.5447230708e+01   4.3191453637e+01     0.614549     0.247903  61.56  0.002452864    2.317    0.568
       302 -10.5994     88.6125     34.0349   8.9423284684e+01   5.6192283544e+01    0.5332636    0.2399934  41.42  0.002476969    2.005    0.501
       303 -10.3488     81.1791     33.4069   9.1451625314e+01   5.7627488892e+01     0.289336    0.1996367  46.45 0.0006574728    1.489    0.329
       304  -9.8150     83.9750     30.9887   8.9717771853e+01   5.7427342887e+01    0.1870864     0.151329  18.65            0    1.069    0.064
       305 -10.6436     61.7382     31.4387   9.7150914844e+01   6.1087970648e+01    0.2607133    0.1670431  24.35  0.001052265    1.446    0.308
       306 -11.7266     66.0180     30.5173   9.5324920622e+01   6.0545693440e+01    0.4548621    0.4384257  72.97  0.002137929    1.593    0.372
       307  -9.9250    245.8472     33.3643   6.1545677801e+01   2.0459047907e+01    0.3104035     0.145005  58.42  0.001006353    2.214    0.548
       308 -10.5942    249.0969     29.7450   6.0518900471e+01   2.0229761459e+01    0.3480633    0.2360607 -86.79  0.002008142    1.335    0.251
       309 -11.1242    238.1886     31.9124   6.2005953897e+01   2.2302252680e+01    0.6720936    0.2255416  63.72  0.002870764    2.711    0.631
       310 -11.4223    228.9302     29.1608   6.2380186130e+01   2.4700627991e+01    0.6176543    0.3951343  89.96  0.003369212    1.491    0.330
       311  -9.3866    136.2271     38.8206   7.8966466069e+01   4.5526131716e+01    0.1917883    0.1460464  33.89 0.0004163324    1.318    0.241
       312 -10.0880    134.8714     33.8367   7.7727890633e+01   4.6446899762e+01    0.3140638      0.19599  41.47 0.0006406537    1.522    0.343
       313 -10.7853    171.5934     31.0433   7.0212813137e+01   3.8025995818e+01    0.3197331    0.2371128  77.05 0.0007788984    1.278    0.217
       314  -9.9119    167.1787     29.7682   7.0575559097e+01   3.9243782771e+01    0.3176068    0.1178597  58.27  0.001279325    2.247    0.555
       315 -10.9389    249.3068    161.4651   8.8137063157e+01  -7.2269371116e-01     0.311078    0.1845972 -48.93  0.001504826    1.831    0.454
       316  -9.8923    113.3641     32.2463   8.2116720998e+01   5.1429018761e+01    0.1864486    0.1482601   7.68 0.0004792636    1.330    0.248
       317 -10.9356    107.6283     29.5955   8.2657952937e+01   5.2951830771e+01    0.6747116    0.2785318  58.91  0.002427931    2.698    0.629
       318 -10.2903     14.2689    165.5586   1.4196477564e+02   3.8942244942e+01    0.2716606    0.1744225  71.19  0.001651237    1.559    0.358
       319 -10.0250      2.3821    161.6017   1.4420575251e+02   4.0779083502e+01    0.2090438    0.1688266 -44.52  0.001493598    1.506    0.336
       320 -10.3232    249.2497    155.9716   8.7005784050e+01   2.1922625050e-01    0.2563579    0.1802048 -49.57  0.001358161    1.506    0.336
       321 -10.4238     76.4976    155.9890   1.2557281581e+02   3.3968131704e+01    0.2965487    0.1519493  66.49  0.001040842    3.496    0.714
       322 -10.4806    229.4925    154.1220   9.0047960387e+01   4.2448843527e+00    0.2661547    0.2423828 -45.64  0.001288312    1.135    0.119
       323 -12.2941     19.7056    148.1987   1.3873655035e+02   4.2389795228e+01     0.652159     0.326811 -47.41  0.003324571    2.077    0.519
       324  -9.8232     34.4944    150.4792   1.3538031774e+02   4.0483185867e+01    0.1274541    0.1068467 -78.31 -1.688951e-05    1.026    0.026
       325 -12.2628    242.1212    147.2213   8.6358792697e+01   3.0450466275e+00     0.620382    0.4208473 -71.30  0.002813993    2.428    0.588
       326 -11.9193    235.6618    144.1646   8.6806239992e+01   4.8270533604e+00    0.6788383     0.416529 -72.13  0.002532266    3.498    0.714
       327  -9.4808    146.6745     30.2995   7.4308916186e+01   4.4098795582e+01    0.2229543    0.1798052  64.24 0.0006317019    1.133    0.117
       328 -10.4589    148.3371     24.6401   7.2350644293e+01   4.4332775700e+01    0.5963154    0.2942283  43.30  0.002708774    2.033    0.508
       329  -9.4697     25.6747     14.4255   1.0446415809e+02   6.7936559089e+01     0.169939    0.1116944  22.76 0.0006345173    1.453    0.312
       330 -10.3294     66.8547    148.1401   1.2670334221e+02   3.7189239075e+01    0.2189693    0.1811535  83.83  0.001244504    1.257    0.204
       331 -11.1209     38.9165    146.0073   1.3362351607e+02   4.1061647916e+01    0.4587166    0.2580957 -71.54  0.002365227    1.617    0.381
       332  -9.1584     61.3046    147.3192   1.2801733226e+02   3.8123267422e+01    0.1358224   0.09867857 -35.25 0.0003031168    1.631    0.387
       333 -11.5200      4.9822     26.5871   1.1822963039e+02   6.8010176956e+01    0.4324982    0.2655337   0.16  0.002386745    1.560    0.359
       334  -9.3473      5.0060    147.0697   1.4214084216e+02   4.3805200841e+01    0.2370434    0.1227841 -56.97  0.001356664    1.654    0.395
       335 -10.5511      7.0808    143.2519   1.4121990224e+02   4.4505976455e+01    0.3463085    0.1846417  53.63  0.001931374    2.176    0.541
       336 -11.8328    245.6924    140.6680   8.4366518443e+01   3.5121510808e+00    0.3786449    0.2934732  61.90  0.002081221    1.551    0.355
       337 -10.9121    212.5998    137.4780   8.9492074821e+01   1.0773084017e+01    0.3674588    0.2839712 -22.21   0.00138551    1.415    0.294
       338 -10.3288     54.5070    137.9661   1.2821548741e+02   4.1170637399e+01    0.2151572    0.1183733 -60.99   0.00103832    1.606    0.378
       339 -10.8158    153.0286     27.6213   7.2371663110e+01   4.2890854062e+01    0.3958397    0.2604649 -13.92  0.001062131    1.951    0.487
       340  -9.5402    191.7265     26.7374   6.6205438792e+01   3.3667342256e+01    0.1863362    0.1664988  25.51  0.001087857    1.416    0.294
       341  -9.7096    244.5701     25.6366   6.0123672736e+01   2.1705823798e+01    0.2030166    0.1199926 -82.30 0.0009872975    1.659    0.397
       342  -9.4666    201.2047     25.6614   6.4740616834e+01   3.1533561596e+01    0.2062549    0.1578103 -57.98 0.0006522605    1.300    0.231
       343 -10.1299    159.8425     24.6944   7.0384873239e+01   4.1581979178e+01    0.3710094    0.2350787  85.25  0.001593344    1.826    0.452
       344 -10.1340     50.7363     25.2890   9.8778603621e+01   6.3485227567e+01    0.5008445    0.1501842  33.27  0.002032459    3.464    0.711
       345 -10.5452    168.4565     24.4137   6.8935708787e+01   3.9539290347e+01    0.5410584    0.1636328  53.65  0.002033811    2.762    0.638
       346  -9.8119     21.8020    138.2143   1.3691316398e+02   4.4480668832e+01    0.1687833    0.1265198 -46.59  0.001065459    1.357    0.263
       347  -9.6628    121.6133     18.8456   7.5821233755e+01   5.1077567609e+01     0.274365    0.1661091  22.67  0.001368618    1.994    0.499
       348  -9.4199     47.3134    137.6614   1.3010431676e+02   4.2085337434e+01     0.134551   0.09474742  77.79 0.0007046689    1.695    0.410
       349  -9.9012    132.9470     13.0000   7.1705565786e+01   4.9076669769e+01    0.2882347    0.1743193  70.94  0.001256214    1.668    0.401
       350 -10.4791     98.4539     22.1592   8.2451046728e+01   5.5655103938e+01    0.2391613    0.1870947  36.76 0.0006382347    1.086    0.079
       351 -10.8411     12.7304    125.0078   1.3746645369e+02   4.8175044729e+01     0.255788    0.1531726 -85.25 0.0007274329    1.730    0.422
       352  -9.3707     92.5281     15.8759   8.1770927143e+01   5.7472502478e+01    0.1593923    0.1176727 -13.67 0.0003157342    1.432    0.302
       353 -10.2450      4.6680    136.0027   1.4097020965e+02   4.6291628700e+01     0.277821    0.2097302   6.86  0.001886611    1.802    0.445
       354 -10.2055     73.9750     17.4603   8.7737093869e+01   6.0755206571e+01     0.231183    0.2163871  26.13  0.001412091    1.308    0.235
       355  -9.6439     70.1359     17.5973   8.9008002473e+01   6.1400008793e+01     0.174319    0.1282969  40.61 0.0004679828    1.321    0.243
       356  -9.4927     60.8439     22.8791   9.4188819999e+01   6.2304488351e+01    0.1530568    0.1503495  54.88 0.0008073422    1.578    0.366
       357  -9.2791    228.2078     21.7375   6.0890740211e+01   2.5762123946e+01    0.1680728    0.1512292  19.58 0.0003034657    1.622    0.383
       358  -8.8651    229.2905     18.3144   6.0073293862e+01   2.5920798506e+01     0.112862   0.09189657  46.93 0.0002587074    1.591    0.372
       359 -10.2597    244.5399     20.3325   5.9079636294e+01   2.2355650124e+01    0.3172542    0.2089996 -76.55  0.001293291    1.346    0.257
       360  -9.6588    240.3947     19.2555   5.9235494634e+01   2.3374170447e+01    0.2246731    0.1098735 -38.64 0.0009362992    2.022    0.505
       361  -9.7183    232.5914     18.9057   5.9881754248e+01   2.5120202580e+01     0.317468     0.104148 -36.38  0.001369033    2.944    0.660
       362  -9.7335      8.8478    134.8478   1.3978044705e+02   4.6256471902e+01    0.1739659     0.141284  79.30 0.0003303664    1.266    0.210
       363 -10.4561    208.1133     17.1975   6.1999677217e+01   3.0874614207e+01    0.4265864    0.1973986  87.21  0.001700443    2.556    0.609
       364 -10.8847     15.2136    132.5672   1.3785073475e+02   4.6294115398e+01    0.3442832    0.2592453 -27.13  0.001963686    1.636    0.389
       365 -10.1569    198.3211     19.7098   6.3695773939e+01   3.2894705773e+01    0.3424783    0.1769815 -45.27  0.001672212    1.978    0.494
       366 -10.1792    161.3000     17.9996   6.8312255387e+01   4.1937038954e+01    0.2613862      0.20341 -35.03 0.0008854163    1.467    0.319
       367 -10.9124     12.1962    129.8361   1.3827069961e+02   4.7134643958e+01    0.3334497    0.2424622 -40.66  0.001227192    1.464    0.317
       368 -10.1755    148.6708     17.6563   7.0273558308e+01   4.4975029809e+01    0.3466603    0.1740586  35.90  0.001152141    2.436    0.589
       369 -10.8378    236.2623    135.1712   8.4747919185e+01   6.3124633109e+00     0.271097    0.2027815  65.37  0.001052876    1.621    0.383
       370 -11.0459    249.3321    132.9406   8.2133906900e+01   4.1592182255e+00    0.2953352    0.2421351  31.98  0.001695319    1.386    0.278
       371 -10.8008    242.1140    129.6689   8.2583281422e+01   6.1256908120e+00    0.3011137    0.1994599  34.88  0.001483981    1.815    0.449
       372 -11.4286     24.9296    128.7651   1.3472810726e+02   4.6359911004e+01    0.4460353    0.3007775  20.60  0.001915142    1.847    0.459
       373 -10.3423    224.0556    129.2177   8.5532362428e+01   9.8864428056e+00    0.2307305    0.2160345 -39.21    0.0008982    1.011    0.011
       374 -10.5118    226.4914    125.6589   8.4307097997e+01   1.0023611161e+01    0.3681317    0.2454935 -53.97  0.001132157    1.589    0.371
       375 -10.9531     72.3630    129.0960   1.2159293772e+02   4.0876132213e+01    0.2600133    0.2034714  43.11 0.0009504553    1.376    0.273
       376  -9.5351     47.6860    128.3286   1.2838223024e+02   4.4204638927e+01    0.1323037    0.0965938  78.36 0.0002802998    1.673    0.402
       377 -10.9090     67.3946    123.1994   1.2178185232e+02   4.2931595464e+01    0.5901467    0.2594684 -35.65  0.002073784    3.427    0.708
       378 -11.0936     55.9088    126.7537   1.2577369877e+02   4.3602720048e+01    0.3897714    0.2005741 -47.65  0.001821128    1.803    0.446
       379  -9.5612    178.6710     14.9010   6.5003924553e+01   3.8089824553e+01    0.1701339    0.1527525 -89.90 0.0003288809    1.090    0.082
       380 -10.2152    156.0391     15.4711   6.8442009168e+01   4.3443818751e+01    0.2085299    0.1109654  63.09  0.001026564    1.581    0.367
       381  -9.3168     79.0278     15.5493   8.5461980851e+01   6.0054774257e+01    0.1567323    0.1080879  72.45 0.0008081996    2.595    0.615
       382 -10.0573     17.3826    122.6342   1.3586027927e+02   4.8357614372e+01    0.1802803    0.1285434  78.35 0.0007830686    1.618    0.382
       383  -9.8968    242.5201     13.5077   5.7920188602e+01   2.3584929300e+01    0.2014466    0.1017039  72.66  0.001088062    1.770    0.435
       384  -9.4870     28.0769    120.6349   1.3256573897e+02   4.7924751425e+01    0.3051917    0.1463312 -71.84 0.0009950229    2.080    0.519
       385  -9.7778    217.2781    120.5688   8.4763202960e+01   1.2925972163e+01    0.2569893    0.1829381 -17.42  0.001188132    1.786    0.440
       386 -11.0858      5.5180    117.8722   1.3841994773e+02   5.0247347903e+01    0.5754063    0.2023896 -68.18  0.002691203    2.256    0.557
       387 -10.2189     29.0408     77.8169   1.2360670243e+02   5.7044432779e+01    0.3031954    0.2230877 -37.74  0.001945932    1.134    0.118
       388 -10.7142     22.3877    108.4026   1.3211569423e+02   5.1127764240e+01    0.3604589    0.2278154 -34.25  0.002090733    1.664    0.399
       389 -11.9289     22.1001     96.1289   1.2991644540e+02   5.3813678426e+01    0.5528991    0.2923442 -32.45  0.002637891    2.058    0.514
       390 -11.3288      9.9733    107.7019   1.3564704244e+02   5.2183862442e+01    0.7814699    0.2269102 -42.29  0.003072707    3.678    0.728
       391 -11.8301     18.4770    104.3374   1.3256483081e+02   5.2319137785e+01    0.3822154    0.2799003  28.52  0.001619059    1.642    0.391
       392 -11.0572     16.0953     98.4003   1.3222055290e+02   5.3775394110e+01    0.3260863    0.2124719 -34.47 0.0008025817    1.519    0.342
       393 -11.9569     25.4658     85.2257   1.2654447993e+02   5.5837995415e+01    0.6024809    0.4345769 -79.46  0.003614314    1.754    0.430
       394 -11.0884     29.1659     82.4274   1.2466413582e+02   5.6100031759e+01     0.362457    0.2292046  34.02  0.002129189    1.878    0.467
       395  -9.2030     20.1667    119.5891   1.3462159409e+02   4.8821541380e+01    0.1486197    0.1131475 -12.84 0.0009345508    1.646    0.392
       396  -9.2871     41.7090    118.3232   1.2824738389e+02   4.7138219709e+01    0.1259266   0.09538521  81.97 0.0003358413    1.610    0.379
       397  -9.7158     13.0322    117.4922   1.3629182639e+02   4.9824608129e+01    0.1502602    0.1207711  17.45 0.0005921485    1.551    0.355
       398  -9.8001     97.6912    115.0201   1.1121379098e+02   4.0023700914e+01    0.2167743    0.1910275 -42.30   0.00117326    1.094    0.086
       399 -10.0594    245.1708     93.1966   7.4194913054e+01   1.1743467703e+01    0.2463479    0.1997136 -54.68 0.0005013177    1.118    0.106
       400 -11.1581    245.8741     97.5968   7.5048082565e+01   1.0869542782e+01    0.6688315     0.331656  74.86  0.002502696    3.494    0.714
