#   1 NUMBER                 Running object number                                     
#   2 MAG_AUTO               Kron-like elliptical aperture magnitude                    [mag]
#   3 X_IMAGE                Object position along x                                    [pixel]
#   4 Y_IMAGE                Object position along y                                    [pixel]
#   5 X_WORLD                Barycenter position along world x axis                     [deg]
#   6 Y_WORLD                Barycenter position along world y axis                     [deg]
#   7 A_WORLD                Profile RMS along major axis (world units)                 [deg]
#   8 B_WORLD                Profile RMS along minor axis (world units)                 [deg]
#   9 THETA_WORLD            Position angle (CCW/world-x)                               [deg]
#  10 FWHM_WORLD             FWHM assuming a gaussian core                              [deg]
#  11 ELONGATION             A_IMAGE/B_IMAGE                                           
#  12 ELLIPTICITY            1 - B_IMAGE/A_IMAGE                                       
         1 -15.4263    223.9830     64.6555   2.8512222188e+01   2.3908174373e+01     2.593842     1.600662  46.97   0.01557974    2.411    0.585
         2 -14.7625    240.4935     70.9123   2.8123633451e+01   2.0326154839e+01    0.9620206    0.7846188 -37.19  0.007247112    1.431    0.301
         3 -14.5737     54.2044     53.6759   6.1061655919e+01   6.0421510129e+01     1.500861    0.6736151 -48.33  0.006294613    2.668    0.625
         4 -15.1468     64.8273     41.3706   5.2314754232e+01   6.0378641594e+01      1.01549    0.7761968  24.04  0.005841059    1.305    0.233
         5 -14.3329     76.4293     29.2419   4.3887337998e+01   5.9578942948e+01    0.6094553    0.5897234 -39.41  0.003807071    1.217    0.178
         6 -13.7681     62.1888     17.4572   4.3708856686e+01   6.3873839047e+01     2.956458    0.7076197  53.79   0.01066071    3.350    0.702
         7 -14.2922     92.7689      3.5591   3.0618011508e+01   5.8474479539e+01      1.10514    0.4686025  61.73   0.00556835    1.808    0.447
         8 -14.3927     82.1226     13.3570   3.6418111208e+01   6.0011898326e+01    0.6194521    0.5000215 -16.02  0.002931263    1.517    0.341
         9 -13.9100     88.4604     11.6740   3.4340243869e+01   5.8759698227e+01     1.093196    0.5896015  88.00  0.004961905    2.766    0.639
        10 -13.3511    115.3163     12.0181   2.9423475021e+01   5.2673115696e+01    0.4720016    0.2447159 -40.35  0.002544818    2.122    0.529
        11 -13.0831    123.9967     10.0103   2.7538107172e+01   5.0894075392e+01    0.3575678    0.2717261 -20.59  0.001603852    1.709    0.415
        12 -14.0007    119.8667      7.8224   2.7495419438e+01   5.2016740886e+01    0.5467834    0.5278857  20.20  0.004064802    1.329    0.247
        13 -12.8918    149.1529      8.7563   2.4128070511e+01   4.5428741523e+01    0.4519301    0.1922851  83.72    0.0021722    2.327    0.570
        14 -12.7443    103.7087      5.0143   2.9147439665e+01   5.5898322706e+01    0.2433437    0.2032411 -75.08 0.0008001025    1.262    0.208
        15 -12.3355    128.2503      5.0032   2.5567661216e+01   5.0376155127e+01    0.2667739    0.1946228  33.07  0.001457275    1.839    0.456
        16 -13.3126    111.1251      4.0624   2.7664541778e+01   5.4302088885e+01    0.4053438    0.3084745  78.01  0.002028729    1.089    0.082
        17 -12.8814    137.8448      4.9942   2.4415699696e+01   4.8245287495e+01    0.3543581    0.1523126  76.41  0.001222718    1.997    0.499
        18 -14.0195    195.6236    112.5389   4.1489050759e+01   2.1380555168e+01    0.5680906    0.4170775 -15.85  0.003083634    1.929    0.482
        19 -12.2611    209.4690    117.3409   4.0392242531e+01   1.8194869112e+01    0.3268782    0.1030509 -44.99  0.001309208    2.650    0.623
        20 -12.8247    185.7451    114.7524   4.3536633521e+01   2.2750863927e+01    0.3136874    0.2267788 -47.60  0.001704745    1.228    0.185
        21 -11.5151      2.7682    115.6026   9.9710686569e+01   5.2053182730e+01    0.1937865     0.123477  27.08 0.0009594128    1.692    0.409
        22 -13.2103    217.3087    112.3402   3.8340543867e+01   1.7759647148e+01    0.4286039    0.2876225 -61.70  0.002540372    1.510    0.338
        23 -12.2074    225.6562    110.0465   3.6832804620e+01   1.6810044765e+01    0.3269219    0.1937552 -65.74   0.00177518    2.041    0.510
        24 -12.8759    119.1633    103.2447   5.4824727924e+01   3.8167423752e+01    0.2807106    0.2573534 -85.29  0.001526682    1.167    0.143
        25 -12.6894    134.1847     99.0508   5.0046776662e+01   3.5883139846e+01    0.5971365    0.2816059 -43.20  0.002421921    2.117    0.528
        26 -12.6994    205.4391     96.4262   3.6800802844e+01   2.2369930182e+01    0.2931268    0.2235948  35.54   0.00177427    1.831    0.454
        27 -11.1107    202.5467     91.1388   3.6117819148e+01   2.3736564824e+01    0.2427266     0.184163  27.41  0.001269274    2.074    0.518
        28 -11.8875     43.0099     99.0018   7.9675782905e+01   5.2633822787e+01    0.2366396    0.2176976 -18.04  0.001203203    1.011    0.010
        29 -12.7743    113.6180     96.7801   5.4601365063e+01   4.0630527117e+01     0.426934    0.2701136  68.54  0.001759551    2.254    0.556
        30 -13.6692    216.6733     72.5490   3.0748209882e+01   2.4058398270e+01    0.5360627    0.3777894 -44.89  0.002907149    1.275    0.216
        31 -10.8140    246.3377    183.3254   4.7007389328e+01   2.1185481890e+00     0.118865   0.07207137 -19.84 0.0007051429    1.723    0.420
        32 -11.9190     40.2315     81.3564   7.6204385702e+01   5.7098108334e+01    0.2589568    0.1783518  34.08  0.001217055    1.461    0.316
        33 -13.1348     20.7011     77.7306   8.4367516759e+01   6.0151741468e+01    0.5919967    0.2551225  20.70  0.002486476    2.281    0.562
        34 -13.9018    239.6066     91.2127   3.1811516294e+01   1.7559404056e+01    0.5943614     0.437031 -46.29  0.002814623    1.141    0.124
        35 -14.5826    235.9963     81.7009   3.0469222720e+01   1.9513262486e+01    0.7445616    0.6671021  78.95  0.005822902    1.346    0.257
        36 -10.8910    212.5021    148.5141   4.5921962003e+01   1.2272380142e+01    0.1279648    0.1052645 -37.14 0.0001158106    1.029    0.029
        37 -11.7886     25.2191     64.6136   7.8391909263e+01   6.2550886107e+01    0.1960256    0.1192257   9.24 0.0009317202    1.679    0.404
        38 -12.7273    247.8611    144.8538   4.0292315177e+01   8.0806509670e+00    0.3333448    0.2652174  88.17  0.002308264    1.891    0.471
        39 -12.8282     47.8607    141.6669   8.6730002171e+01   4.1015131884e+01    0.4867701    0.2283393  24.19  0.001861834    2.178    0.541
        40 -10.6227    176.6779     79.9888   3.7406250600e+01   3.0449588874e+01    0.1880453    0.1532912 -58.07 0.0007987179    1.106    0.096
        41 -12.3474    218.4266     94.1714   3.4710839014e+01   2.0500683152e+01    0.3927377    0.3047646 -80.24  0.002050343    1.355    0.262
        42 -13.7951     39.4294     50.2470   6.6409334047e+01   6.3438889919e+01    0.6894324    0.3746673 -54.05  0.003179161    2.441    0.590
        43 -13.4338     41.4941     44.8240   6.3366252034e+01   6.4042435074e+01    0.3990014    0.3752782 -73.15  0.002535894    1.480    0.324
        44 -10.7588    112.3317     89.3064   5.2922145376e+01   4.2376034166e+01    0.1470813     0.116149   9.50 0.0005681627    1.663    0.399
        45 -12.2926    218.8858     47.0099   2.5671539180e+01   2.7144351902e+01    0.4667788     0.172809  70.19  0.002357813    2.868    0.651
        46 -10.9947    217.0403     38.4529   2.4220313877e+01   2.8542156663e+01    0.1907798    0.1574647  84.58 0.0009583515    1.279    0.218
        47 -12.7061    209.7634     44.5657   2.6010496119e+01   2.9105952803e+01    0.4578615    0.1831755  67.82   0.00238662    2.524    0.604
        48 -12.9783    214.6404     42.3821   2.5161795818e+01   2.8489879311e+01    0.3981578    0.2427642 -67.48  0.002139316    1.428    0.300
        49 -12.0298     43.8136     62.3473   6.8662712425e+01   6.0542369938e+01    0.2185415    0.1920313 -47.33 0.0007067069    1.304    0.233
        50 -12.8676    200.8712     32.2647   2.4378668022e+01   3.2282081669e+01    0.3387831    0.3053451  -7.72  0.002501932    1.742    0.426
        51 -11.9459      3.3679    139.7621   1.0241460620e+02   4.5574803213e+01    0.3266544     0.269261 -81.50  0.001833868    1.155    0.134
        52 -13.2313     31.4585     88.2628   8.2009194456e+01   5.6591361790e+01    0.6596371    0.2427217  22.88  0.002426285    2.740    0.635
        53 -12.8974    188.4956     28.9771   2.4816675722e+01   3.5078989725e+01     0.363866    0.2064862 -86.69  0.002134511    1.708    0.414
        54 -12.2196    243.3693    103.6341   3.3622010044e+01   1.5135489445e+01    0.2819732    0.2004494 -67.80  0.001925742    1.439    0.305
        55 -13.2837    248.9479    101.5207   3.2669160064e+01   1.4646999594e+01    0.7855294    0.2105448 -43.66  0.003488723    2.768    0.639
        56 -14.9919    223.6745    130.7781   4.0957949829e+01   1.3694593135e+01    0.8049169    0.6293983  73.35  0.005212772    1.704    0.413
        57 -12.8788    249.7732    113.5441   3.4663625534e+01   1.2719770655e+01    0.7204486    0.2706559 -34.88  0.003250171    2.978    0.664
        58 -13.3556    243.9866    113.1048   3.5223965258e+01   1.3596811512e+01    0.4626825    0.3687402 -35.50  0.002894731    1.261    0.207
        59 -15.1536    237.8211    128.0653   3.8607744543e+01   1.2104337679e+01     1.174082    0.8604362 -15.57  0.007455353    1.829    0.453
        60 -14.0567    238.0126    118.4428   3.6863101576e+01   1.3615452482e+01    0.7246579    0.3400489 -50.51  0.003900494    1.807    0.446
        61 -11.3621    122.2794    126.9814   5.9861987214e+01   3.2431385774e+01    0.2195245    0.2049207 -43.30  0.001174852    1.053    0.051
        62 -11.1679     27.8472    126.1600   9.1429868378e+01   4.7362487355e+01    0.2175286    0.1623251 -35.95 0.0008745161    1.320    0.242
        63 -12.8540    205.5153    123.2182   4.2128497460e+01   1.7828335855e+01    0.4160814     0.188629 -53.95  0.001843437    2.322    0.569
        64 -13.6218    221.0267    119.3592   3.9179505299e+01   1.6007873552e+01    0.3679757    0.2818999 -45.27  0.001746362    1.072    0.067
