#   1 NUMBER                 Running object number                                     
#   2 MAG_AUTO               Kron-like elliptical aperture magnitude                    [mag]
#   3 X_IMAGE                Object position along x                                    [pixel]
#   4 Y_IMAGE                Object position along y                                    [pixel]
#   5 X_WORLD                Barycenter position along world x axis                     [deg]
#   6 Y_WORLD                Barycenter position along world y axis                     [deg]
#   7 A_WORLD                Profile RMS along major axis (world units)                 [deg]
#   8 B_WORLD                Profile RMS along minor axis (world units)                 [deg]
#   9 THETA_WORLD            Position angle (CCW/world-x)                               [deg]
#  10 FWHM_WORLD             FWHM assuming a gaussian core                              [deg]
#  11 ELONGATION             A_IMAGE/B_IMAGE                                           
#  12 ELLIPTICITY            1 - B_IMAGE/A_IMAGE                                       
         1 -11.2252    250.0000     28.0009   3.5619963990e+02   2.0840030272e+01    0.1962617   0.05392131 -30.20  0.000810465    2.998    0.666
         2 -10.4840    161.0012    241.4908   5.2076866414e+01   4.5871127770e+00    0.2034052    0.1404583  66.01  0.001038152    3.531    0.717
         3 -10.5464    184.6079    227.8326   4.5627315211e+01   3.4448635710e+00    0.1421472     0.110511 -42.62  0.000955835    1.759    0.431
         4 -10.0837    198.3170    214.6943   4.1094797892e+01   3.4513459614e+00    0.1025832   0.09006509  38.12 0.0003171355    1.628    0.386
         5 -10.3793     92.4248    212.7372   6.3797544148e+01   1.8571126972e+01    0.2205824    0.1338364 -73.28  0.001143001    2.162    0.538
         6 -10.3623     76.8425    213.0816   6.7636304642e+01   2.0574492950e+01    0.2162042    0.1478426  52.03  0.001232945    1.334    0.250
         7 -10.6847     85.7088    208.7261   6.5017860089e+01   2.0271354321e+01     0.255077    0.1484138  75.79  0.001179854    2.534    0.605
         8 -11.4547     98.7701    204.6945   6.1332330298e+01   1.9260774499e+01    0.3706114    0.1919756 -72.42  0.001656864    2.794    0.642
         9  -9.9951    197.4808    204.4698   3.9626736387e+01   4.9613602566e+00    0.1212553   0.09761438   7.18 0.0002668633    1.054    0.051
        10 -10.5703    124.1480    198.7220   5.4360310074e+01   1.6670779001e+01    0.2345445    0.1681922 -78.25  0.001213563    2.100    0.524
        11 -11.6892     88.7257    197.8361   6.3052805780e+01   2.2077221664e+01    0.4314842    0.2705909  74.49   0.00206685    2.180    0.541
        12 -10.7601    112.1679    197.2005   5.7061384755e+01   1.8778902007e+01    0.3249283    0.2141316  81.41  0.001503784    2.538    0.606
        13 -10.4672     12.6114    195.2058   8.2628510582e+01   3.1432799292e+01    0.1687487    0.1046901 -72.71 0.0009613921    1.752    0.429
        14 -10.1827    224.5826    192.8618   3.2921167159e+01   2.9648150551e+00    0.2554762   0.09705778 -42.70  0.001146572    3.248    0.692
        15 -11.9142     77.6304    191.9607   6.5276963993e+01   2.4872825125e+01    0.5081652      0.23595 -64.70  0.002252184    2.436    0.589
        16 -11.0022    102.5610    192.3007   5.8814365182e+01   2.1212015520e+01    0.2434817    0.1427517 -66.89  0.001151903    2.150    0.535
        17 -10.3751     20.4987    190.0009   8.0372692349e+01   3.1898020097e+01    0.1937877   0.07462593  65.56 0.0008105834    2.566    0.610
        18 -10.7514    129.3600    188.2089   5.1534696131e+01   1.7870346738e+01    0.3002738    0.2450356  76.91  0.001652653    1.673    0.402
        19 -11.0936     86.5751    187.3424   6.2352215690e+01   2.4622504355e+01    0.2501138    0.1419289 -72.21  0.001148843    2.175    0.540
        20 -10.6519     12.1597    184.6325   8.2337814394e+01   3.3849403561e+01    0.2925045    0.1086075  74.54  0.001222475    2.726    0.633
        21 -11.6103     95.3890    188.2025   6.0128655863e+01   2.3144315985e+01    0.2958233    0.1802812 -78.69  0.001365616    2.256    0.557
        22 -10.2791    121.2900    187.6480   5.3425912670e+01   1.9263373298e+01    0.1389161    0.1030188  62.18 0.0006562285    1.672    0.402
        23 -10.4738    147.4688    179.9669   4.5882185582e+01   1.6494063291e+01     0.175929    0.1272248 -81.15 0.0006840831    2.509    0.601
        24 -11.1861     59.4126    175.8571   6.8550034186e+01   3.0956468142e+01    0.3591244    0.2497073 -87.71  0.001866637    1.559    0.359
        25 -10.9203     76.7512    173.5290   6.3316187346e+01   2.9159415587e+01    0.3003352    0.1574895 -50.71  0.001304689    2.183    0.542
        26 -10.9812      2.1107    171.0061   8.4570815196e+01   3.7800081396e+01    0.4620291    0.1211111  82.35  0.001581686    4.026    0.752
        27 -10.4955    150.1128    169.0487   4.3311752736e+01   1.8107911939e+01      0.28745     0.199817 -64.57  0.001374451    2.072    0.517
        28 -10.6174    120.8523    169.8768   5.0668116726e+01   2.2989730324e+01    0.2487952    0.2072911 -63.17  0.001026793    1.396    0.284
        29 -10.9958     55.1341    168.5510   6.9020561085e+01   3.3250557926e+01    0.4654067    0.2444893 -89.10   0.00197997    2.308    0.567
        30 -10.3638     88.1923    167.4341   5.9206165358e+01   2.8880112197e+01    0.2677793    0.2128506 -66.82  0.001409853    1.385    0.278
        31 -11.0235    212.8376    163.1740   2.9540077935e+01   8.7514018221e+00    0.1836383    0.1665673 -17.38 0.0007807055    1.219    0.180
        32 -11.0153      2.1449    161.2785   8.4237057198e+01   4.0132678843e+01    0.2757182    0.1137961  62.94  0.001236136    2.134    0.531
        33 -10.5879     91.5945    158.7332   5.6874819109e+01   3.0389298612e+01    0.2796237     0.140127 -55.34  0.001142932    2.123    0.529
        34 -10.0324     80.9833    154.4814   5.9364989531e+01   3.3095997362e+01    0.2256448    0.1015267  50.88 0.0006967494    2.437    0.590
        35 -10.3039     21.4823    149.9818   7.7733816366e+01   4.1487210507e+01    0.2072967   0.08849645  68.20 0.0008099168    2.506    0.601
        36 -10.2085    199.2554    149.2352   2.9177112590e+01   1.3090987659e+01    0.1967601    0.1071059  52.22 0.0008907525    2.421    0.587
        37 -10.4910    189.3744    148.2138   3.0808873825e+01   1.4962909677e+01    0.1945156    0.1208624 -45.05 0.0009585815    1.713    0.416
        38 -12.1089      2.4717    138.9147   8.3252083066e+01   4.5701409348e+01    0.5988047    0.1732719 -85.80   0.00215325    3.206    0.688
        39 -10.8879     38.3960    146.6812   7.1939022605e+01   4.0714118974e+01    0.3362385    0.1503305  62.97  0.001266102    2.613    0.617
        40 -10.9949     54.7750    144.5757   6.6262888822e+01   3.9335711954e+01    0.4680981    0.2385645  72.09  0.001736547    2.699    0.629
        41 -10.9517    105.9334    143.9479   5.0020912610e+01   3.1431046431e+01     0.561148    0.3013389  67.68  0.001690477    4.090    0.756
        42 -11.6951     21.8483    135.9914   7.6522411421e+01   4.5090273585e+01    0.6452417    0.2406581  74.11  0.002171881    3.469    0.712
        43 -11.3798    197.6432    137.4701   2.7006776201e+01   1.5291949658e+01    0.2558467    0.1617697 -59.26  0.001155962    2.472    0.596
        44 -10.3299     16.4560    137.4677   7.8488799929e+01   4.5132924485e+01    0.1366015    0.1213366  73.98 6.384278e-05    1.017    0.016
        45  -9.5933    162.6568    136.3239   3.3751738427e+01   2.2087243578e+01    0.1446849    0.1185038  87.87 0.0007050635    1.733    0.423
        46 -10.4137     69.0408    135.9345   6.0177077681e+01   3.9599363975e+01    0.2222351    0.2109436  59.91    0.0003421    1.022    0.022
        47 -11.6776    179.5119    132.5193   2.9356074256e+01   1.9508100591e+01    0.4406065    0.2155739 -48.28  0.001806665    2.290    0.563
        48 -10.6901    143.7237    131.5178   3.7092690130e+01   2.6844558313e+01    0.3760893    0.2693321  80.54  0.001583354    2.256    0.557
        49 -10.9788     82.5688    130.5424   5.4660195605e+01   3.8832782000e+01    0.4192931    0.1533069 -59.69  0.001383143    2.862    0.651
        50  -9.7161    204.6597    130.3259   2.4241373327e+01   1.5201229912e+01    0.1296966    0.1045953 -67.88 0.0007051345    1.731    0.422
        51 -12.1475    193.0553    129.1926   2.6032427611e+01   1.7512079525e+01    0.3664995     0.198135 -33.92  0.001692143    1.762    0.433
        52 -12.0508    169.5013    129.5845   3.0745913333e+01   2.2007583793e+01    0.3909689     0.298019  80.31  0.001855738    1.988    0.497
        53 -10.9317     54.1898    130.1756   6.4394018443e+01   4.3193050002e+01    0.2189146    0.1646446  59.96 0.0006844247    1.326    0.246
        54 -11.5456     11.9601    126.9415   7.9301474736e+01   4.8223237617e+01    0.7542291    0.2127448 -83.87  0.002502461    3.498    0.714
        55 -11.0796     38.6143    128.7108   6.9798600023e+01   4.5436052660e+01    0.2759728    0.2151643  76.80  0.001437736    1.256    0.204
        56 -10.4907     98.0330    126.8087   4.8869805827e+01   3.7009823401e+01    0.4170972     0.209376 -72.44   0.00129516    3.536    0.717
        57 -12.5167    180.1662    124.2961   2.7357024471e+01   2.0849459065e+01    0.3990383    0.2372795 -46.81  0.001832607    1.748    0.428
        58 -11.1854     57.9444    122.0898   6.1703648000e+01   4.4838886133e+01    0.4867532    0.2324042 -82.20  0.001665678    2.949    0.661
        59 -11.1639     42.3129    120.6924   6.7328998982e+01   4.7183893921e+01    0.7764407    0.2602052 -84.20  0.001915203    5.855    0.829
        60 -11.2950     26.8320    120.9078   7.3244110647e+01   4.8686029576e+01    0.6272936    0.2428103  73.31  0.001953486    3.931    0.746
        61 -11.6318    172.6113    121.2396   2.8154873932e+01   2.2927173859e+01    0.3361034    0.2158478 -55.51  0.001511199    1.887    0.470
        62 -11.6498    153.0207    128.9258   3.4258325697e+01   2.5473045454e+01    0.4371114    0.2882462 -63.64  0.001865353    2.108    0.526
        63 -11.6024      2.0912    114.0790   8.2110508490e+01   5.2194030831e+01    0.8247841    0.1977517 -86.05  0.002572425    4.018    0.751
        64 -10.9017    129.9740    116.4083   3.7014995122e+01   3.2953404046e+01    0.3871798    0.2123371 -43.79  0.001542602    1.882    0.469
        65 -11.8660    185.8849    115.3371   2.4173279126e+01   2.1281067484e+01    0.3438074    0.1727852 -44.93  0.001461744    1.988    0.497
        66 -10.5932    108.6858    113.2750   4.2359413851e+01   3.8167674304e+01    0.3959491     0.200133 -62.79  0.001346861    2.716    0.632
        67 -10.3456     92.2931    113.4173   4.7671057584e+01   4.1396918606e+01    0.2814027     0.201279 -83.62  0.001189663    1.826    0.452
        68 -11.7898     78.3213    110.4386   5.1846130376e+01   4.4705932580e+01    0.8720679    0.3823904 -69.75   0.00266152    3.482    0.713
        69 -10.6881    121.7237    110.8604   3.7883704392e+01   3.5961462588e+01     0.370492    0.1414311 -49.43  0.001199717    2.765    0.638
        70 -10.6395     13.3494    108.8810   7.7287719690e+01   5.2954258855e+01    0.4502238     0.177179 -81.00  0.001763486    2.383    0.580
        71 -11.7364    128.7822    101.8004   3.3504215932e+01   3.6384114856e+01    0.4931511    0.3382501 -73.28  0.001994528    2.090    0.521
        72 -11.0899     20.3767     98.8703   7.3223016845e+01   5.5173531010e+01    0.7123853    0.2682767  77.58  0.002122376    4.392    0.772
        73 -10.9502      6.0812    101.9501   7.9671636286e+01   5.5224774755e+01    0.2636502    0.1714151 -72.97  0.001368708    1.381    0.276
        74 -11.3092     42.8059     99.1132   6.3499856183e+01   5.2956622769e+01    0.4484142    0.2075336 -81.13  0.001574957    2.800    0.643
        75 -10.3233    107.4672     98.5072   3.8817620952e+01   4.1868910962e+01    0.1608855    0.1536289  68.66 9.874434e-05    1.042    0.040
        76 -11.4920     94.7632     95.1045   4.2041499682e+01   4.5367167625e+01      0.69798    0.3363066 -51.91  0.002555683    2.152    0.535
        77 -11.6859     34.9573     86.6973   6.4577904757e+01   5.7160632148e+01    0.9549242    0.3317935 -65.27  0.003384512    2.621    0.618
        78 -11.6518      4.7995     89.8723   7.9187837713e+01   5.8507788055e+01    0.5821919    0.3095269  89.69  0.002712141    1.795    0.443
        79 -12.0463    124.6516     88.7220   3.0893783148e+01   4.0112453285e+01    0.7418662    0.3574098 -37.00  0.002665722    2.318    0.569
        80 -11.6948     86.5281     86.4253   4.2442446258e+01   4.9124128421e+01    0.6851912    0.4617326 -87.99  0.002626164    2.391    0.582
        81 -11.6001     48.1745     83.6871   5.7708334796e+01   5.6377539732e+01    0.6882669    0.3847536  77.23   0.00237961    3.224    0.690
        82 -11.9041    104.3956     81.7211   3.4785923718e+01   4.6330278476e+01    0.6690809    0.3746882 -55.85  0.002555412    2.068    0.516
        83 -11.9649     25.0334     75.7299   6.7259295765e+01   6.1010981637e+01     1.124968    0.3193795 -53.47  0.003869893    2.933    0.659
        84 -11.6478    119.0390     79.3377   2.9579847695e+01   4.3393619210e+01    0.3724166    0.2182472 -51.37  0.001484536    1.845    0.458
        85 -10.9730     74.0000     76.9942   4.4400264678e+01   5.3840510467e+01    0.3641584    0.2046993 -43.05  0.001457685    1.883    0.469
        86 -10.3037      8.8272     79.9998   7.6208685180e+01   6.0949617965e+01    0.2403636    0.1330385  65.65  0.001087398    2.025    0.506
        87 -10.8187    167.4980     77.4973   1.7831123250e+01   3.1912797308e+01    0.1484494    0.1401576 -64.52 0.0002494623    1.017    0.016
        88 -12.0309    128.2856     75.8351   2.5950167911e+01   4.1835468767e+01    0.4583496    0.2736023 -59.81  0.001770313    2.138    0.532
        89 -12.0763     82.6410     72.9326   3.9602674339e+01   5.3060380296e+01    0.6815155    0.4268031 -77.31  0.002432461    2.841    0.648
        90 -11.5143     62.4883     73.4738   4.8237735292e+01   5.6772344203e+01    0.3963135    0.2123629 -54.76  0.001463869    1.880    0.468
        91 -11.3988     95.2588     71.0376   3.4309576362e+01   5.0725791327e+01    0.6075402    0.2917707 -57.53  0.002022679    2.865    0.651
        92 -10.7950    240.3389     72.6753   6.6320553983e+00   1.7196450546e+01    0.1302712   0.07860857 -56.70 0.0007051253    1.724    0.420
        93 -11.4914    118.3654     69.7704   2.6643274075e+01   4.5468453181e+01    0.3891416    0.2126312  55.33 0.0002624704    1.813    0.449
        94 -11.2474    105.9138     71.2160   3.0837790506e+01   4.8207386159e+01    0.3949288    0.2225772 -53.15   0.00141305    2.009    0.502
        95 -10.8623     42.6115     70.5008   5.6905332635e+01   6.0499742848e+01    0.4732216    0.1851113 -53.29  0.001756744    2.340    0.573
        96 -11.3459     51.1935     68.2197   5.1904307061e+01   5.9873272139e+01    0.7796044    0.3142143 -67.18  0.002398073    3.733    0.732
        97 -10.8480    166.5421     70.2391   1.5944026083e+01   3.3355972152e+01    0.1985792    0.1444067 -21.13 0.0004031169    1.604    0.376
        98 -10.7213     16.4642     69.0243   7.0530205728e+01   6.3413044237e+01    0.3839506    0.1280645 -72.74  0.001380503    2.813    0.645
        99 -10.1436    154.5737     67.8103   1.7476012896e+01   3.6715859156e+01     0.215707    0.1940251 -61.37 0.0003953686    1.085    0.078
       100 -11.3805    121.7328     65.4865   2.4272590749e+01   4.5442574338e+01    0.5380288     0.176622 -40.14  0.001671662    3.074    0.675
       101 -10.2261      9.7663     64.0096   7.3401075062e+01   6.5100963191e+01    0.1904866    0.1042362 -73.79 0.0008927055    1.677    0.404
       102 -11.5323    236.9519     63.5079   4.9383988532e+00   1.9018044176e+01    0.1685556    0.1221393  69.72  0.001041377    1.616    0.381
       103 -11.1215     37.1351     61.5526   5.7192464743e+01   6.3422965515e+01    0.6876894    0.1794686 -52.46  0.002218682    3.232    0.691
       104 -11.4340     73.1102     56.4198   3.7451547067e+01   5.8656890534e+01    0.8345642    0.2474919 -43.70  0.002513509    3.523    0.716
       105 -10.6173    131.3910     57.6825   1.9191772569e+01   4.4360424770e+01     0.298807    0.1419231 -40.48 0.0009058095    2.112    0.527
       106 -11.5366     22.4807     54.0620   6.3601917911e+01   6.6789900657e+01    0.5266526    0.3384187 -83.37  0.002534398    1.839    0.456
       107 -10.7616      7.2383     53.7653   7.3104641342e+01   6.7840710535e+01    0.5323165          nan -68.22   0.00132677    6.145    0.837
       108 -11.3456    159.1435     54.8332   1.2672947256e+01   3.7650020947e+01    0.2356124    0.1951324 -70.52  0.000639571    1.203    0.169
       109 -10.3293     86.7238     53.6393   3.0901654775e+01   5.6241420234e+01    0.4452087    0.1865323 -31.11  0.001376002    3.500    0.714
       110 -11.3827     62.7540     52.0879   4.0391011778e+01   6.1628705039e+01     0.823898    0.2029617 -47.95  0.002327723    4.162    0.760
       111 -10.1312     92.0000     50.4861   2.7735140050e+01   5.5598339574e+01     0.327868   0.08933416 -39.11 0.0009254729    3.860    0.741
       112 -11.4469     27.9981     45.9995   5.7576941419e+01   6.8221737413e+01    0.3264752     0.234876 -22.94  0.001154792    1.453    0.312
       113 -10.2934     28.4679     42.4702   5.5982911106e+01   6.8995520917e+01    0.2387019    0.1939412  13.38 0.0005545735    1.234    0.190
       114 -10.7195     44.6659     43.5267   4.6313773605e+01   6.6601404467e+01    0.2597726    0.1308945 -51.10   0.00109426    1.997    0.499
       115 -11.0082     53.8373     52.7890   4.5103305762e+01   6.3076982453e+01    0.6095307    0.2327938 -59.78  0.001870307    3.873    0.742
       116 -10.2032    238.4818     42.4955   1.2331937077e-01   2.1346915804e+01     0.122565   0.09844796 -48.21 4.972268e-05    1.018    0.017
       117 -10.8329    184.4926     41.4919   5.0701821015e+00   3.3221219385e+01    0.1399907    0.1242387 -65.38 2.709547e-05    1.005    0.005
       118 -10.1241     69.6370     41.3172   3.2533313324e+01   6.2395811753e+01    0.1516351    0.1194963  85.51 0.0007041288    1.768    0.434
       119 -10.9402     36.7335     39.8683   4.9552850187e+01   6.8558742845e+01    0.3791355    0.2536079 -55.86  0.001896261    1.558    0.358
       120 -10.3773     38.4922     35.4811   4.6454850982e+01   6.9248511707e+01    0.2569262    0.1791695 -14.69 0.0009071303    1.684    0.406
       121 -11.5953    246.8028     37.3993   3.5840655352e+02   2.0373365388e+01    0.1457543    0.1060184  62.66 0.0009531594    1.685    0.406
       122 -11.1717    122.9008     36.6508   1.3538086087e+01   4.9899526680e+01    0.2467205    0.2168469 -11.19  0.000666883    1.331    0.249
       123 -10.0161     80.6092     35.7860   2.5463369941e+01   6.0890633874e+01    0.2074474    0.1396882 -46.33 0.0009512716    1.637    0.389
       124 -10.9586     26.9715     30.5837   5.2037593926e+01   7.1815132414e+01    0.7065343    0.1512697 -43.71  0.002023284    4.886    0.795
       125 -11.0130    176.5740     33.2441   3.6650018894e+00   3.6224929765e+01    0.2465982    0.1826701  78.85 0.0003333312    1.307    0.235
       126  -9.8147     89.0000     32.9506   2.1174837565e+01   5.9299567279e+01    0.2405867   0.08694971 -33.25 0.0008075298    2.978    0.664
       127 -10.3311     12.7655     27.4145   6.1792855405e+01   7.3874331035e+01    0.3855537    0.1096712 -65.66  0.001330414    3.720    0.731
