#   1 NUMBER                 Running object number                                     
#   2 MAG_AUTO               Kron-like elliptical aperture magnitude                    [mag]
#   3 X_IMAGE                Object position along x                                    [pixel]
#   4 Y_IMAGE                Object position along y                                    [pixel]
#   5 X_WORLD                Barycenter position along world x axis                     [deg]
#   6 Y_WORLD                Barycenter position along world y axis                     [deg]
#   7 A_WORLD                Profile RMS along major axis (world units)                 [deg]
#   8 B_WORLD                Profile RMS along minor axis (world units)                 [deg]
#   9 THETA_WORLD            Position angle (CCW/world-x)                               [deg]
#  10 FWHM_WORLD             FWHM assuming a gaussian core                              [deg]
#  11 ELONGATION             A_IMAGE/B_IMAGE                                           
#  12 ELLIPTICITY            1 - B_IMAGE/A_IMAGE                                       
         1 -10.9187     62.8853     52.0575   6.5089055852e+01   5.9919291735e+01    0.5026934   0.08523054 -43.41  0.001276346    5.907    0.831
         2 -10.2842     40.8776     13.9219   5.7381920534e+01   6.9638357896e+01    0.1902622    0.1428701  12.93 0.0003002961    1.217    0.178
         3 -11.7257    162.5965    225.0727   7.7705452283e+01   4.9598022904e+00    0.3879576     0.244049  19.67  0.001439696    1.502    0.334
         4 -10.3807     99.4846    224.9870   9.1726590536e+01   1.3647286250e+01    0.2038142    0.1622434  32.91 0.0006117526    1.125    0.111
         5 -10.9571    126.1198    220.5817   8.5017661384e+01   1.0862550904e+01    0.1999542    0.1867249 -81.46 0.0005880437    1.296    0.228
         6 -10.4281     74.9969    219.2990   9.6819024532e+01   1.8039070623e+01    0.1922033    0.1576458  38.76  0.001013494    1.106    0.096
         7 -10.1631    143.7614    216.9519   8.0512905711e+01   9.0614530692e+00    0.1689731    0.1095926 -45.84 0.0008833585    1.624    0.384
         8 -10.2836    185.8474    213.9895   7.1162916843e+01   3.7083488902e+00    0.1843204    0.1529026 -68.33  0.001077386    1.955    0.489
         9 -10.2379     99.6559    206.3301   8.9267253246e+01   1.7573652910e+01    0.1459086   0.09971283  61.09 0.0007050699    1.752    0.429
        10 -11.4708    185.8694    203.5999   6.9374138922e+01   5.4923833085e+00    0.2502973    0.1740251 -55.47  0.001332972    1.935    0.483
        11  -9.9674    198.3518    203.6820   6.6950707651e+01   3.7508668471e+00    0.1136998    0.1053391  77.01 0.0004329621    1.740    0.425
        12 -11.8632    165.0214    201.7469   7.3368619044e+01   8.8458368929e+00    0.4544317    0.3158853 -63.65   0.00227757    2.108    0.526
        13 -11.3278    177.8573    198.1130   7.0028170477e+01   7.6261678826e+00    0.1926892    0.1896358  -2.73  0.001237773    1.293    0.227
        14 -10.7210    113.1835    197.7895   8.4694273477e+01   1.7486133215e+01    0.2423794    0.1434254  65.21 0.0009519377    2.846    0.649
        15 -11.1947    125.3113    197.5090   8.1699578728e+01   1.5715732660e+01     0.304481    0.1362256  27.56  0.001195388    2.355    0.575
        16 -11.2622    172.7493    195.5899   7.0638906037e+01   8.8505769110e+00    0.1822489    0.1226772  40.59 0.0009437591    1.626    0.385
        17 -12.2383    163.2333    194.2698   7.2436072641e+01   1.0543710312e+01    0.4484268    0.2557589  54.14  0.001867391    2.834    0.647
        18 -10.6044    172.9619    190.9781   6.9755962305e+01   9.6873806299e+00    0.2031748    0.1763603  80.02  0.001137069    1.749    0.428
        19 -10.8424    139.1402    189.2909   7.7009020441e+01   1.5315283090e+01    0.2608323    0.1945975 -86.16  0.001231446    2.117    0.528
        20 -10.3916    129.6477    188.3310   7.9111486736e+01   1.7023801182e+01    0.1466495    0.1117164  67.29 0.0007046802    1.777    0.437
        21 -12.6046     94.7641    184.4015   8.7299516969e+01   2.3298636112e+01    0.6822356      0.45242  74.89  0.003018624    2.130    0.530
        22 -11.0900    120.5914    185.3305   8.0821333588e+01   1.9118743271e+01    0.2828214    0.1440827 -59.70   0.00114668    2.248    0.555
        23 -11.2043    110.6135    185.3445   8.3342457465e+01   2.0676644962e+01    0.2920572    0.2555235 -13.87  0.001119272    1.225    0.184
        24 -10.8122    204.0123    184.0019   6.2289509667e+01   6.3252846537e+00    0.1898782    0.1666198 -70.57   0.00113778    1.725    0.420
        25 -10.4655     74.5099    183.9934   9.2632391345e+01   2.6265149813e+01     0.204611    0.1189965  82.10 0.0008101326    2.540    0.606
        26 -10.7290    174.3773    182.9019   6.7948441384e+01   1.1011494567e+01     0.270437    0.2023198 -69.13  0.001321101    2.056    0.514
        27 -10.3124    197.4293    182.2360   6.3195282881e+01   7.6016937845e+00    0.1833381    0.1185787 -47.88 0.0009454614    1.663    0.399
        28 -11.1528    244.1568    180.8914   5.4895325087e+01   1.4172797870e+00    0.2232714    0.1189905 -41.22  0.001230932    1.678    0.404
        29 -10.8134    148.0113    179.9986   7.3233352948e+01   1.5847437351e+01     0.222783    0.1821491  74.40  0.001134355    1.725    0.420
        30 -11.5983     78.1264    175.6333   9.0440547035e+01   2.7831747181e+01    0.3242872    0.2200931  73.27  0.001484555    1.840    0.456
        31 -10.3597    183.3988    175.2090   6.4597293504e+01   1.1055418071e+01    0.1966281    0.1244254 -50.19 0.0009535563    1.715    0.417
        32 -10.8263    134.8799    171.7286   7.4793464677e+01   1.9828201693e+01    0.2751198    0.2023719 -85.63  0.001233733    2.098    0.523
        33 -11.0008    176.9538    170.2885   6.4945619301e+01   1.3046716228e+01    0.3175141    0.1889575 -50.37  0.001476564    1.792    0.442
        34 -11.9401    121.9344    168.7933   7.7484987705e+01   2.2676558761e+01      0.49616    0.3588873 -89.47   0.00219824    2.082    0.520
        35 -10.4482    206.3943    169.1787   5.8988683467e+01   8.5767452190e+00     0.192719    0.1135221 -47.53 0.0009493347    1.752    0.429
        36 -10.3634    168.3982    169.1636   6.6535229618e+01   1.4692917604e+01    0.2032487    0.1311084 -53.96 0.0009457798    1.749    0.428
        37 -11.5614    139.6945    165.0026   7.2290041257e+01   2.0499357720e+01    0.4022342    0.2837714  72.75  0.001721899    2.314    0.568
        38 -11.1649     99.2111    165.9347   8.3006332156e+01   2.7081338215e+01    0.3284452    0.1678897  54.88  0.001187583    2.696    0.629
        39 -10.2069    192.2433    165.2425   6.0855065424e+01   1.1515623321e+01    0.2205352    0.1044401 -50.98 0.0008893322    2.447    0.591
        40 -11.1143     80.0227    163.8666   8.8042841667e+01   3.0519583826e+01    0.4939626    0.2681109  74.50   0.00160795    3.701    0.730
        41 -12.1241    213.6662    163.6333   5.6597039072e+01   8.4468904392e+00    0.2522575    0.2166848 -37.84  0.001058101    1.190    0.160
        42 -11.4665    205.7812    161.7191   5.7610314467e+01   1.0002211800e+01    0.2803816    0.1699577 -47.54  0.001405403    1.670    0.401
        43 -10.6725    177.8631    160.3777   6.2733384843e+01   1.4843116009e+01    0.2676556    0.1921957 -64.54  0.001281507    1.929    0.482
        44 -11.2791     93.2489    160.0245   8.3596642774e+01   2.9486044314e+01    0.3452881    0.2409095  81.40  0.001497561    1.988    0.497
        45 -10.2838    128.4954    158.9823   7.3861482749e+01   2.3819397051e+01    0.2082683    0.1366909 -77.89 0.0008098215    2.488    0.598
        46 -11.1245    197.1431    157.1318   5.8261125972e+01   1.2228004716e+01      0.33424    0.2084193 -50.05  0.001630253    1.696    0.411
        47 -10.8851    189.2300    157.5554   5.9862002440e+01   1.3464001457e+01    0.2580027    0.2086057  70.36   0.00136728    1.826    0.452
        48 -10.9137    105.8322    157.7688   7.9648067149e+01   2.8002706135e+01    0.2945843    0.2060134  89.72  0.001244765    2.095    0.523
        49 -10.7778    168.1751    157.2141   6.4117715544e+01   1.7159447539e+01    0.1957901    0.1781919 -79.51  0.001079406    1.377    0.274
        50 -11.1611    119.6453    154.8806   7.5324808613e+01   2.6332196269e+01    0.3681019    0.2402698 -85.94  0.001383212    2.762    0.638
        51 -11.0345     81.8383    154.3404   8.5861474160e+01   3.2680272102e+01    0.3818444    0.2296667  59.49  0.001552048    2.149    0.535
        52 -10.7374     49.9770    155.1550   9.5578647935e+01   3.6740582339e+01    0.2586238     0.143261  55.82  0.001085619    2.086    0.521
        53 -11.0005    204.5318    153.9977   5.6257945764e+01   1.1594786913e+01    0.2131747     0.118481 -39.73  0.000805499    1.571    0.364
        54 -10.2114    144.9881    154.5046   6.8830698411e+01   2.1885109972e+01    0.2086881    0.1285686  61.06 0.0008099727    2.511    0.602
        55 -11.2210    133.5188    152.7545   7.1282918352e+01   2.4353595642e+01    0.3673441    0.2660611  69.78  0.001616542    1.998    0.500
        56 -11.2165     67.9681    153.0273   8.9781220238e+01   3.5013001557e+01    0.2512229    0.1744046  68.04  0.001142077    1.728    0.421
        57 -11.6766    189.8509    149.3116   5.8002284981e+01   1.4930956411e+01    0.4785955    0.2713589 -53.50  0.001687521    2.048    0.512
        58 -10.8285    248.6757    150.3473   4.8494324504e+01   5.5782513490e+00    0.1190718   0.08645614 -56.37 0.0007049706    1.745    0.427
        59 -10.0479    182.3375    150.6663   5.9769136239e+01   1.5978615605e+01    0.1396347    0.1139719 -78.72 0.0007051917    1.744    0.427
        60 -10.1924     98.4997    150.5063   8.0276190507e+01   3.1014791224e+01    0.1513565    0.1477835 -86.95 0.0003171662    1.049    0.047
        61 -11.1341    200.2654    148.0804   5.5791941006e+01   1.3383083036e+01    0.3068638    0.1949662 -56.39  0.001463248    1.944    0.486
        62 -12.0137    107.6419    145.0398   7.6545362067e+01   3.0807709987e+01    0.6307114    0.3833138  72.59  0.002157151    3.261    0.693
        63 -11.5731     56.1862    145.4780   9.2168616700e+01   3.8543544872e+01    0.5187061    0.2756312  68.39  0.001858323    2.995    0.666
        64 -10.8870     39.1728    147.0278   9.7774133905e+01   4.0089822216e+01     0.252597    0.1500464  74.49  0.001086776    2.064    0.516
        65 -12.0030    149.2979    144.4817   6.5610384546e+01   2.3290409470e+01    0.5804871    0.3959269 -84.47  0.002258225    2.790    0.642
        66 -10.4241    166.0123    143.9934   6.1715165672e+01   2.0271262816e+01    0.2310572    0.1861574 -82.17  0.001134417    1.734    0.423
        67 -11.9278    125.0573    142.3480   7.1195963000e+01   2.8309961666e+01    0.5690503     0.359901 -81.09  0.002016914    3.064    0.674
        68 -11.3307     87.9855    143.2744   8.1910048576e+01   3.4553863290e+01    0.3520874    0.2191166 -68.05  0.001482241    1.798    0.444
        69 -10.3941    172.7609    138.1755   5.8973651631e+01   2.0201245339e+01    0.2396478    0.1640772 -81.88  0.000954264    2.813    0.645
        70 -11.0343     23.1365    137.4255   1.0164694297e+02   4.4162523578e+01    0.4068589    0.1755647  69.72  0.001343885    3.799    0.737
        71  -9.6534    234.7009    147.6595   5.0001383460e+01   8.0018262756e+00    0.1297562   0.08718194 -14.27 0.0007035172    1.666    0.400
        72 -10.6136    162.5034    135.9846   6.0665430608e+01   2.2595033938e+01    0.2105755    0.1272734 -64.54 0.0008097887    2.499    0.600
        73 -11.1285    249.0000    134.9920   4.5469602318e+01   7.9496521291e+00    0.2154906   0.05632323 -38.83 0.0008088988    2.987    0.665
        74 -10.4792    179.6872    133.5452   5.6514534778e+01   1.9824100629e+01    0.2602677    0.1695414 -57.97  0.001186898    1.820    0.451
        75 -10.8219    113.1934    133.1194   7.2325346342e+01   3.2697650376e+01    0.3084445     0.205714  64.77  0.001252504    2.118    0.528
        76 -10.9045    143.1374    131.0806   6.3989720216e+01   2.7411991105e+01    0.3737233    0.2508094 -58.27  0.001517537    1.664    0.399
        77 -11.5005    132.0119    130.7366   6.6691550904e+01   2.9667516009e+01    0.5120708    0.2985528 -64.17  0.001938629    2.374    0.579
        78 -11.9713     83.2880    130.6421   8.0705238953e+01   3.8532201701e+01    0.5873669    0.3193895 -68.27   0.00222687    2.251    0.556
        79 -10.9745    152.9362    128.7824   6.1123697051e+01   2.5975958685e+01    0.4417956    0.2023257 -55.44  0.001523914    2.773    0.639
        80 -10.8372    168.6614    129.3297   5.7794358373e+01   2.2773427123e+01    0.2316608    0.1802118 -77.42  0.001113009    1.748    0.428
        81 -11.9859     98.7456    126.8797   7.5072146843e+01   3.6846244074e+01    0.7239238    0.3992324 -71.13  0.002497521    2.875    0.652
        82 -10.8723     72.8722    128.5579   8.3607608004e+01   4.0691761509e+01    0.3196436    0.2079457 -80.49  0.001331378    1.986    0.497
        83 -10.8678     12.4056    128.6045   1.0413485831e+02   4.7326402212e+01    0.2817453    0.1114735  88.11 0.0009563746    3.393    0.705
        84 -11.3772    117.9660    125.1439   6.9090033001e+01   3.3685073375e+01    0.4866312    0.3176977  73.58  0.001818915    2.670    0.625
        85 -11.3613     59.3707    123.7289   8.7131638498e+01   4.3872787891e+01    0.5870777    0.3309112  83.98  0.001990558    3.377    0.704
        86 -10.3969    180.1384    124.2902   5.4292582952e+01   2.1546333487e+01     0.285043    0.1782794 -61.63   0.00122903    2.113    0.527
        87 -11.4941     28.3667    121.8843   9.7682858539e+01   4.7844696271e+01    0.6321638     0.280881  77.56  0.001815296    5.056    0.802
        88 -11.7814     43.3873    121.5695   9.2293649334e+01   4.6411361816e+01    0.7819094    0.3854762 -88.11  0.002605321    3.472    0.712
        89 -10.0036    172.5044    120.9834   5.5025161647e+01   2.3689342740e+01    0.2142633     0.119703 -60.65 0.0008101315    2.554    0.608
        90 -10.5746    158.6896    120.7452   5.7882947368e+01   2.6508023240e+01    0.3097448    0.1745964 -60.67  0.001176324    2.451    0.592
        91 -11.4391    141.7939    118.5570   6.1246486880e+01   3.0412216957e+01    0.5233936    0.3044688 -62.32  0.001999734    2.360    0.576
        92 -10.5871     71.1781    119.7651   8.2250257518e+01   4.3212987313e+01    0.2576882    0.1580213  70.99 0.0009438065    2.756    0.637
        93 -11.2843    130.6196    118.0009   6.3909265528e+01   3.2810685325e+01    0.4030184    0.2607205 -69.94  0.001586535    2.279    0.561
        94 -10.9309      2.6092    115.8837   1.0605610102e+02   5.1273241447e+01    0.4469336    0.1491655  88.52  0.001344855    4.570    0.781
        95 -10.1804    193.0000    114.9865   4.9749184978e+01   2.0819528241e+01    0.2415087   0.07267833 -40.24 0.0008029432    2.946    0.661
        96 -10.0231    186.2922    115.6531   5.1104678354e+01   2.1996714684e+01    0.1452612    0.1068195 -66.49 0.0004775489    1.665    0.399
        97 -11.6247    108.7838    112.7119   6.8559835165e+01   3.8369815328e+01    0.6832724    0.3214357 -60.88  0.002226542    3.028    0.670
        98 -11.5835     78.7525    111.5668   7.7742208217e+01   4.4084926256e+01    0.6627555    0.3601966 -75.12  0.002182299    3.325    0.699
        99 -11.6719     92.3769    110.7009   7.3049179799e+01   4.1935940294e+01    0.7948415    0.3475184 -60.63  0.002581397    3.000    0.667
       100 -10.3224    159.4748    111.5213   5.5419764887e+01   2.8224775472e+01    0.2798112    0.1308707 -51.53  0.001032034    2.330    0.571
       101 -10.9216    122.0169    111.7738   6.4579624784e+01   3.5947706671e+01    0.2986225    0.1993682 -59.39  0.001104075    1.686    0.407
       102 -10.1534    174.5342    111.0456   5.2217511702e+01   2.5217442840e+01    0.2174689    0.1154517 -59.02  0.000809579    2.606    0.616
       103 -11.3427     66.5978    110.2436   8.1622281101e+01   4.6327024022e+01    0.3443148    0.1977858 -72.80  0.001332958    2.302    0.566
       104 -11.1718     14.0466    109.6526   1.0105306235e+02   5.2209800383e+01    0.4268131    0.2080153 -88.38  0.001740601    2.442    0.591
       105 -10.3530    133.3920    109.1878   6.0911203968e+01   3.4169278301e+01    0.2290791    0.1406305 -54.59 0.0009505448    1.750    0.428
       106 -10.2928    189.4846    107.9698   4.8715899384e+01   2.2788070385e+01    0.2104724    0.1076842 -57.23 0.0008101611    2.558    0.609
       107 -10.8923    139.8004    104.0915   5.7969877738e+01   3.3893410338e+01    0.4083434    0.1959824 -52.42  0.001499332    2.316    0.568
       108 -11.3228    150.1387    101.7477   5.4942033606e+01   3.2157392271e+01    0.5433878    0.1834106 -49.46  0.001664419    3.356    0.702
       109 -12.1423     45.1436    101.5134   8.7531858185e+01   5.1430598075e+01    0.6991882    0.3901318  73.78  0.002359938    3.806    0.737
       110 -11.8048     21.8675    100.3814   9.6489710969e+01   5.4041931661e+01    0.8894839    0.4114958  87.44  0.002928447    4.014    0.751
       111 -10.0153    166.6562    103.3318   5.1851254521e+01   2.8329436711e+01    0.1532663    0.1134117 -74.97 0.0007050608    1.756    0.430
       112 -11.3301    128.4501    101.6369   6.0140654406e+01   3.6822423066e+01    0.3420421    0.2469761 -76.64  0.001474527    1.956    0.489
       113  -9.7486    175.6727    101.3402   4.9600194954e+01   2.6815782093e+01    0.1508982     0.109256 -70.82 0.0007051522    1.734    0.423
       114 -11.6346    108.8410     97.7031   6.4444961568e+01   4.1758597922e+01    0.7265548    0.4524187 -70.77  0.002717226    2.621    0.618
       115 -10.7089     81.8807     99.7383   7.3582825208e+01   4.6427840000e+01    0.2938168    0.2080644 -82.66  0.001239284    2.101    0.524
       116 -11.2410     94.8163     95.7289   6.8173786455e+01   4.4978607587e+01    0.4255881    0.2000261 -50.94  0.001590714    2.155    0.536
       117 -11.7730     63.4056     94.9477   7.8897516671e+01   5.0597047130e+01    0.5615388     0.314703 -75.02  0.002003342    3.034    0.670
       118 -10.7650    138.7785     91.3334   5.4711753631e+01   3.6694480809e+01     0.378949    0.1910933 -54.13  0.001414935    2.357    0.576
       119 -10.1438     57.9994     92.0338   8.0171435940e+01   5.2099500115e+01    0.1737885    0.1647568 -18.74            0    1.042    0.041
       120 -12.1261    124.3395     89.6294   5.7812755022e+01   4.0195478297e+01    0.5030528    0.2467652 -53.62  0.001845523    2.415    0.586
       121 -11.0233      4.3886     90.5864   1.0196258483e+02   5.7705334022e+01    0.2649539    0.1116954 -89.51 0.0009564749    3.344    0.701
       122 -11.3484     86.2789     85.8598   6.8055591385e+01   4.8802778506e+01    0.4307404    0.2711222 -70.41  0.001672923    2.543    0.607
       123 -11.5073     48.2097     83.6422   8.1784580979e+01   5.5458110432e+01    0.3871903    0.2589217 -89.01  0.001647338    2.469    0.595
       124 -11.7067    104.3871     82.3332   6.1193764510e+01   4.5944480424e+01    0.4917306    0.2700868 -56.37  0.001913593    2.259    0.557
       125 -10.7611    140.5800     82.2964   5.1722307537e+01   3.8023758876e+01    0.2938002    0.1360187 -44.25  0.001131898    2.109    0.526
       126  -9.9823    158.6623     82.3412   4.7910273892e+01   3.3960142013e+01    0.1548181    0.1099893 -72.36 0.0007050233    1.765    0.433
       127 -11.5252     24.1741     78.2824   9.0821568728e+01   5.9389806354e+01    0.7245505     0.213903 -64.34  0.002438118    3.355    0.702
       128 -10.7765     74.4259     79.7357   7.0327900737e+01   5.2306160617e+01    0.2947318    0.1430641 -53.23  0.001140863    2.204    0.546
       129 -10.3519    150.2259     79.2787   4.8767221722e+01   3.6400262181e+01    0.2401511    0.1040863 -47.58 0.0008847602    2.373    0.579
       130 -11.0677    127.9045     74.1549   5.2285787432e+01   4.2383866339e+01    0.4930137    0.1865596 -46.05  0.001701904    2.762    0.638
       131 -11.8089     82.1641     71.2053   6.4768214595e+01   5.2676377896e+01    0.5939334    0.2522984 -52.67  0.002083549    2.899    0.655
       132 -11.6244     62.5595     70.6656   7.1927072818e+01   5.6279499400e+01    0.5664889    0.1202695 -46.15   0.00157865    4.382    0.772
       133 -10.9419     94.8389     69.8084   6.0085632545e+01   5.0420649376e+01    0.4650558    0.1853034 -52.04  0.001507674    3.372    0.703
       134 -11.4474     50.9490     67.4505   7.5680714742e+01   5.8759686017e+01    0.5591771     0.212407 -58.82  0.001822409    3.711    0.731
       135 -11.3514     34.6564     88.2247   8.8656026061e+01   5.5943276783e+01    0.6187363    0.2502482 -67.49  0.002245271    2.811    0.644
       136 -10.5236    146.9843     66.8628   4.5861079072e+01   3.9279665273e+01    0.2973881     0.145306 -42.43  0.001230642    1.984    0.496
       137 -10.7561    138.4992     65.5085   4.7222487058e+01   4.1465778033e+01    0.2721813    0.1218491 -47.22  0.001036941    2.359    0.576
       138 -10.3815    121.4012     65.2169   5.1088981338e+01   4.5447202773e+01    0.2139883    0.1323992 -48.55 0.0008154198    1.708    0.414
       139 -10.4898    109.6228     62.7978   5.3369968017e+01   4.8521740424e+01    0.2144779     0.132313 -48.01 0.0009554501    1.735    0.423
       140 -10.7965     37.2373     63.2596   8.0477291868e+01   6.1496888430e+01    0.2127813    0.1145314 -64.81 0.0008920207    2.415    0.586
       141 -10.5382    100.3761     59.5716   5.4889439072e+01   5.1118984300e+01    0.2890623    0.1164664 -50.29 0.0009562091    3.332    0.700
       142 -10.9718     73.0064     57.5718   6.3252415518e+01   5.7059661799e+01    0.5355168    0.1875444 -48.66  0.001791778    3.411    0.707
       143 -12.3615      7.3862     54.1194   9.2840168077e+01   6.6289331129e+01    0.6047094    0.1118043 -61.01  0.001983299    4.013    0.751
       144 -10.8215    192.0270    225.9754   7.1923943978e+01   9.4004719572e-01    0.1947393    0.1540435  -3.64 0.0007117481    1.039    0.037
       145 -10.6326     30.8446     51.0059   7.9393450117e+01   6.4851259200e+01    0.2031812    0.1598995 -86.52  0.001084232    2.010    0.502
       146 -10.9535     92.0040     48.7507   5.3495347962e+01   5.4735516474e+01    0.4124468    0.1737765 -43.88  0.001592334    2.600    0.615
       147 -10.7718     53.4446     51.6202   6.8893106855e+01   6.1590524780e+01    0.4171524    0.1315373 -53.32  0.001148743    5.573    0.821
       148 -10.3083    119.3056     55.6480   4.8480886184e+01   4.7518628912e+01     0.148671    0.1104446 -71.78 0.0007041717    1.709    0.415
       149 -10.6491     58.2372     42.2351   6.3041745863e+01   6.2464479424e+01     0.209916    0.1067902 -49.68 0.0008243678    2.458    0.593
       150 -11.9140      4.7922     40.0094   9.0044246210e+01   6.9499733374e+01    0.4544559    0.1699087 -67.72  0.001739325    3.661    0.727
       151 -10.0175    113.7229     41.6189   4.5027823420e+01   5.0911787889e+01    0.1427681    0.1052546  18.81 0.0007003576    1.712    0.416
       152 -11.1031     45.2259     49.2193   7.1673301475e+01   6.3310477042e+01    0.2524386    0.1984471 -16.32 0.0004389528    1.224    0.183
       153 -11.2346     27.3252     29.8551   7.2608975890e+01   6.9279058506e+01    0.3313479    0.0822338 -38.66  0.001090597    4.275    0.766
