#   1 NUMBER                 Running object number                                     
#   2 MAG_AUTO               Kron-like elliptical aperture magnitude                    [mag]
#   3 X_IMAGE                Object position along x                                    [pixel]
#   4 Y_IMAGE                Object position along y                                    [pixel]
#   5 X_WORLD                Barycenter position along world x axis                     [deg]
#   6 Y_WORLD                Barycenter position along world y axis                     [deg]
#   7 A_WORLD                Profile RMS along major axis (world units)                 [deg]
#   8 B_WORLD                Profile RMS along minor axis (world units)                 [deg]
#   9 THETA_WORLD            Position angle (CCW/world-x)                               [deg]
#  10 FWHM_WORLD             FWHM assuming a gaussian core                              [deg]
#  11 ELONGATION             A_IMAGE/B_IMAGE                                           
#  12 ELLIPTICITY            1 - B_IMAGE/A_IMAGE                                       
         1 -14.2515     68.6646    144.0760   1.0127877261e+02   3.7419327360e+01     4.632922      2.04063  62.00  0.002924054    5.573    0.821
         2 -13.3566    198.6235     41.4449   4.3099471594e+01   3.0643268003e+01     1.192156     1.083947 -32.30  0.003379198    1.234    0.190
         3 -13.7438    208.2792     31.7520   3.9556564648e+01   2.9650593896e+01     1.240453    0.8926334 -14.63  0.001527919    1.880    0.468
         4 -12.9011    233.2405      5.8100   3.1524740474e+01   2.7129460735e+01    0.8228828    0.5962077  89.98  0.005092071    1.213    0.175
         5  -9.4812     60.8231      7.6319   6.0972160466e+01   6.5820106842e+01    0.1596844     0.108191  52.57 0.0001667982    1.634    0.388
         6 -11.1598    184.4650    213.1941   8.5472511007e+01   2.5228933559e+00    0.3429144    0.2636662   4.10  0.001699594    1.320    0.242
         7 -10.3198    140.0279    249.9230   1.0017633945e+02   3.3228820241e+00    0.3972083    0.1530614  43.33  0.001776768    2.248    0.555
         8  -9.7257    128.7296    250.4326   1.0250486186e+02   4.9376249463e+00    0.2453486   0.09838907  40.14  0.001033002    2.031    0.508
         9 -13.8904     43.9027    197.0903   1.1471208409e+02   2.7648990406e+01     3.161568     1.180724  61.75  0.007288942    3.730    0.732
        10 -17.2656     14.7859    243.3286   1.2385108404e+02   2.1072626597e+01     5.792873     2.127867  27.20   0.01948404    3.768    0.735
        11 -16.3763      6.4016    205.5655   1.2335227217e+02   2.9584823549e+01     16.27863     1.018142 -75.80   0.01030461   10.224    0.902
        12 -11.1136    135.3651    212.6707   9.5916218073e+01   1.0832826016e+01    0.4023082    0.2341068  32.64  0.001645961    1.648    0.393
        13  -9.3819     89.9509    212.4585   1.0604849883e+02   1.8090895440e+01    0.2343462    0.1715086  85.43 0.0005403297    1.485    0.327
        14  -8.3343    224.1572    206.6195   7.6503889603e+01  -2.6748807328e+00    0.1692337    0.1079755  20.89 0.0001368942    1.538    0.350
        15 -11.1556    111.7020    204.4463   1.0001953406e+02   1.6432805946e+01    0.4517355    0.3071177  81.15 0.0008822868    1.982    0.495
        16 -10.9377    193.4668    195.5780   8.0404274488e+01   4.1177231323e+00    0.9928266    0.5370649 -64.07  0.002992282    5.860    0.829
        17  -9.5256     31.8386    203.5734   1.1794043338e+02   2.7531418038e+01    0.3236107    0.1796075  87.64  0.001741064    1.711    0.416
        18 -10.7100    107.5672    203.7150   1.0086542197e+02   1.7256418886e+01    0.5061072    0.2256684  54.51  0.001913953    2.806    0.644
        19 -10.7510     61.3985    198.7475   1.1090508836e+02   2.5119476668e+01    0.2925314    0.2327086 -61.70 0.0005575008    1.324    0.245
        20  -9.1693     66.3727    194.1667   1.0922088342e+02   2.5514167751e+01     0.232982    0.1776513  43.10 0.0007536941    1.286    0.223
        21  -9.9051    204.7779    199.4058   7.8860507131e+01   1.5537019299e+00    0.1918531     0.117854  24.98 0.0006146333    1.649    0.393
        22 -10.3230    112.8021    196.2983   9.8529088557e+01   1.8021882705e+01    0.4524679    0.2812233  -5.02  0.001613733    3.830    0.739
        23  -9.1324    120.7403    195.3571   9.6510982251e+01   1.6898174107e+01     0.242144     0.173573 -73.07 0.0006568998    1.658    0.397
        24  -8.4920     82.3963    194.7411   1.0550905324e+02   2.3132891900e+01    0.1846469     0.122303 -55.45 0.0009404228    1.570    0.363
        25  -8.1000     25.8638    194.6105   1.1850310417e+02   3.0169780847e+01    0.3798535    0.1143299  51.73   0.00127162    3.269    0.694
        26 -12.9694     55.6992    186.3003   1.1082297948e+02   2.8736596837e+01    0.8983312    0.6912524  58.96  0.005262447    1.221    0.181
        27 -10.4554     65.6981    179.3195   1.0751109322e+02   2.9105404640e+01    0.3795545    0.2794833  75.47 0.0008398272    1.377    0.274
        28  -9.3372    148.9779    187.4645   8.8547016709e+01   1.3614046326e+01    0.2255542    0.2001797 -43.17   0.00110914    1.172    0.147
        29  -8.9267     72.0831    188.0951   1.0710101425e+02   2.6148215011e+01    0.2113949    0.1447951  71.12 0.0005079787    1.544    0.352
        30 -11.0128    155.9620    217.7890   9.2235548969e+01   6.4208723855e+00     0.375883    0.2662312 -79.01  0.001830341    2.353    0.575
        31  -8.7351     80.7113    183.9208   1.0442483122e+02   2.5898320525e+01    0.2302984    0.1466992  76.91  0.001057001    1.929    0.482
        32  -8.9581     69.9580    183.8522   1.0706038956e+02   2.7443948712e+01    0.2085606    0.1605764  68.87 0.0004342379    1.270    0.212
        33  -9.6603     99.3785    180.7450   9.9310293311e+01   2.3761599914e+01     0.250272    0.2408856   8.01 0.0006301494    1.171    0.146
        34  -8.3886     90.4635    181.4599   1.0164331979e+02   2.5007612147e+01     0.141543    0.1312952  76.27 5.625329e-05    1.006    0.006
        35  -9.1770     42.9567    179.7845   1.1315223413e+02   3.1803186183e+01    0.1946077    0.1689137 -88.44 0.0003513703    1.046    0.044
        36  -9.7760     46.1242    176.8271   1.1204805350e+02   3.2150098349e+01    0.2769139    0.2433569 -71.71 0.0009217607    1.143    0.125
        37  -9.7160    188.2026    176.5092   7.7724154355e+01   8.5967933973e+00    0.3101408    0.3087376 -50.16  0.001729585    1.189    0.159
        38  -8.6972    148.5111    175.4823   8.6363191885e+01   1.6250453573e+01     0.250929    0.1475488 -50.24 0.0006381994    1.764    0.433
        39  -9.5150    146.5922    171.8172   8.6088140392e+01   1.7409324889e+01    0.2871474    0.2122478 -65.50 0.0007901869    1.621    0.383
        40 -13.2359     48.1384    107.8630   1.0060449079e+02   4.9052004038e+01     1.571182     1.175907 -78.90  0.006638847    1.460    0.315
        41 -12.3507     82.4865    159.5165   1.0014269165e+02   3.1549838160e+01     1.331946    0.7120922  65.19  0.004918605    2.912    0.657
        42 -13.0075     71.1832    154.2600   1.0233015590e+02   3.4512831696e+01    0.6133378    0.5214479 -48.00  0.001145617    1.219    0.180
        43 -11.5122    116.1364    245.7354   1.0448444549e+02   7.6364311161e+00    0.4982624     0.330511 -59.72  0.002935127    1.775    0.437
        44  -9.8072    240.2067    169.3710   6.6353522069e+01   8.3793295872e-01    0.1671305    0.1260147  47.36 0.0003344678    1.654    0.395
        45  -8.8424    185.4771    169.0570   7.6749541403e+01   1.0555906630e+01       0.2208     0.140054 -42.28 0.0009079681    1.553    0.356
        46  -8.7799    110.9797    168.0403   9.4171850160e+01   2.4806169579e+01    0.1802964    0.1690131 -67.63   0.00040799    1.062    0.059
        47  -8.4285     28.5508    168.4943   1.1547157645e+02   3.6036511451e+01    0.1306825    0.1074985  89.35 9.100384e-05    1.024    0.024
        48 -10.4069     33.8450    165.8210   1.1385948688e+02   3.6156877879e+01    0.4811856    0.2223846  49.85  0.001961222    2.241    0.554
        49  -8.7019    135.8606    165.3075   8.7372799721e+01   2.0896153394e+01    0.3112482    0.1265467  45.84  0.001079865    2.551    0.608
        50 -10.0627     33.4651    156.6038   1.1288785051e+02   3.8456821310e+01    0.4116599    0.2454151  56.24  0.002112306    1.777    0.437
        51 -11.4924     89.6539    152.3383   9.6898136789e+01   3.2206213893e+01    0.7296435    0.4741125 -28.84  0.003120575    2.144    0.533
        52 -11.2144     55.1636    147.0675   1.0562662293e+02   3.8430043650e+01    0.8231541    0.5678611 -63.22  0.004287694    1.300    0.231
        53 -10.5785    133.8204    144.9006   8.3510008231e+01   2.5980075897e+01     1.098984    0.3106592 -54.45  0.002752241    4.841    0.793
        54  -8.9735    111.1574    149.4671   9.0468137497e+01   2.9223256787e+01    0.3637066    0.2398394  72.67  0.001459214    2.266    0.559
        55  -8.9681    174.8354    149.2701   7.4719335251e+01   1.6664091046e+01    0.2339235    0.1937251  67.40 0.0005407791    1.480    0.324
        56  -8.3365    164.6270    149.3039   7.7025408281e+01   1.8741750928e+01    0.1566295    0.1240665  84.06 0.0007031073    1.759    0.431
        57 -10.0909     38.7310    146.2735   1.1012433008e+02   4.0488713322e+01    0.3182508    0.2316498  55.66 0.0007755582    1.455    0.313
        58 -10.1227    103.2342    138.3868   9.0274301967e+01   3.3340380384e+01     0.571072    0.3256876 -28.60  0.002069312    2.720    0.632
        59 -11.7310     90.5764    138.1090   9.3812596626e+01   3.5583481141e+01    0.2949771    0.2693209 -34.61 0.0003981325    1.146    0.127
        60 -10.0381    105.9170    130.8404   8.7814813902e+01   3.4686774946e+01    0.3715172    0.3206905 -69.45  0.001148001    1.211    0.174
        61  -9.8675    136.1123    129.4625   7.9277332666e+01   2.9062091977e+01    0.4204868    0.1663836 -47.73  0.001407127    2.498    0.600
        62 -10.8212     43.6027    129.7214   1.0618223107e+02   4.4126474289e+01    0.2984387    0.2276905  88.60 0.0008705739    1.378    0.274
        63  -9.8169    112.1200    129.4626   8.5741630324e+01   3.3857582866e+01    0.3394044    0.2766278  16.69 0.0009513885    1.418    0.295
        64 -10.3017     67.3862    126.2132   9.8245258534e+01   4.2081191880e+01    0.5359757    0.2160699 -50.22  0.002037314    2.255    0.557
        65  -9.3152    160.5985    126.8119   7.2605182138e+01   2.4420643358e+01    0.2308278    0.1447094 -52.98 0.0009528028    1.709    0.415
        66 -10.2863     99.2120    125.2762   8.8444942995e+01   3.7246558475e+01    0.3174532    0.2527553 -21.73 0.0008069242    1.467    0.318
        67  -8.9663     92.7139    125.1526   9.0332287700e+01   3.8412851309e+01    0.2234581    0.1975123 -80.24 0.0009108109    1.215    0.177
        68 -10.6223    118.7392    123.1344   8.2355588297e+01   3.4063487689e+01    0.5786094    0.3724143   5.39  0.002070899    2.879    0.653
        69 -11.4473     70.1613    172.5762   1.0544942035e+02   3.0129037269e+01    0.4553958    0.3130658 -29.94  0.002178367    2.068    0.516
        70  -9.1262    108.1085    118.3997   8.4174899763e+01   3.7245463615e+01    0.2366893    0.2016954 -37.28 0.0003541732    1.165    0.141
        71 -11.4213     74.0517    167.9874   1.0375963586e+02   3.0704182519e+01    0.3570769     0.318596 -15.96 0.0006314354    1.390    0.280
        72  -9.8741    231.3625    113.7326   5.5797690150e+01   1.1985081621e+01    0.2544129    0.2377778 -33.34 0.0007745296    1.070    0.065
        73  -9.3417    205.5323    110.1989   5.9255964835e+01   1.7915149777e+01    0.2469129    0.2105552  54.56 0.0006232755    1.272    0.214
        74 -10.6999    116.7328    109.1729   7.9297633775e+01   3.7675184968e+01    0.4423064     0.369157  37.72  0.002191358    1.231    0.187
        75  -8.6952     93.4271    179.4626   1.0059149827e+02   2.5015828737e+01    0.1435911    0.1309262  77.12 5.350605e-05    1.049    0.047
        76  -8.6838    194.0103    171.4963   7.5480286458e+01   8.4861864916e+00     0.211419    0.1395546  38.55 0.0009687133    1.537    0.349
        77  -9.1034    128.6317     95.8602   7.2303514406e+01   3.8056573701e+01    0.2893994    0.2236139  53.49 0.0006817867    1.365    0.268
        78  -9.6663     52.2030     90.1086   9.5036924202e+01   5.2800515751e+01    0.3369394    0.1628581  45.84  0.001381042    2.715    0.632
        79  -9.3180    156.4420     88.5961   6.3390365014e+01   3.3159476706e+01    0.3320405    0.2290572 -70.03 0.0008074514    1.995    0.499
        80  -8.4579    116.8690     85.6649   7.2530703562e+01   4.2698865880e+01    0.2180719     0.140698  54.67 0.0009353283    1.731    0.422
        81  -8.6676     74.6984     84.9033   8.5609559118e+01   5.0803423441e+01    0.1987263    0.1719664 -42.03 0.0003497993    1.095    0.087
        82  -9.0958    158.0073     82.7149   6.1375383366e+01   3.3888574227e+01    0.2141714    0.1984703  56.48 0.0005352621    1.085    0.078
        83  -8.2689     70.6989     82.2628   8.6226972840e+01   5.2006245101e+01    0.1308562    0.1140057  77.07 0.0002295656    1.516    0.340
        84  -8.1969    184.3643     77.3005   5.4666769510e+01   2.8583426762e+01    0.1500906    0.1150717  22.39 0.0007034651    1.727    0.421
        85  -8.7498     56.9574     66.6298   8.6456766536e+01   5.7305170936e+01     0.218398   0.09965194  51.71 0.0007032338    4.638    0.784
        86 -12.9885    187.6093     49.5606   4.6728008586e+01   3.2140946030e+01     1.066415    0.9419944  30.60  0.001125823    1.359    0.264
        87 -10.7063    120.0008    244.5160   1.0355424165e+02   7.2741006133e+00    0.2324772    0.2087667  64.20 0.0007724091    1.154    0.134
        88  -9.9886     30.1582     35.8629   8.6946276780e+01   6.6385193664e+01    0.1760367    0.1545773 -17.98  0.000487604    1.185    0.156
        89 -11.5273     22.8514     33.8035   8.9675356985e+01   6.7482744032e+01    0.3581685    0.2480173  40.99  0.002153334    2.040    0.510
        90  -8.2060     37.6136    215.5747   1.1769309498e+02   2.4271558106e+01    0.1251379   0.09272192  71.15 0.0002680258    1.122    0.109
        91  -8.5358     69.9021     52.8552   7.6751044154e+01   5.7954401343e+01    0.1725882     0.163619  47.98 0.0006295358    1.322    0.244
        92  -9.4925    198.0774     23.4557   3.8659898269e+01   3.3008033433e+01    0.2168152    0.1855882  -6.39 0.0006804359    1.535    0.349
        93  -9.7050     59.3084    220.2429   1.1356722635e+02   2.0662073745e+01     0.314562    0.2438896 -43.42  0.001083403    1.741    0.425
        94  -9.6811     35.4988     16.4984   7.5909855986e+01   6.8754545503e+01    0.1215328   0.09582134  -2.19 -0.0002284616    1.016    0.016
        95  -8.9697    189.4934     15.0234   3.7490072482e+01   3.5958060802e+01     0.180172    0.1229342 -35.14  0.000601858    1.542    0.351
        96 -11.0744    125.4270    244.3168   1.0242383382e+02   6.4896669568e+00     0.432447    0.2301915 -53.16  0.002261322    2.199    0.545
