#   1 NUMBER                 Running object number                                     
#   2 MAG_AUTO               Kron-like elliptical aperture magnitude                    [mag]
#   3 X_IMAGE                Object position along x                                    [pixel]
#   4 Y_IMAGE                Object position along y                                    [pixel]
#   5 X_WORLD                Barycenter position along world x axis                     [deg]
#   6 Y_WORLD                Barycenter position along world y axis                     [deg]
#   7 A_WORLD                Profile RMS along major axis (world units)                 [deg]
#   8 B_WORLD                Profile RMS along minor axis (world units)                 [deg]
#   9 THETA_WORLD            Position angle (CCW/world-x)                               [deg]
#  10 FWHM_WORLD             FWHM assuming a gaussian core                              [deg]
#  11 ELONGATION             A_IMAGE/B_IMAGE                                           
#  12 ELLIPTICITY            1 - B_IMAGE/A_IMAGE                                       
         1 -16.8675     89.9625    124.2955   1.0810299960e+02   3.9377354633e+01      8.78164     4.346611 -27.72   0.02620348    4.244    0.764
         2 -17.2386     16.1811    111.2932   1.2831374887e+02   5.1564587404e+01     4.777415     2.599506 -62.99   0.02527663    1.527    0.345
         3 -17.8756     15.2959    187.8911   1.3867826700e+02   3.3243911055e+01     2.544544       2.0383 -86.54   0.01367501    1.010    0.010
         4 -17.1575     34.2919    166.2190   1.3163198182e+02   3.6624137301e+01     3.148938     1.951231 -69.02   0.01652803    1.375    0.273
         5 -14.5147    189.5368     59.8925   6.8220041383e+01   3.0334601245e+01     1.806864    0.8284544 -51.00  0.007762789    2.250    0.555
         6 -16.8412    159.7635     60.9502   7.3508809479e+01   3.7083078122e+01     3.574992     2.507586   1.88    0.0163942    2.439    0.590
         7 -16.6771    189.2915     19.8457   5.9033591107e+01   3.5634478010e+01     2.534559     2.118191 -77.80   0.01599827    1.097    0.088
         8 -15.2552    152.0177     32.9875   6.7468925969e+01   4.2653369228e+01    0.9397287    0.6190766 -30.15  0.005173469    1.769    0.435
         9 -14.8674    121.0182     30.2262   7.2560641833e+01   4.9954442779e+01      1.06482    0.8839096  85.86  0.005375751    1.373    0.272
        10 -14.7507      3.4348     13.6023   1.0648243916e+02   7.0653763122e+01     1.118648    0.4660299 -43.41  0.006481387    2.410    0.585
        11 -14.4163      3.9135      3.7714   1.0202164823e+02   7.1825701638e+01     1.055239     0.413374  30.45  0.005113949    2.500    0.600
        12 -13.5867    131.1008     18.4936   6.7102369800e+01   4.8950643851e+01    0.3939687     0.356719  31.06  0.002053824    1.209    0.173
        13 -13.3089    137.1455     12.3898   6.4335474490e+01   4.8177800511e+01    0.4125634    0.2212768  70.53  0.002162068    1.701    0.412
        14 -12.9636     85.9059      9.5727   7.3949582061e+01   5.9229370720e+01    0.4438226    0.1419894  47.19  0.002004352    2.404    0.584
        15 -12.2358    118.8234      5.4836   6.5502490202e+01   5.2791368089e+01    0.3361153    0.1574001  46.83  0.001745228    1.855    0.461
        16 -14.9150    150.8637     13.9880   6.2631327186e+01   4.4942649408e+01    0.9656709    0.5469377 -85.84  0.004771464    2.246    0.555
        17 -16.1455    144.9489    162.4430   1.0208971859e+02   1.9696186187e+01     2.929487     2.348474  60.46    0.0117529    1.356    0.262
        18 -13.0145    188.5902    248.2460   1.0848774060e+02  -5.9155711878e+00    0.4151265    0.3377028  82.62  0.002361633    2.034    0.508
        19 -13.5802    192.7543    244.4400   1.0702581975e+02  -5.9205212330e+00    0.5616339    0.2624938  41.15  0.002608032    2.086    0.521
        20 -15.6247     48.1374    247.1907   1.3727170085e+02   1.6018850044e+01    0.9698164    0.7451155  48.18  0.003474365    1.275    0.216
        21 -13.6241     53.8558    237.4193   1.3524560295e+02   1.7348847681e+01    0.5583369    0.2971123 -76.79  0.002151811    1.844    0.458
        22 -14.4739     99.4238    158.0594   1.1285127453e+02   2.9470581550e+01    0.9966334     0.827304  56.11  0.003341717    1.255    0.203
        23 -14.8852    106.6382    155.1684   1.1032312814e+02   2.8898338234e+01     1.514358    0.5610558 -54.86  0.005046644    2.650    0.623
        24 -15.2246    117.9113    159.8830   1.0834105541e+02   2.5636389185e+01     1.180454     1.004557 -34.45   0.00377826    1.273    0.214
        25 -16.0508    114.7963    150.0536   1.0705205919e+02   2.8634487881e+01     1.734339     1.511135 -42.73  0.006660562    1.159    0.138
        26 -13.9449    114.8228    194.2808   1.1570356453e+02   1.7838751222e+01    0.6602796    0.5411153  76.19  0.003211909    1.311    0.237
        27 -14.1954    109.7544    187.5573   1.1576527603e+02   2.0352511476e+01     1.550914    0.4544448  45.00  0.004729381    3.482    0.713
        28 -11.7810     70.3551    196.0362   1.2676937585e+02   2.4641420648e+01    0.4045321    0.3229982 -68.88  0.002243917    1.180    0.153
        29 -11.6662    110.5950    201.8095   1.1799136303e+02   1.6797511466e+01    0.3017935    0.2173712  78.19  0.001408906    1.668    0.401
        30 -11.1422     50.0171    188.4974   1.3064793881e+02   2.9260579537e+01    0.2358952    0.1399451  27.78 0.0009572687    2.030    0.507
        31 -11.6168     83.8383    188.9268   1.2242363132e+02   2.4350429637e+01    0.3541087    0.2598478  84.33  0.001239717    1.487    0.327
        32 -11.7312     92.5665    185.5613   1.1970233227e+02   2.3777654305e+01    0.3161678    0.2701811  41.97  0.001424573    1.211    0.175
        33 -15.8350    144.6743    117.3495   9.1577475964e+01   3.0062745106e+01     3.290451     1.412287 -39.77   0.01147294    2.488    0.598
        34 -15.4236    117.2701    125.3495   1.0063343438e+02   3.4042291972e+01     1.417816     1.218976 -71.76  0.006633839    1.256    0.204
        35 -15.4868    126.5952    116.0718   9.5809082082e+01   3.4227300722e+01     1.593702     1.055057 -57.07  0.006986444    1.629    0.386
        36 -11.9039     53.1937    131.5455   1.2068701040e+02   4.3069226481e+01    0.3689041    0.2826807  16.02  0.001478537    1.546    0.353
        37 -13.2123     70.9261    126.9420   1.1438503341e+02   4.1782216744e+01    0.5461234    0.4531017 -29.85  0.002392012    1.266    0.210
        38 -13.9277    220.7675    116.9132   7.6219483895e+01   1.3575837570e+01     1.140668    0.4367446 -37.84  0.004166866    2.709    0.631
        39 -11.5908     49.1816    117.8369   1.1911568399e+02   4.6849249319e+01    0.2858047    0.2283587  -4.24  0.001588093    1.452    0.311
        40 -15.3951     41.5378    141.8635   1.2599304837e+02   4.1895105877e+01     1.469471     1.090058  86.75  0.006152854    1.496    0.332
        41 -13.5783    116.0649    226.1531   1.2050968063e+02   1.0356539338e+01    0.9504656    0.5702263  26.03   0.00328429    2.024    0.506
        42 -13.9165    126.9696     86.2073   8.7681067908e+01   4.0264149060e+01    0.8671793    0.7127939 -79.56  0.003619999    1.489    0.329
        43 -15.0420    121.8723     71.7997   8.4845982025e+01   4.3940173704e+01     2.359269     1.290761  38.89   0.01026108    1.926    0.481
        44 -12.7687    104.8206    224.7299   1.2281610904e+02   1.2535619230e+01    0.4527206    0.4067788 -81.33  0.001691293    1.124    0.110
        45 -13.7723     95.7377    210.4438   1.2283431728e+02   1.7266823472e+01     1.511313    0.7975207 -78.56  0.005939927    2.643    0.622
        46 -13.0316     97.9052    197.2041   1.2029259553e+02   2.0051317736e+01    0.7326571    0.5556847 -10.73  0.003454821    2.022    0.505
        47 -13.6309     67.6410    241.7302   1.3287223316e+02   1.4524916363e+01     0.810903    0.6445657 -68.22  0.003819524    1.335    0.251
        48 -14.3521    133.9474     26.9639   6.9013998515e+01   4.7445115514e+01    0.8204359    0.3634619  60.19  0.003807541    1.936    0.483
        49 -12.5976     63.2223    239.5862   1.3355503250e+02   1.5604350960e+01    0.3218892    0.2811312 -83.57  0.001389691    1.185    0.156
        50 -16.2748     13.8135    156.6551   1.3566451493e+02   4.0925169017e+01      1.72968     1.247329 -16.68   0.01004468    1.943    0.485
        51 -13.6674    118.0268    214.8387   1.1834583338e+02   1.2516471225e+01     1.738484    0.4959891  33.75  0.005049997    4.263    0.765
        52 -12.9726    110.0842    220.8787   1.2107724595e+02   1.2516657074e+01    0.6075315    0.3534881  45.41  0.002594854    1.601    0.375
        53 -12.0530     88.2690    168.5966   1.1784565951e+02   2.8716568593e+01     1.895282    0.7821337  31.62  0.006729588    2.840    0.648
        54 -16.2872    141.3255    178.7737   1.0636516773e+02   1.6576486239e+01     3.110514     2.187429  47.24  0.009564914    1.439    0.305
        55 -15.8503     20.7382    134.7907   1.3081903004e+02   4.5652998313e+01     1.906336    0.8835533  33.71  0.009177161    2.427    0.588
