#   1 NUMBER                 Running object number                                     
#   2 MAG_AUTO               Kron-like elliptical aperture magnitude                    [mag]
#   3 X_IMAGE                Object position along x                                    [pixel]
#   4 Y_IMAGE                Object position along y                                    [pixel]
#   5 X_WORLD                Barycenter position along world x axis                     [deg]
#   6 Y_WORLD                Barycenter position along world y axis                     [deg]
#   7 A_WORLD                Profile RMS along major axis (world units)                 [deg]
#   8 B_WORLD                Profile RMS along minor axis (world units)                 [deg]
#   9 THETA_WORLD            Position angle (CCW/world-x)                               [deg]
#  10 FWHM_WORLD             FWHM assuming a gaussian core                              [deg]
#  11 ELONGATION             A_IMAGE/B_IMAGE                                           
#  12 ELLIPTICITY            1 - B_IMAGE/A_IMAGE                                       
         1 -14.1097     68.4401    144.5640   9.4202893866e+01   3.7598900424e+01      4.30462     2.336748  78.01   0.00612152    4.181    0.761
         2 -13.4191    222.4014     30.6888   3.2271255231e+01   2.7429306239e+01     1.165925    0.8933464  42.83  0.007383254    1.953    0.488
         3 -13.5579    208.1259     43.1457   3.6319663008e+01   2.8808759819e+01     1.726685     1.305034  35.15  0.008373044    2.024    0.506
         4 -12.3711    247.3278      6.4841   2.5874364748e+01   2.5382533492e+01    0.6852451    0.3969881 -49.69  0.004671032    1.406    0.289
         5  -9.5854      2.3217      3.1076   7.9401164033e+01   7.4552178996e+01    0.2140155   0.07593025 -34.31  0.001098329    2.536    0.606
         6 -11.1706    149.2093    228.5978   8.7644593845e+01   4.6733123522e+00    0.4890317    0.2381541  21.13  0.001963613    2.558    0.609
         7 -15.1192      6.1402    186.3722   1.1710082945e+02   3.3569421381e+01     10.84742      1.45778 -74.84   0.02928197    5.784    0.827
         8 -16.2816     16.4611    242.1346   1.1851394421e+02   1.9826103592e+01     7.415349     4.537628  22.50    0.0432482    2.046    0.511
         9 -14.1428     43.3035    187.4370   1.0784112032e+02   2.9654721335e+01     2.297899     1.587611  67.14  0.008371159    1.459    0.315
        10 -10.5051    119.7495    212.7085   9.1978628968e+01   1.2621297266e+01    0.2562817    0.2229427  60.17  0.001198109    1.221    0.181
        11  -8.0244    224.2394    206.6926   6.8370638116e+01  -2.4851313267e+00     0.111722   0.09654666 -48.70 0.0002295062    1.493    0.330
        12  -7.9413    220.2867    227.7007   7.2834779339e+01  -5.3964690029e+00    0.1029199    0.1010965 -36.41 0.0003521836    1.554    0.357
        13 -10.0396    192.1584    193.1496   7.2053340725e+01   4.7546111498e+00     1.242826     0.555069 -61.08  0.002501345   11.686    0.914
        14  -9.0374    123.4942    201.0631   8.9184256176e+01   1.4619579287e+01    0.2124094    0.1457857 -55.99 0.0006499044    1.531    0.347
        15 -14.4612      9.3669    207.7044   1.1786579723e+02   2.8175880847e+01     1.346982     1.247087 -61.02  0.004341255    1.328    0.247
        16 -10.3760    139.2945    217.0837   8.8059722525e+01   8.5452425714e+00    0.3286954    0.1824487 -60.21  0.001434377    2.230    0.551
        17  -7.9388    195.7014    190.2643   7.0771737034e+01   4.7381475412e+00    0.1228447    0.1126545  85.30 0.0002135797    1.514    0.340
        18 -10.2994    134.0802    217.3127   8.9309116346e+01   9.3328987115e+00    0.3713301    0.2126465  11.49  0.001466333    2.675    0.626
        19  -9.2039     99.4285    180.8696   9.1903508919e+01   2.3432239019e+01    0.2708953     0.220799  24.07 0.0006222198    1.308    0.235
        20 -10.8595    242.9285    174.6031   5.9101283125e+01   3.7896613073e-01    0.2745999    0.1801024 -17.38  0.001506844    1.621    0.383
        21 -11.3950     60.6864    172.4133   1.0118291708e+02   3.1367638164e+01    0.4800678    0.3221623 -32.49   0.00151057    1.910    0.476
        22 -11.2187     65.8371    167.5774   9.8987483991e+01   3.1933272394e+01    0.3740882    0.2724083 -38.56  0.001083009    1.549    0.354
        23 -10.4544    112.0121    172.8982   8.7086730653e+01   2.3280663380e+01    0.4521809    0.1792693  41.59  0.001568021    2.504    0.601
        24 -11.9010     83.3897    152.4783   9.1203079412e+01   3.3276126300e+01     1.257813    0.6794526 -56.64  0.003451657    1.760    0.432
        25 -12.5255     75.3280    157.7641   9.4574926160e+01   3.3138857064e+01     1.421955    0.8233229  59.94  0.001212688    2.270    0.559
        26 -12.8742     62.9012    154.3876   9.7671993987e+01   3.5791591499e+01    0.5491672    0.3855583 -37.42   0.00122121    1.591    0.372
        27 -10.1550    119.7073    245.1805   9.6600420854e+01   5.9096518445e+00    0.3033371    0.1465187 -48.69  0.001411966    2.324    0.570
        28 -10.3919     47.7113    169.2395   1.0437629989e+02   3.3816989849e+01    0.4286892    0.2716625 -74.06  0.001188708    1.497    0.332
        29  -8.5648    110.7107    167.5418   8.6402851425e+01   2.4835656785e+01    0.2622104    0.1908091 -82.80  0.001147094    1.768    0.434
        30  -9.1739     84.4943    173.4719   9.4702358896e+01   2.7679837393e+01    0.3091944    0.2255596  31.40 0.0009663601    1.423    0.297
        31 -10.8719     32.6035    156.3413   1.0698131258e+02   3.8840112373e+01    0.4258175    0.3316642  67.14 0.0009270079    1.330    0.248
        32  -8.5438    127.4882    152.0134   7.8652010357e+01   2.5556833628e+01    0.2414273    0.1542337 -53.91  0.001015579    1.575    0.365
        33  -8.4643    174.7041    149.3207   6.6650826730e+01   1.6879715629e+01    0.1485966    0.1200788 -80.28 0.0002084759    1.615    0.381
        34  -9.9414    134.3097    146.9821   7.5735233789e+01   2.5430862758e+01    0.6128734    0.2292654 -53.20  0.001936538    2.874    0.652
        35  -9.8027     86.3494    170.7023   9.3709905542e+01   2.8100896246e+01    0.2995571    0.2328933  72.45  0.001016247    1.459    0.315
        36  -9.9033     29.6516    142.9480   1.0602925910e+02   4.2631981953e+01    0.3738639    0.2809126   6.53  0.002012108    1.625    0.385
        37 -10.2091     98.7200    138.7508   8.3761478234e+01   3.4206921077e+01    0.6086357    0.3911064 -14.74  0.002262915    2.588    0.614
        38 -11.6197     85.6367    137.9504   8.7535463353e+01   3.6659871983e+01    0.3171828    0.2909837 -47.16 0.0004391907    1.053    0.051
        39 -10.2192    107.3654    130.2220   7.9226741741e+01   3.4728643154e+01    0.5592991    0.3675498  21.98  0.002317296    1.888    0.470
        40  -9.4748    135.8149    130.3976   7.1429167739e+01   2.9008150512e+01    0.3215418     0.119491 -49.44  0.001024254    2.699    0.630
        41  -8.9322     82.2660    128.9248   8.6578655557e+01   3.9510170330e+01    0.2333954    0.2059924 -87.51 0.0007098037    1.259    0.205
        42 -11.2899    238.6795    170.0557   5.8915527559e+01   1.7794632084e+00    0.5578169    0.2870671  16.30  0.002100573    4.172    0.760
        43  -8.9543     96.8944    124.8145   8.1045683370e+01   3.8000352324e+01    0.2390355    0.2034364 -18.12 0.0005928316    1.297    0.229
        44  -9.6772    161.3567    118.4015   6.2307431568e+01   2.6227749084e+01    0.5785402    0.3205458 -67.13  0.001924101    3.254    0.693
        45  -8.9961    106.1346    118.4111   7.6653989866e+01   3.7804557404e+01     0.241731    0.2039586 -34.99 0.0004494223    1.196    0.164
        46 -10.0125    231.2261    113.7708   4.8654980987e+01   1.3004548775e+01    0.2699987    0.2273927 -50.24 0.0007306298    1.022    0.022
        47  -9.9858    247.5921    113.2111   4.6315211027e+01   1.0241730448e+01    0.1877463    0.1051084 -34.38 0.0009543683    1.696    0.410
        48  -8.3595     77.4196    112.5350   8.4230176084e+01   4.4368567085e+01    0.1497141    0.1435011 -63.93 0.0008024636    1.091    0.084
        49  -9.1387    205.4962    110.1989   5.1835827651e+01   1.8564021438e+01     0.232808    0.2017173  55.87 0.0006571581    1.282    0.220
        50  -8.5531     32.3363    109.2992   9.9406549705e+01   5.1027448363e+01    0.1483523   0.09286293 -33.61 0.0004563555    1.657    0.396
        51  -9.8638     52.8467     91.4580   8.7509816403e+01   5.2995612267e+01    0.2898555    0.1356557 -37.51 0.0008441992    2.276    0.561
        52  -9.0762    160.6271     84.2106   5.3659344348e+01   3.3103273124e+01    0.2029077    0.1390797 -29.98 0.0003621456    1.649    0.394
        53  -8.3675     37.9809     63.9491   8.5486342880e+01   6.0778290661e+01    0.1598404     0.136816 -12.78   0.00041304    1.038    0.037
        54 -10.8613     95.0217    242.0169   1.0169796033e+02   1.0113166179e+01    0.4801652    0.1828855 -56.73  0.002028098    2.817    0.645
        55 -11.8275    199.4097     48.8041   3.8599897478e+01   2.9923630474e+01     0.557045     0.441475  56.43  0.001156062    1.424    0.298
        56 -12.7831     33.2675    197.0489   1.1138895578e+02   2.8375345663e+01    0.7546575    0.5417123 -22.82  0.002178181    2.056    0.514
        57 -10.7760     13.4743     59.9279   9.5473547710e+01   6.3941716572e+01    0.2572862    0.2124173 -55.53 0.0004922149    1.284    0.221
        58  -9.5036      6.4974     50.4889   9.6130308575e+01   6.6334415354e+01    0.1221601   0.09847798 -30.92 3.685928e-05    1.038    0.037
        59  -9.7733     41.9560     59.2727   8.2198751039e+01   6.1209168785e+01    0.2859007    0.2055776  41.26  0.001272558    1.668    0.401
        60 -10.1969      2.0000     24.4934   8.9569197385e+01   7.1388123818e+01    0.3588977   0.05600096 -52.20  0.001153698    5.908    0.831
        61  -9.1631    197.8842     24.0308   3.3143065647e+01   3.3408365100e+01    0.2437415    0.1684309 -25.62  0.001065807    1.853    0.460
        62  -8.4406    189.6233     15.2051   3.1962316160e+01   3.6202873337e+01    0.1477286    0.1171943 -23.35   0.00094516    1.648    0.393
        63  -8.4018    169.1917    235.9681   8.4461506708e+01   2.9714392853e-01     0.162799    0.1004789 -44.33 0.0004956638    1.734    0.423
