#   1 NUMBER                 Running object number                                     
#   2 MAG_AUTO               Kron-like elliptical aperture magnitude                    [mag]
#   3 X_IMAGE                Object position along x                                    [pixel]
#   4 Y_IMAGE                Object position along y                                    [pixel]
#   5 X_WORLD                Barycenter position along world x axis                     [deg]
#   6 Y_WORLD                Barycenter position along world y axis                     [deg]
#   7 A_WORLD                Profile RMS along major axis (world units)                 [deg]
#   8 B_WORLD                Profile RMS along minor axis (world units)                 [deg]
#   9 THETA_WORLD            Position angle (CCW/world-x)                               [deg]
#  10 FWHM_WORLD             FWHM assuming a gaussian core                              [deg]
#  11 ELONGATION             A_IMAGE/B_IMAGE                                           
#  12 ELLIPTICITY            1 - B_IMAGE/A_IMAGE                                       
         1 -14.0006    227.0783     26.2510   3.5252859403e+02   2.6784633636e+01     1.050831    0.8281817 -18.45  0.005387682    1.608    0.378
         2 -11.9511    230.9384      4.9696   3.4772780157e+02   2.8328487921e+01    0.4123775    0.2051594 -46.18   0.00250105    1.458    0.314
         3 -11.4047     55.6089      4.1125   1.0670086478e+01   7.0234714588e+01    0.2626233    0.1925454  31.34  0.001476502    1.366    0.268
         4 -10.9660     60.5658      2.5455   7.8767777553e+00   6.9233209444e+01    0.2291815      0.16994  68.62  0.001287996    1.303    0.232
         5 -10.4116     41.5029      1.5016   1.5194928062e+01   7.3615659997e+01    0.2118132    0.1006184  45.21 0.0007379923    1.838    0.456
         6 -10.3083     44.4136    227.4382   7.0295994472e+01   2.0516710532e+01    0.2032347    0.1436536  56.03 8.286609e-05    1.254    0.203
         7 -19.3439     10.0852    159.5481   7.5434186618e+01   3.9670442564e+01     18.68715     3.859848 -84.24   0.05198448    5.224    0.809
         8  -9.2101     46.5533    190.7271   6.7027331998e+01   2.8367341401e+01    0.1731162    0.1194169  75.32 0.0007112494    1.490    0.329
         9 -11.8665    143.9597    181.4537   4.0336995128e+01   1.6588966232e+01    0.5586158     0.329701  -8.67  0.002253199    2.872    0.652
        10 -11.2602     88.1886    220.6268   5.9172292206e+01   1.6755199951e+01    0.4390215    0.3188649  17.33  0.002466799    1.348    0.258
        11 -10.5004     71.3733    222.9035   6.3456597196e+01   1.8379911368e+01    0.1758122    0.1466293 -60.70  0.000645913    1.424    0.298
        12  -9.1988     59.2517    181.5745   6.2565863827e+01   2.9050687881e+01    0.1910926    0.1325916  14.81 0.0009384128    1.607    0.378
        13 -10.3268    174.7049    179.9055   3.3455226037e+01   1.2163699232e+01    0.2472807    0.2383005  36.94   0.00082544    1.303    0.232
        14 -11.5436    179.7377    168.8611   3.0428348385e+01   1.3331054465e+01     0.733278    0.5240932 -23.31  0.004120092    1.364    0.267
        15 -11.2672    171.6630    175.4328   3.3261121973e+01   1.3412231545e+01    0.3673367    0.3222747 -39.67  0.001051929    1.237    0.191
        16 -10.4502    173.4865    171.9664   3.2252547016e+01   1.3749789157e+01    0.3567761    0.2397972 -69.44  0.001541961    2.851    0.649
        17 -12.1526    110.8038    167.4155   4.6113633961e+01   2.4884998613e+01    0.5104027     0.322337 -59.21  0.001466093    1.739    0.425
        18  -9.3055    194.2244    219.9830   3.6317623802e+01   3.2477048485e+00    0.1616738    0.1217266 -20.34  0.001108425    1.209    0.173
        19 -11.4871     16.6726    249.5461   7.7614147877e+01   1.8939270280e+01    0.1831066    0.1390239  17.78  0.001267193    1.445    0.308
        20  -9.6474     49.8917    165.0578   6.3502945354e+01   3.4322902999e+01    0.2622912    0.1994495  34.35  0.001077934    1.241    0.194
        21 -11.9418     42.5808    201.9875   6.9006543576e+01   2.6193267671e+01    0.3328494     0.214042  37.43  0.001184601    1.308    0.236
        22 -11.2338    134.0000    148.0130   3.6405524145e+01   2.5188075486e+01    0.6878434    0.2411431 -54.54  0.002183027    3.484    0.713
        23 -11.4313    133.1932    142.8107   3.5515873884e+01   2.6469172885e+01    0.7978195    0.2275769 -51.81  0.002334198    3.910    0.744
        24 -10.8618     85.5603    149.4875   5.0185737190e+01   3.3291846006e+01    0.2632521    0.2344585 -59.36 5.752201e-05    1.162    0.139
        25 -11.0521     82.5155    149.5511   5.1132010585e+01   3.3760393144e+01    0.3201799     0.285609  83.30 9.042782e-05    1.162    0.140
        26 -12.3251     92.1451    144.5456   4.7273642314e+01   3.3444306243e+01     0.697883    0.5240468 -30.72   0.00215488    1.594    0.373
        27  -9.7316     37.1626    199.1872   7.0235978091e+01   2.7412011533e+01    0.2447804    0.1315806  47.85  0.001211859    1.584    0.368
        28  -9.6291    167.0918    134.5936   2.5988435217e+01   2.1808520527e+01    0.3203997    0.1888173 -55.64   0.00111482    2.020    0.505
        29 -11.4388    104.8203    132.9373   4.1108727287e+01   3.4051270429e+01    0.5747165    0.4013847 -12.11  0.002363402    2.189    0.543
        30 -11.7662     92.9131    131.5885   4.4435868097e+01   3.6548722626e+01    0.3525098    0.3092429  85.87 0.0004477778    1.225    0.184
        31  -9.0858     50.8430    200.6645   6.6718581782e+01   2.5572600419e+01    0.1830883    0.1462266  44.71 0.0007767816    1.064    0.061
        32 -10.2250    136.0000    130.9188   3.2190203171e+01   2.8524110337e+01    0.4192232   0.08444684 -47.27  0.001049855    4.921    0.797
        33 -11.0721    113.1335    125.2035   3.6953175647e+01   3.4310863012e+01      0.48791    0.3082888 -43.40  0.001526782    1.640    0.390
        34  -9.9007    135.0000    120.8862   3.0081179093e+01   3.0898231719e+01    0.4166151   0.08517811 -46.30  0.001038868    4.822    0.793
        35 -10.4218    100.4235    120.8428   3.9696844647e+01   3.7819446600e+01    0.2934588    0.2480735   2.14 0.0004915941    1.430    0.301
        36 -10.9474     76.3347    120.8686   4.7605971852e+01   4.2165741109e+01    0.2957175    0.2309111  28.70 0.0007584071    1.328    0.247
        37 -10.2080    122.1760    115.8499   3.2176407307e+01   3.4645237465e+01    0.2089287    0.1850698 -10.96 0.0002947653    1.295    0.228
        38  -9.9962    108.9216    115.9832   3.5958454721e+01   3.7317346866e+01     0.230669    0.2275918 -59.66 0.0003422484    1.029    0.028
        39  -8.3631    153.3102    113.6411   2.4031938702e+01   2.8632462667e+01    0.1530833    0.1156821 -77.25 0.0005438454    1.738    0.425
        40  -9.9291    210.8591    198.9410   3.0051766165e+01   4.2590628885e+00    0.1869835    0.1445021   6.11 0.0004561971    1.135    0.119
        41 -12.3325     66.3042    103.2952   4.7260925914e+01   4.8421789600e+01    0.5763564    0.4172736 -42.80  0.002649436    1.467    0.319
        42 -10.3076    134.5171    105.0746   2.6210964716e+01   3.4380860998e+01    0.4115578    0.1480527 -44.79  0.001360923    2.726    0.633
        43 -12.0100    117.1675    101.1768   2.9721917819e+01   3.8990729562e+01    0.5849954    0.3948725  89.59  0.002266098    2.408    0.585
        44  -9.4597     93.9137    101.1886   3.6805834418e+01   4.3868114304e+01    0.2260311    0.2054793  73.77 0.0003167741    1.136    0.120
        45 -11.8974     51.9382     93.5919   5.0745797740e+01   5.3192004362e+01    0.6865059    0.2850736  49.80  0.001752786    3.075    0.675
        46 -10.3452    192.9823    194.9418   3.2551160981e+01   7.1207728104e+00    0.3466489    0.2016994 -63.17  0.001266525    5.574    0.821
        47  -7.7035     39.7399    186.6854   6.8583136724e+01   3.0085862761e+01    0.3677401    0.2210354 -26.46  0.001622696    2.620    0.618
        48 -11.1247    115.3257    108.8936   3.2301947632e+01   3.7647184468e+01    0.3091603    0.2350082  35.38 0.0009101112    1.387    0.279
        49 -11.9934     39.1442     88.4009   5.5221752901e+01   5.6274733554e+01    0.4015652    0.3499497 -32.41  0.001671463    1.198    0.165
        50 -10.1861     42.3245    194.3308   6.8484842569e+01   2.7988054008e+01    0.2382767    0.1962349  11.62  0.001387354    1.370    0.270
        51 -11.6369     37.6539    193.6879   6.9705272782e+01   2.8640415190e+01    0.5090217    0.3449869  67.83  0.002767317    1.420    0.296
        52  -9.1886    184.3341     77.3229   9.1462432124e+00   2.8601256442e+01     0.133791     0.108804  11.60 0.0007050518    1.708    0.414
        53  -8.5720     84.6517     71.2871   3.0885691276e+01   5.2668218393e+01    0.1581946    0.1214198  80.45 0.0003197164    1.657    0.397
        54  -8.9358     46.7361    194.7360   6.7319831605e+01   2.7404276089e+01    0.1193521    0.1026453 -24.60 0.0002347329    1.455    0.313
        55 -12.5942    181.0926     65.4767   6.5670060992e+00   3.1170939994e+01    0.4586436    0.4176854 -70.40 0.0007881425    1.058    0.055
        56 -13.7979    197.6955     53.3951   1.4012846435e+00   2.9329760739e+01     1.073114    0.9032335  45.44  0.003543506    1.509    0.337
        57 -12.5702    203.6177     48.1160   3.5948245574e+02   2.8799976267e+01    0.4892918    0.4572597  70.71  0.001795165    1.285    0.222
        58  -9.4302     61.0871     60.3201   3.6460018750e+01   5.9801158127e+01    0.2136777    0.1843967  43.83 0.0005667896    1.151    0.131
        59 -10.1808     69.6478     57.0292   3.1483959213e+01   5.8829470557e+01    0.3222345    0.2073118  57.96 0.0009427696    1.792    0.442
        60  -9.8325     47.5053     56.9320   4.1743267025e+01   6.2917992484e+01    0.2175624    0.1899199  28.98 0.0003627075    1.136    0.119
        61  -9.9376     65.0037     46.4197   2.9106578739e+01   6.1893679140e+01    0.2866231    0.2294752  71.40 0.0008065187    1.515    0.340
        62  -9.8979    249.3331    244.6714   3.0908422508e+01  -5.3446977803e+00   0.08220704   0.07121732  -2.87 0.0007051828    1.719    0.418
        63 -10.9957     60.7223     21.7484   1.8951254543e+01   6.6937940936e+01    0.3373732    0.2447085  42.51  0.001089508    1.280    0.219
        64 -10.3436    249.0464     22.5125   3.5049564958e+02   2.3178559577e+01    0.1506844    0.0997074  88.79  0.001041712    1.617    0.382
        65 -10.5863     50.0749     20.6660   2.3255278178e+01   6.9364898828e+01     0.199323    0.1667238  39.42 0.0007327981    1.099    0.090
        66  -9.3069    189.3834     15.2254   3.5249577779e+02   3.5880462454e+01    0.1807237   0.09398707 -43.11   0.00064119    1.603    0.376
        67 -16.5962     67.5597    146.3320   5.5334120948e+01   3.6856248707e+01      15.3952     7.258025  71.83   0.01285376    5.040    0.802
        68  -9.1941    234.3421    191.0799   2.4962847637e+01   2.5817014446e+00    0.1580367    0.1140976 -22.48 0.0004636446    1.115    0.103
        69 -10.4422     52.4805    243.2009   6.9417059317e+01   1.6578578374e+01    0.1276585    0.1156059 -59.34 0.0005906752    1.409    0.290
        70 -11.0182     53.1642    231.3742   6.8481531222e+01   1.8781011029e+01    0.2527915    0.1571666 -67.80    0.0014608    1.886    0.470
        71 -10.3103     47.4463    229.4733   6.9705464810e+01   1.9781505429e+01     0.192632    0.1288864  46.48 0.0007568392    1.216    0.178
