#   1 NUMBER                 Running object number                                     
#   2 MAG_AUTO               Kron-like elliptical aperture magnitude                    [mag]
#   3 X_IMAGE                Object position along x                                    [pixel]
#   4 Y_IMAGE                Object position along y                                    [pixel]
#   5 X_WORLD                Barycenter position along world x axis                     [deg]
#   6 Y_WORLD                Barycenter position along world y axis                     [deg]
#   7 A_WORLD                Profile RMS along major axis (world units)                 [deg]
#   8 B_WORLD                Profile RMS along minor axis (world units)                 [deg]
#   9 THETA_WORLD            Position angle (CCW/world-x)                               [deg]
#  10 FWHM_WORLD             FWHM assuming a gaussian core                              [deg]
#  11 ELONGATION             A_IMAGE/B_IMAGE                                           
#  12 ELLIPTICITY            1 - B_IMAGE/A_IMAGE                                       
         1 -12.8142    247.9669     34.4970   2.5695170901e+01   2.1565598854e+01    0.9010392    0.1974183 -48.72  0.003447305    3.497    0.714
         2 -15.0851    242.6327     11.1616   2.1296650795e+01   2.5335302646e+01     2.388742     1.147498 -49.94    0.0138392    1.594    0.373
         3 -12.4237     15.8919      6.5884   7.0099757966e+01   7.4483482118e+01     0.405073    0.2431766  -8.73  0.002316991    1.845    0.458
         4 -13.1370      6.1906     11.2738   7.9362605517e+01   7.4714356687e+01     0.799476    0.4074909 -32.85  0.004520398    1.764    0.433
         5 -12.2265     10.2848      2.1195   7.1363652878e+01   7.5769536750e+01    0.8925107    0.1964222  28.95  0.003227774    4.897    0.796
         6 -11.7598     19.5733     14.3230   7.1935006575e+01   7.2864796963e+01    0.3584316    0.1702242 -27.39   0.00173914    2.367    0.577
         7 -10.1064    161.3072      9.6612   2.7617986407e+01   4.3486031012e+01    0.1401028   0.08434705 -64.16  0.000363933    1.681    0.405
         8 -10.1052    149.6522      9.3468   2.8929018752e+01   4.6353069357e+01    0.1447187   0.08583469 -65.78 0.0007041973    1.809    0.447
         9 -13.4822     12.0526     23.7834   8.1190014995e+01   7.1999345755e+01    0.7141076    0.2874599 -34.62  0.003286222    2.503    0.601
        10 -10.2723    171.6348      6.3293   2.5584355073e+01   4.1337919799e+01    0.1433159   0.07926546 -65.40 0.0007036939    1.809    0.447
        11 -12.1576     25.6207      3.7671   6.2278610874e+01   7.3625345818e+01    0.3871446    0.2261666 -19.26  0.002214709    1.783    0.439
        12 -10.6451    186.3291      4.6581   2.3798792304e+01   3.8057270359e+01    0.1393024   0.07523546 -62.94 0.0007051302    1.744    0.426
        13 -10.5336    159.5143      3.0126   2.5893545814e+01   4.4558666934e+01    0.2832076    0.1134668 -68.07  0.001035456    3.517    0.716
        14 -10.7296     41.1714      2.6292   5.3307095839e+01   7.1313997714e+01    0.3104989    0.1457583  25.94  0.001392861    2.714    0.632
        15 -11.8234      1.4649     25.5984   8.8750507434e+01   7.2442037015e+01    0.5002398    0.1080965 -61.20  0.001756945    4.499    0.778
        16 -10.8938      6.2209    236.2411   1.1229322854e+02   2.3041753706e+01    0.3163164    0.1566795  64.28  0.001416122    1.625    0.385
        17 -12.7252    234.1950    244.3117   6.7715513841e+01  -6.8969522560e+00    0.6309739    0.2718337 -26.76  0.003497416    2.313    0.568
        18 -12.7675    247.1817    226.5101   6.2879950689e+01  -6.1391395654e+00    0.6833285    0.3314142 -18.17  0.003785203    2.185    0.542
        19 -12.3353    241.6217    237.9648   6.5548261761e+01  -6.9415284770e+00    0.6261313    0.2687681 -14.73  0.002765767    3.735    0.732
        20 -11.6005    249.4248    232.9700   6.3537416467e+01  -7.1814180790e+00    0.3627439    0.1954805 -23.98  0.001999683    1.607    0.378
        21 -10.9424    249.3129    250.0270   6.6127405616e+01  -9.1662954544e+00    0.3581745    0.1437094  25.97  0.002074334    2.283    0.562
        22 -10.9764    248.8230    245.8451   6.5586870946e+01  -8.6397018043e+00    0.2668819    0.1790928  -8.71  0.001197577    1.161    0.138
        23 -12.2432    242.6473    246.7619   6.6704690001e+01  -8.1009547611e+00    0.5519319    0.2650321 -19.88   0.00326607    2.082    0.520
        24 -11.8607    247.3480    239.5079   6.4867810956e+01  -7.7442727910e+00    0.4437262    0.2187245 -18.42   0.00244473    2.007    0.502
        25 -11.5066    225.8535    248.5535   6.9730252870e+01  -6.4850209280e+00    0.3142123    0.1883013   1.66  0.002029659    1.587    0.370
        26 -10.9268     75.7468    250.4472   9.9087545986e+01   1.2611594546e+01    0.3650767   0.08771935  34.51  0.001430811    3.133    0.681
        27 -11.4962     65.2797    249.1177   1.0112329330e+02   1.4151018865e+01    0.4304968    0.1832035  44.69  0.002236848    1.818    0.450
        28 -10.7927     50.5382    250.2278   1.0418735635e+02   1.5698814779e+01    0.4073693    0.1165783  35.41  0.001823268    2.596    0.615
        29 -11.2142     36.4056    248.6470   1.0691238553e+02   1.7584851828e+01    0.4247213      0.19444  53.35  0.002378387    1.739    0.425
        30 -11.1136     20.1088    249.1313   1.1012417878e+02   1.9208542977e+01    0.3516404    0.1624484  46.92  0.002058895    1.586    0.369
        31 -11.0473     11.8820    249.3077   1.1170503097e+02   1.9990279966e+01    0.3369648    0.1428543  47.47  0.001967538    1.687    0.407
        32 -10.5923      3.7600    250.3677   1.1326880903e+02   2.0563098955e+01    0.2626968    0.1283582  28.08  0.001557372    2.107    0.525
        33 -11.7965     72.6103    240.7490   9.8930871699e+01   1.4805617892e+01    0.4179742    0.1621192  52.33  0.001871073    2.507    0.601
        34 -11.9039    230.7545    234.4825   6.6799344256e+01  -5.2839507805e+00    0.2994737     0.182858  -0.27  0.001892609    1.589    0.371
        35 -10.7870     13.9400    232.3428   1.1059136278e+02   2.3085861605e+01    0.3819681    0.1781735  54.45  0.002170561    1.668    0.401
        36 -11.6194     60.1728    231.5847   1.0082745909e+02   1.8148317291e+01    0.3855247    0.1538014  54.74  0.001721798    2.469    0.595
        37 -11.6478     26.1005    228.7504   1.0790495912e+02   2.2594715243e+01    0.4753793    0.1932616 -86.55  0.002302354    2.581    0.613
        38 -10.4205     48.5017    230.4985   1.0325908563e+02   1.9765566314e+01    0.2930589    0.1255874  59.48  0.001369701    2.337    0.572
        39  -9.9950     32.1336    229.2785   1.0666591706e+02   2.1849522554e+01    0.2407012    0.1122906  65.49  0.001225114    2.053    0.513
        40 -11.1777      4.7337    228.5077   1.1228866714e+02   2.4724734331e+01    0.3857861    0.1774109  61.95  0.002179754    1.753    0.429
        41 -11.0638     39.7810    231.5327   1.0518977950e+02   2.0552746542e+01    0.3125789    0.1547951  64.70  0.001638108    1.941    0.485
        42 -10.7100     11.1172    226.2203   1.1089219367e+02   2.4599746474e+01    0.3193219    0.1461149  54.90  0.001521096    1.719    0.418
        43 -10.9523     18.6534    222.3139   1.0912797772e+02   2.4681344097e+01    0.2796381    0.1366922  60.55  0.001526854    1.729    0.422
        44 -11.1869      2.0861    221.2801   1.1254338076e+02   2.6445259680e+01    0.3311048    0.1548557  85.54  0.001828939    1.921    0.479
        45 -11.9272    235.9722    228.0403   6.4930966208e+01  -5.0601891347e+00    0.3438074    0.1586776 -28.79   0.00192345    2.021    0.505
        46 -11.2178    238.4549    218.2381   6.2955114166e+01  -4.0656829391e+00    0.3072884    0.1328365 -26.58  0.001567181    2.322    0.569
        47 -12.3715    247.9439    215.4365   6.0978070407e+01  -4.8086076806e+00    0.5269235    0.2004109 -29.15  0.002611563    2.508    0.601
        48 -11.3181      2.2954    212.5765   1.1214543989e+02   2.8262013871e+01    0.3219575    0.1742246  78.40  0.001796278    1.578    0.366
        49 -10.8044     21.0051    211.5069   1.0802036234e+02   2.6755568390e+01    0.2489703    0.1396577  74.59  0.001385286    1.620    0.383
        50 -11.9896     12.6046    204.9295   1.0952592245e+02   2.9005124285e+01    0.4537516    0.2221397  56.87  0.002434396    1.719    0.418
        51 -11.2912     12.3800    217.1098   1.1020022764e+02   2.6383700029e+01    0.4388758     0.197733  54.72  0.002352181    1.795    0.443
        52 -10.4882     28.3384    211.6795   1.0639326113e+02   2.5971685778e+01    0.2157312    0.1093285  60.59  0.001118505    1.763    0.433
        53 -10.7364     34.9939    216.9594   1.0525769689e+02   2.4119003581e+01    0.2986292    0.1301624  71.96  0.001334659    2.595    0.615
        54 -11.8386      3.5389    197.4041   1.1118723096e+02   3.1484208662e+01    0.4252536    0.1916833  70.79  0.002141891    2.002    0.501
        55 -10.8623     17.0991    190.4051   1.0762300576e+02   3.1883618853e+01    0.2712386    0.1342534  76.12   0.00132981    1.953    0.488
        56 -11.6927      3.8549    188.7868   1.1068133184e+02   3.3418046521e+01    0.4361968    0.1700027  58.62  0.002033162    2.289    0.563
        57 -11.1471     11.5680    183.2953   1.0851224515e+02   3.4045072871e+01      0.24537    0.1065528 -87.53  0.001136373    2.146    0.534
        58 -10.2860      5.3951    183.2236   1.1001238246e+02   3.4583047502e+01    0.2324393    0.1133125  58.43  0.001184854    1.808    0.447
        59 -11.4921      1.9452    178.5883   1.1059615186e+02   3.5946721405e+01    0.3970928    0.1510564 -89.30  0.001757121    2.427    0.588
        60  -9.7048     16.6725    181.3150   1.0711786519e+02   3.4059748302e+01    0.1393864   0.07589675  61.18 0.0005222291    1.673    0.402
        61 -11.7451      6.1092    172.0172   1.0917035668e+02   3.7183928733e+01    0.3729742     0.139518 -85.27  0.001604421    2.454    0.592
        62 -10.5087     10.4130    167.2025   1.0773526825e+02   3.8003217893e+01    0.1905308    0.1018893  84.11 0.0009504015    1.721    0.419
        63 -10.6843      1.4855    165.0099   1.0992984780e+02   3.9227042205e+01    0.1999072    0.1057397 -83.76  0.001040063    1.615    0.381
        64 -11.7710      9.7812    156.0842   1.0708613547e+02   4.0792399432e+01    0.2945175    0.1536763  84.95  0.001438318    1.799    0.444
        65 -11.1689      3.5083    154.4437   1.0869945499e+02   4.1667369876e+01    0.2788405    0.1075929 -78.92  0.001222835    2.208    0.547
        66 -11.2457      4.4035    136.7105   1.0708272009e+02   4.6037205146e+01    0.2597705     0.109671 -84.10  0.001136452    2.139    0.532
        67 -10.2843    248.3236    129.6663   4.5242181151e+01   7.6952658518e+00    0.1239791   0.08788049 -59.41 0.0007050699    1.708    0.415
        68 -10.4247      2.4112    127.2088   1.0687641612e+02   4.8562232510e+01    0.1923766     0.104965  87.64 0.0009525963    1.702    0.412
        69 -11.2960    248.4971    119.0028   4.3079843740e+01   9.3265363314e+00    0.2021648    0.1025654 -38.55  0.001035804    1.601    0.375
        70 -11.3731    249.0180     98.0102   3.8732462442e+01   1.2471280743e+01    0.2042471    0.1308622 -59.69  0.001140243    1.685    0.407
        71 -12.2005    248.7335     87.6011   3.6616466429e+01   1.4088976934e+01    0.3281618    0.1762856 -56.03  0.001684419    1.917    0.478
        72 -13.2053    248.8034     75.6431   3.4129025344e+01   1.5836876388e+01    0.6147568    0.2673546 -33.23  0.002901567    2.143    0.533
        73 -12.7577    248.6979     65.7214   3.2079331499e+01   1.7274568264e+01    0.6989107    0.1742087 -49.18  0.002453448    3.883    0.742
        74 -10.0516      3.3294     67.3269   9.8700512666e+01   6.3314701890e+01    0.1384479   0.07379565 -41.17 0.0007050837    1.706    0.414
        75 -12.3207    245.3576     48.0400   2.8702756436e+01   2.0317714199e+01    0.3016728     0.180476 -67.03  0.001732372    1.640    0.390
        76 -12.0980    249.3679     52.2182   2.9223150692e+01   1.9008659588e+01    0.3547158    0.1559373 -36.56  0.001790539    1.921    0.479
        77 -11.5605      3.6506     50.6685   9.4945485176e+01   6.7093780485e+01    0.3925086    0.1786553 -48.58  0.001999679    1.755    0.430
        78 -12.0571    211.8409    247.1600   7.1935181725e+01  -4.6934730924e+00    0.4490437    0.2220284   5.42  0.002155942    2.951    0.661
        79 -10.9365     45.4472    245.5587   1.0491560011e+02   1.7160427410e+01    0.3510552    0.1719819  53.62  0.001962697    1.681    0.405
        80 -11.0123     18.5722     31.1370   8.0258813918e+01   7.0025634558e+01    0.2490216    0.1324974 -19.85  0.001202257    2.283    0.562
        81 -11.1794     26.1365     16.5207   6.9085052200e+01   7.1717611734e+01    0.2553974    0.1383845 -25.56  0.001326269    1.974    0.493
        82 -11.8230     97.9671    245.1281   9.4005411058e+01   1.0686813146e+01    0.4163772    0.1575306  44.39  0.001910496    2.225    0.551
        83 -11.5497      3.2842    243.6743   1.1313131181e+02   2.1870014650e+01    0.3913341    0.2001653  60.93  0.002276144    1.491    0.329
        84 -11.9679     84.7254    244.4950   9.6714479001e+01   1.2548733061e+01    0.3662602    0.1563089  45.50  0.001804188    1.940    0.485
        85 -11.5596     57.0239    242.4328   1.0232717603e+02   1.6405166401e+01    0.5128913    0.2036807  51.12  0.002488777    2.158    0.537
        86 -11.5592      2.0807     40.5182   9.3146183662e+01   6.9373216187e+01    0.3185771    0.1484602 -61.79   0.00164003    1.869    0.465
        87 -12.1789    225.9208    241.1383   6.8622965419e+01  -5.5718805981e+00     0.331093    0.1780392 -13.88  0.001912207    2.022    0.505
        88 -11.4185     29.6044    240.9742   1.0785250743e+02   1.9786295228e+01    0.4331573    0.2059279  62.34  0.002142071    1.856    0.461
        89 -11.7002     15.7366    240.7153   1.1060488589e+02   2.1254931554e+01    0.5920383    0.1875272  47.56  0.002872649    2.210    0.547
        90 -11.2277    107.8476    241.2360   9.1528432001e+01   1.0046362444e+01     0.315926    0.1531685  49.12  0.001557295    2.005    0.501
        91 -10.1526     38.3272    240.9608   1.0608139292e+02   1.8844023941e+01    0.2317741    0.1185023  53.73  0.001318155    1.582    0.368
        92 -10.4920     64.6980    239.9937   1.0053667951e+02   1.5940051253e+01    0.2478461    0.1278687  52.09  0.001334557    1.675    0.403
        93 -10.5571     82.2911    237.2541   9.6560534048e+01   1.4222247768e+01    0.2429516    0.1354913  77.37  0.001185078    2.497    0.599
        94 -10.7675     44.8764    237.3898   1.0450399718e+02   1.8806910561e+01    0.3052615    0.1391347  52.77  0.001598491    1.834    0.455
