#   1 NUMBER                 Running object number                                     
#   2 MAG_AUTO               Kron-like elliptical aperture magnitude                    [mag]
#   3 X_IMAGE                Object position along x                                    [pixel]
#   4 Y_IMAGE                Object position along y                                    [pixel]
#   5 X_WORLD                Barycenter position along world x axis                     [deg]
#   6 Y_WORLD                Barycenter position along world y axis                     [deg]
#   7 A_WORLD                Profile RMS along major axis (world units)                 [deg]
#   8 B_WORLD                Profile RMS along minor axis (world units)                 [deg]
#   9 THETA_WORLD            Position angle (CCW/world-x)                               [deg]
#  10 FWHM_WORLD             FWHM assuming a gaussian core                              [deg]
#  11 ELONGATION             A_IMAGE/B_IMAGE                                           
#  12 ELLIPTICITY            1 - B_IMAGE/A_IMAGE                                       
         1 -15.8046    246.0811    131.9255   8.6748595503e+01   4.5489318504e+00     2.645137     1.432589 -33.30   0.00736244    1.779    0.438
         2 -14.7422      3.7600     59.6841   1.3175647042e+02   6.2442087434e+01     1.277209    0.3804535 -60.76  0.005389881    2.661    0.624
         3 -13.8941    176.6125     31.8852   7.2990107255e+01   3.7415405460e+01     1.105528    0.8359918  17.85  0.004511929    1.753    0.430
         4 -12.9900      2.5738     34.9290   1.2567006927e+02   6.7025270127e+01    0.7279929    0.3672309 -34.97  0.003081277    1.545    0.353
         5 -13.7854      3.3181     22.1776   1.2119428488e+02   6.9076712716e+01    0.6792677    0.3900324 -43.34  0.003366194    1.362    0.266
         6 -13.6509      3.3368     14.9197   1.1852554510e+02   7.0183944618e+01    0.6250494    0.3023768 -27.62  0.002679719    1.694    0.410
         7 -12.7683    248.1198      4.0357   5.8194411321e+01   2.3597619733e+01    0.6822376    0.3973083 -61.29  0.003930639    1.503    0.335
         8 -11.6021    195.4048      1.8403   6.2564216745e+01   3.6076308007e+01    0.4284099    0.1586503  70.24  0.001826806    2.288    0.563
         9 -10.1488    168.5112    217.4494   1.1914154324e+02   4.4161171627e+00    0.1364231         0.12  46.25 0.0001695245    1.018    0.018
        10 -12.4662    167.0414    250.0679   1.2436143900e+02  -7.1987203299e-01    0.8285981    0.1854142  43.38  0.002870013    3.631    0.725
        11  99.0000    166.1298    239.6035   1.2304230997e+02   1.0835916937e+00    0.8376577    0.5240878  51.15  0.004477943    1.452    0.311
        12 -14.3734    153.0333    238.5631   1.2538878386e+02   3.5558820555e+00      1.06275    0.6717067 -57.80  0.004526508    1.913    0.477
        13 -13.5614    154.4884    226.3355   1.2332839917e+02   5.4106056530e+00    0.7444962    0.5067143  69.34  0.002385201    1.797    0.444
        14 -12.5600    151.1447    218.6271   1.2281613051e+02   7.4176483513e+00    0.4787834    0.3977834 -61.12  0.001832735    1.348    0.258
        15  99.0000     24.0904    170.6665   1.4312666784e+02   3.6857633128e+01     2.118749     1.092039 -81.67   0.01165452    1.654    0.395
        16  99.0000    128.5706    230.0240   1.2893286825e+02   9.3386816478e+00     2.312298     1.361353 -77.63   0.01122419    2.363    0.577
        17 -15.1632    118.5261    198.6432   1.2648610333e+02   1.7334270639e+01     1.952388     1.356605 -77.62  0.007096474    1.588    0.370
        18 -16.7192     15.9164    116.8129   1.3850750948e+02   4.9678507278e+01     3.618197     1.612205 -76.76   0.01759776    2.178    0.541
        19 -16.8547     85.3944    190.4269   1.3239457559e+02   2.4655209385e+01     4.812696     2.540611 -89.73   0.01988561    2.729    0.634
        20 -15.5838     18.3221    217.5982   1.4814076421e+02   2.7492377175e+01      2.99698    0.9398213 -71.76   0.01491396    2.603    0.616
        21 -16.7553     62.7392    233.1993   1.4162212688e+02   1.9020906186e+01     1.494767    0.8571379  88.50  0.008727133    1.681    0.405
        22 -18.0039     85.6072    242.3738   1.3840834955e+02   1.3997625401e+01     3.146245     2.123879  51.61   0.01649624    1.266    0.210
        23 -19.3729     41.7344    144.3476   1.3592260325e+02   4.1054452158e+01     20.29832     1.201872 -64.98    0.0357483   13.695    0.927
        24 -11.4378    163.5194    213.4841   1.1949203372e+02   6.0658329602e+00    0.4327277    0.2539312 -32.50  0.001971815    2.360    0.576
        25 -10.3840    166.3262    211.3225   1.1856164277e+02   5.9339027918e+00    0.2784445    0.2299729 -36.90 0.0009944945    1.384    0.277
        26 -10.2653     28.6417    184.8089   1.4357923628e+02   3.3275628654e+01    0.1517163    0.1089583 -86.04 0.0003500828    1.087    0.080
        27 -10.3940    238.0430    180.3667   9.8603026123e+01  -2.2610764365e+00    0.2709179    0.1812367 -18.11  0.001366025    1.625    0.385
        28 -10.3605     62.1466    181.5627   1.3624096070e+02   3.0004369640e+01    0.2118677    0.1146819  45.06 0.0006681342    1.840    0.457
        29 -15.3246    248.0454    162.8696   9.3175474028e+01  -1.1783470541e+00     2.024266    0.6218724 -39.28  0.007201998    3.007    0.667
        30 -10.5879    146.4893    245.8565   1.2761697772e+02   3.4755829843e+00    0.2661334    0.1603688  61.54  0.001408082    1.786    0.440
        31 -13.3791    122.3773    164.9271   1.1983441980e+02   2.4068102515e+01    0.7659869    0.4738029 -49.45  0.002167204    1.648    0.393
        32  -9.3501     99.5269    162.8907   1.2487547807e+02   2.8649657937e+01    0.1934412    0.1332317 -59.34 0.0004410136    1.386    0.279
        33 -12.3270     88.8209    157.6635   1.2653110250e+02   3.1634986402e+01    0.3472707    0.2852321 -23.80  0.001174597    1.677    0.404
        34 -11.8040    163.6337    155.5082   1.0834864753e+02   1.7738124472e+01    0.2959157    0.2532445 -56.95  0.001500299    1.196    0.164
        35 -12.7506    133.7594    143.8101   1.1274663905e+02   2.6647942171e+01     1.101514     0.292994 -53.56  0.002889128    4.499    0.778
        36 -12.9818    174.1685    147.4077   1.0419021742e+02   1.7158625907e+01    0.6026433    0.3336092 -56.62  0.002324091    2.159    0.537
        37 -13.2210    143.3617    139.4630   1.0944233605e+02   2.5624737894e+01    0.4325715     0.351854 -41.93  0.002122886    1.263    0.208
        38 -12.8302    101.3345    142.5204   1.2055477837e+02   3.3112862550e+01    0.8481947    0.6188806  50.69  0.004077267    1.419    0.295
        39 -12.4845     68.7436    143.7075   1.2907868160e+02   3.7907587491e+01    0.6850913    0.3976786  71.80  0.002843217    2.449    0.592
        40 -14.3890    195.2131    126.8441   9.4854231207e+01   1.6617908144e+01     1.639298    0.6830468 -36.27  0.005629027    2.570    0.611
        41 -15.4867    204.5892    115.1554   9.0144644094e+01   1.6734960444e+01     2.069094     1.686929   6.48  0.008734223    1.573    0.364
        42 -13.3175    170.7332    136.7966   1.0247262297e+02   2.0174468616e+01     0.549503    0.3582536 -69.61  0.002172153    2.183    0.542
        43 -11.9254    112.9093    139.8765   1.1706212355e+02   3.1642504188e+01    0.4789344    0.2667657 -32.57  0.001785183    2.712    0.631
        44 -13.0954    207.2549    133.6649   9.4099614796e+01   1.2533624142e+01    0.4195618    0.3533496 -68.51  0.001734084    1.335    0.251
        45 -12.9364    124.8128    127.1597   1.1114219345e+02   3.2257811807e+01    0.5854191    0.3297847  67.22  0.002038702    3.002    0.667
        46 -12.0129    106.2416    128.9915   1.1637872191e+02   3.5399970538e+01    0.6346948    0.2968574 -47.87   0.00250145    2.053    0.513
        47 -10.1864      1.6471    127.0105   1.4347269740e+02   4.8399556514e+01    0.1626484    0.1157868 -72.58 0.0005733802    1.046    0.044
        48 -12.2043    118.5728    130.2278   1.1346004000e+02   3.2793921686e+01     0.359834    0.3012948 -34.62    0.0009618    1.297    0.229
        49 -13.0687    135.3979    121.9141   1.0718850535e+02   3.1241293387e+01    0.6728451    0.2546401 -52.29  0.002159068    2.908    0.656
        50 -12.1730    179.6241    226.0654   1.1835565039e+02   8.9203109206e-01    0.4403031    0.3353257 -56.16  0.001780256    1.598    0.374
        51 -11.2210    113.0383    119.3524   1.1232010217e+02   3.6342949059e+01    0.2592584    0.2062988 -38.79 0.0008562167    1.286    0.222
        52 -12.0041    168.2659    113.5042   9.7238284758e+01   2.5637956621e+01    0.3996463    0.2855573  77.18  0.001185567    1.832    0.454
        53 -14.1646    160.3888    128.4688   1.0280377969e+02   2.4297543317e+01    0.6953503    0.6039539 -72.03  0.003461521    1.233    0.189
        54 -10.5941     72.8550    111.1670   1.2150459500e+02   4.4919342187e+01    0.2928996    0.2314284 -57.52  0.001189452    1.141    0.123
        55 -12.2620    107.8365    110.6363   1.1155200834e+02   3.9283420739e+01    0.4191566    0.3305327 -43.50  0.001201811    1.224    0.183
        56 -11.6148     93.0061     97.5067   1.1230683850e+02   4.4811248082e+01    0.3281311    0.2714376  60.71  0.001449518    1.417    0.294
        57 -10.8196    216.0896     96.7664   8.3514433448e+01   1.7469971307e+01     0.401625    0.2294109  73.10  0.001574543    2.382    0.580
        58 -11.3728    213.4916     90.6174   8.2431795319e+01   1.9186900650e+01    0.4642307    0.4039135 -17.40  0.002440027    1.327    0.247
        59 -11.5457    226.2406     93.0656   8.0929791271e+01   1.5761553751e+01    0.4217114    0.3720267  77.34  0.001477546    1.168    0.144
        60 -13.3412     15.1876     88.9777   1.3408425755e+02   5.5806613521e+01    0.6075672    0.5091916  69.89  0.002670944    1.495    0.331
        61 -12.4044      3.2788     86.9118   1.3735116888e+02   5.6971728261e+01    0.4897542    0.4164383  76.00  0.002627781    1.436    0.304
        62 -13.5772      5.3339     77.2669   1.3494399741e+02   5.8857154669e+01    0.5941996    0.4320164 -55.91  0.002602058    1.037    0.036
        63 -12.5734    248.6171    235.8435   1.0721974482e+02  -1.2137358071e+01    0.7070923    0.5816643 -43.30  0.004758755    1.687    0.407
        64 -13.4635    232.2991     78.3438   7.6476790783e+01   1.6875072847e+01    0.9637534    0.9049475 -41.09  0.003285661    1.143    0.125
        65 -10.9790    197.1381     69.8314   7.9896127832e+01   2.6752613311e+01    0.5051193    0.2963215 -79.87  0.001866494    2.797    0.642
        66 -11.2216    232.0106     49.3702   6.9684733630e+01   2.1461573313e+01    0.3754345    0.2848655 -51.05  0.002094085    1.222    0.182
        67 -12.4287    163.2282     47.2314   7.9744230428e+01   3.8696126205e+01    0.3734736    0.3661413  16.68  0.001037697    1.096    0.088
        68 -12.3111    244.8298     43.0545   6.6760516743e+01   1.9413590996e+01    0.5253482    0.1706961 -45.07  0.002057657    2.674    0.626
        69  99.0000    223.4440    199.2156   1.0507056053e+02  -2.6950741526e+00      2.47278        1.906  -9.51    0.0107082    1.361    0.265
        70 -12.6160    180.2106     25.2191   7.0594226606e+01   3.7325046955e+01    0.5005637    0.4261469  38.32  0.001335103    1.313    0.238
        71 -15.1727    238.0265    218.3906   1.0599011449e+02  -8.1319099722e+00     1.105583      1.05735  55.53  0.004852961    1.434    0.303
        72 -14.8884    240.9205    206.8823   1.0332389063e+02  -6.9356906566e+00     1.217494    0.8904197  17.97   0.00504385    1.308    0.236
        73 -10.3151    227.9202    236.2369   1.1096461455e+02  -8.9681013066e+00    0.4379413    0.2228833 -27.48   0.00222838    2.262    0.558
        74 -10.7958    221.9218    235.4978   1.1192943303e+02  -7.8926642217e+00    0.5295091    0.3135415  34.87  0.001869901    1.459    0.314
        75 -10.9584    189.0995    231.7980   1.1745628257e+02  -1.7305836728e+00    0.6232851    0.4377487 -52.85  0.002454286    1.785    0.440
