#   1 NUMBER                 Running object number                                     
#   2 MAG_AUTO               Kron-like elliptical aperture magnitude                    [mag]
#   3 X_IMAGE                Object position along x                                    [pixel]
#   4 Y_IMAGE                Object position along y                                    [pixel]
#   5 X_WORLD                Barycenter position along world x axis                     [deg]
#   6 Y_WORLD                Barycenter position along world y axis                     [deg]
#   7 A_WORLD                Profile RMS along major axis (world units)                 [deg]
#   8 B_WORLD                Profile RMS along minor axis (world units)                 [deg]
#   9 THETA_WORLD            Position angle (CCW/world-x)                               [deg]
#  10 FWHM_WORLD             FWHM assuming a gaussian core                              [deg]
#  11 ELONGATION             A_IMAGE/B_IMAGE                                           
#  12 ELLIPTICITY            1 - B_IMAGE/A_IMAGE                                       
         1 -11.9988    239.2450     22.4945   3.1303290401e+01   2.4559287724e+01    0.9956963    0.1940275 -39.53  0.002416233    3.587    0.721
         2 -11.6960     30.2954     20.9031   7.6781060366e+01   6.8868142085e+01    0.3951157    0.3126104 -37.43  0.002631434    1.537    0.349
         3 -11.8446    111.6043     19.2163   4.7383183699e+01   5.3928449799e+01    0.3912578    0.3287746  84.64  0.000813502    1.350    0.259
         4 -11.2199    155.0486     15.9176   3.8571999657e+01   4.4004563953e+01    0.6314206    0.2776402 -14.29  0.002506376    3.775    0.735
         5 -11.5412     55.8966     15.9578   6.2851185210e+01   6.5680805796e+01    0.6305648    0.2725097 -24.00   0.00296064    2.544    0.607
         6 -10.5893     59.2124     11.6955   5.9613557689e+01   6.5560856211e+01    0.3622701    0.1832967 -31.24  0.001608108    2.162    0.538
         7 -10.6666    101.2542     15.8985   4.8595205827e+01   5.6591571173e+01    0.2729649    0.2007641  22.72 0.0004363661    1.424    0.298
         8 -11.8577    182.8220     13.2118   3.4419857631e+01   3.7753368324e+01    0.5395411    0.2899247  61.50  0.001775526    1.695    0.410
         9 -10.0920    188.4208      8.7544   3.2772204813e+01   3.6919112760e+01    0.2507837     0.186705  20.37  0.001067817    2.076    0.518
        10 -10.6835     20.1798     15.4996   7.9633391451e+01   7.0818966426e+01    0.3684896    0.2158365 -43.12  0.001557342    1.932    0.483
        11 -11.8762     24.5740     13.2977   7.6175209672e+01   7.0623392039e+01     0.590696    0.2284551 -42.09  0.002817204    2.895    0.655
        12 -12.2685    122.4634     11.0800   4.2389938145e+01   5.2180595685e+01    0.5022159    0.2515721  53.41 0.0007566988    1.655    0.396
        13 -10.3817     47.7446      8.4729   6.2657264884e+01   6.7879090764e+01    0.2472978    0.2010588  -4.41   0.00111608    1.196    0.164
        14  -9.8730    250.4768      9.4734   2.8059183208e+01   2.3856012423e+01    0.1126475   0.08353442 -68.47 0.0001955811    1.010    0.010
        15  -9.7560    217.1676      8.2327   3.0138896335e+01   3.0663196281e+01    0.2462139    0.1332624 -45.60  0.001435824    1.668    0.401
        16 -10.3850    210.0306      8.7472   3.0820700967e+01   3.2133259563e+01    0.2213848    0.1720845 -86.69 0.0007053419    1.071    0.066
        17 -10.4087    212.6754      5.8999   3.0002334309e+01   3.1856363722e+01    0.3025439    0.2300657 -28.18  0.001915321    1.628    0.386
        18 -11.9068     14.1658      7.5810   7.9181354168e+01   7.2558870927e+01    0.3785777    0.2894317  25.64  0.001639634    1.526    0.345
        19 -12.1552      4.8782      5.1178   8.3619664426e+01   7.3783534290e+01    0.4886961    0.2925825 -23.75            0    1.343    0.255
        20 -10.7021    127.7308      4.6729   3.9388550917e+01   5.1489284971e+01    0.2528482    0.2147283 -54.71 0.0008381582    1.349    0.258
        21  -9.9782    107.6909      5.2255   4.3265632463e+01   5.6080695083e+01    0.4404328    0.1494645 -43.25  0.001646804    4.244    0.764
        22 -10.1817    102.6044      2.0277   4.3166610793e+01   5.7477500558e+01    0.2971743    0.1636192  73.22 0.0009525312    1.929    0.481
        23  -9.7023     40.9144      5.3772   6.4096558985e+01   6.9304746302e+01    0.1716821       0.1304  -2.65 0.0002404938    1.182    0.154
        24  -8.9545     65.2618      5.3889   5.4570770364e+01   6.5045879524e+01    0.1291937   0.07692211  20.83 0.0006975569    1.695    0.410
        25 -11.3964     89.9146      2.5778   4.6259545675e+01   6.0233288073e+01     0.427635    0.2557851  68.91  0.002302924    1.766    0.434
        26 -10.8080     78.5075      7.1316   5.1177268393e+01   6.2265620182e+01    0.3024284    0.2354309  10.80  0.001934477    1.285    0.222
        27  -9.5527     24.7753      1.3589   6.9913292620e+01   7.2073429362e+01    0.1606388   0.08504531  24.87 0.0008579179    1.634    0.388
        28  -9.0089     76.9500      1.0000   4.9020786601e+01   6.3088805116e+01    0.2011055   0.05926605  57.40 0.0007929148    2.877    0.652
        29  -8.8896     57.6918    118.3385   9.5872236164e+01   4.5571535709e+01    0.1466475     0.111856  74.25 0.0007043092    1.683    0.406
        30  -9.8829     27.0872    116.3892   1.0591740537e+02   4.9277429478e+01    0.2017243    0.1576178 -22.50 0.0007751333    1.400    0.286
        31  -9.6293     11.3058    114.8881   1.1099876952e+02   5.0797568465e+01    0.1872057    0.1390711 -61.19 0.0005694202    1.109    0.099
        32 -10.5144    242.1192    112.4276   4.9519628052e+01   1.0928653166e+01    0.2882218    0.1471256 -51.34  0.001343152    1.946    0.486
        33  -9.1796     62.9775    111.7365   9.2604103545e+01   4.6509557085e+01    0.1797586    0.1286025  26.08 0.0008585986    1.492    0.330
        34  -9.7221     50.2012    111.5973   9.7006713880e+01   4.8162566699e+01    0.1818272     0.136264   2.65 0.0003795979    1.537    0.349
        35 -10.1203      2.1076    111.1613   1.1355371198e+02   5.2228841929e+01     0.190894    0.1766702  65.28 0.0005809026    1.256    0.204
        36  -9.3924     28.2398    109.8260   1.0437229966e+02   5.0811639266e+01    0.1925017    0.1372394 -39.80 0.0007788943    1.325    0.246
        37  -9.8140    100.7441    109.1183   7.9501149363e+01   4.0961036065e+01    0.2282153    0.2159221 -73.71 0.0009363468    1.164    0.141
        38 -10.0550     20.7945    109.5629   1.0693495720e+02   5.1466355114e+01    0.1659569    0.1221675  36.98  0.000415275    1.573    0.364
        39 -10.2171      6.2749    108.5732   1.1179778618e+02   5.2641026603e+01    0.2553711     0.177063 -80.71  0.001041902    1.368    0.269
        40 -10.0401    238.0975    107.3419   4.9009972752e+01   1.2508870017e+01    0.2366441    0.1685891 -32.31  0.001318973    1.340    0.254
        41  -9.2703    119.4984    107.5562   7.3496750011e+01   3.7593156037e+01    0.1554173    0.1507478  -1.15 9.163925e-05    1.012    0.012
        42 -10.4644     79.8415    103.5208   8.4792389540e+01   4.5949519449e+01    0.4332766    0.2695294  13.39  0.001315899    2.134    0.531
        43 -10.1911      8.7833    103.1511   1.1012056617e+02   5.3818531636e+01    0.2233838    0.1558704 -77.92 0.0009591441    1.369    0.269
        44  -9.4368     12.1919    101.4104   1.0862447160e+02   5.4038409085e+01    0.1722696    0.1302829   5.72 0.0004217295    1.533    0.348
        45  -9.4434    249.3549    103.3047   4.6655913884e+01   1.1144408286e+01    0.1222802   0.09775319  -2.17 0.0007040581    1.714    0.417
        46  -9.5151     53.5957     97.7611   9.2597624437e+01   5.1102319024e+01    0.1936794    0.1328081 -65.25 0.0007390132    1.580    0.367
        47  -9.9036     69.0364     96.1480   8.6578546917e+01   4.9354959215e+01    0.2599593    0.1974062 -46.60 0.0005498742    1.243    0.195
        48  -9.9601    147.9702     96.0638   6.2870131590e+01   3.3766926469e+01    0.2248126     0.221145  28.17  0.000317023    1.022    0.021
        49 -10.3605     16.3708     95.3825   1.0603243862e+02   5.5220537242e+01    0.2213708    0.2003838 -71.58 0.0004596009    1.164    0.141
        50  -9.3712     79.3462     95.3322   8.2737856678e+01   4.7911108063e+01    0.1596251    0.1118779 -14.14 0.0007049644    1.763    0.433
        51 -10.4298    116.6520     93.6205   7.0405218022e+01   4.1176144002e+01    0.2689311    0.2489162  76.30  0.000795782    1.227    0.185
        52  -9.0697     35.3169     94.3330   9.8637375630e+01   5.3934155891e+01    0.1487709    0.0886533 -33.17 0.0007047509    1.690    0.408
        53  -9.1421      1.2872     94.2675   1.1144557795e+02   5.6330305395e+01    0.1696826    0.0974586 -74.50 0.0005974792    1.580    0.367
        54  -9.8432     44.3739     92.5862   9.4775087024e+01   5.3408304432e+01    0.2614163    0.2068439  87.13 0.0008312688    1.705    0.413
        55 -10.1228     74.4959     91.0662   8.3230549997e+01   4.9658813783e+01    0.3459612    0.1236581 -43.77  0.001191875    2.707    0.631
        56 -10.5819     34.4203     89.6871   9.7914853017e+01   5.5113190505e+01    0.3155695    0.1805731  19.81 0.0008209617    1.920    0.479
        57 -11.1588    120.5550     87.4677   6.7498714402e+01   4.1590235111e+01    0.3975309      0.31105  87.85  0.001013723    1.802    0.445
        58 -10.1770    123.9913     85.2727   6.5901842460e+01   4.1270014921e+01    0.3289048     0.212763 -32.61  0.001257966    1.653    0.395
        59  -9.3148     56.3343     88.6703   8.9218142828e+01   5.2857405390e+01    0.1387998    0.1129568  72.61 0.0007052054    1.725    0.420
        60  -9.6749    139.0222     87.0244   6.2510375476e+01   3.7557103036e+01    0.2336306    0.1855113 -77.10 0.0003609466    1.602    0.376
        61  -9.7444    131.6390     86.1069   6.4115319243e+01   3.9405076842e+01    0.2116282    0.1910488 -31.17  0.000574265    1.127    0.113
        62 -10.3544     29.0324     85.2595   9.9001125925e+01   5.6632164852e+01    0.2264115     0.217069 -22.44 0.0006445674    1.154    0.133
        63 -11.1664     75.9957     83.1315   8.0371741438e+01   5.1141748904e+01    0.2739426    0.2593601  22.99 0.0003125997    1.126    0.112
        64 -11.6562     80.0934     80.9989   7.8269902394e+01   5.0895193218e+01     0.323814    0.2589222 -51.19  0.001683721    1.346    0.257
        65 -10.7366    112.7862     81.4466   6.7902802367e+01   4.4443876065e+01    0.2665854    0.2544585 -16.62 0.0002780132    1.047    0.045
        66 -10.2550     54.3066     80.6854   8.7763337952e+01   5.4903709073e+01    0.2619814    0.2042599 -55.02  0.001094335    1.342    0.255
        67  -9.2349     93.2701     81.6965   7.4013287554e+01   4.8348802648e+01    0.1386544    0.1204276 -87.36 0.0002052487    1.533    0.347
        68 -10.6215    104.4556     78.9694   6.9622530729e+01   4.6669279800e+01     0.333425    0.2458725 -48.66  0.001144574    1.460    0.315
        69  -9.3259     85.0278     80.0491   7.6263499379e+01   5.0217766896e+01     0.179438    0.1603793  19.63 0.0005215309    1.089    0.082
        70  -9.2128    133.8469     79.1190   6.1498510322e+01   4.0217154870e+01    0.2010206    0.1736516  12.77  0.001027565    1.289    0.224
        71 -11.7701     76.8767     75.3335   7.7638457281e+01   5.2609360733e+01    0.6205607     0.326816  26.74  0.002444393    2.152    0.535
        72  -9.1738     36.9772     76.9207   9.3666830703e+01   5.7762489081e+01     0.162985    0.1339605 -37.84 0.0004530532    1.054    0.051
        73  -9.8354     98.9500     76.2798   7.0487731117e+01   4.8308477411e+01    0.2069319    0.1847699  31.40 0.0003987313    1.090    0.083
        74 -10.3644     51.7127     76.1899   8.7473118423e+01   5.6214660371e+01     0.383424    0.1849681  16.96  0.001365136    2.648    0.622
        75  -9.9750      4.6895     75.6635   1.0683876118e+02   6.0479331843e+01    0.2246245    0.1308341 -51.95 0.0007738871    1.332    0.249
        76 -10.5172      1.9624     73.2536   1.0749515283e+02   6.1149816893e+01    0.2206862    0.1828589 -16.87 0.0004340751    1.252    0.201
        77  -9.2684     25.1490     73.8093   9.7795036345e+01   5.9548069141e+01    0.1795643    0.1239003 -33.16 0.0002373211    1.276    0.216
        78 -10.0474    103.8932     72.8099   6.7846866483e+01   4.7956679965e+01    0.2137306    0.1876059  10.20 0.0002968127    1.147    0.128
        79 -12.2986    137.2097     69.2004   5.7719796885e+01   4.1188191997e+01    0.5008246    0.3465078  55.21 0.0006138009    1.413    0.292
        80  -9.2038    121.3344     73.2798   6.2987220725e+01   4.4105797192e+01    0.1522341    0.1139726  17.44 0.0002105056    1.611    0.379
        81 -10.0861     63.7543     70.7331   8.1049927732e+01   5.5658284306e+01    0.2991647    0.1832612  32.45  0.001447513    1.647    0.393
        82 -10.9611     97.2186     69.4896   6.8845528193e+01   4.9936148445e+01    0.2790824    0.2483883 -35.19 0.0005288775    1.165    0.142
        83 -10.2437    100.7158     67.3661   6.7052665960e+01   4.9608257319e+01    0.2900088      0.19262 -57.40  0.001295581    2.021    0.505
        84 -10.3169     99.3823     64.2640   6.6435725847e+01   5.0432706509e+01    0.2386919    0.1950393 -15.85 0.0003117651    1.278    0.217
        85  -9.9530     34.1475     69.7470   9.2856001513e+01   5.9607107642e+01    0.2627219    0.1316678 -33.29  0.000848179    1.977    0.494
        86  -9.1403     17.7342     70.6533   1.0017753568e+02   6.0814317277e+01    0.1384161   0.07503923 -36.93 0.0003224228    1.610    0.379
        87 -11.5834    155.2525     68.2176   5.3446842679e+01   3.7101639983e+01    0.3961007    0.2772119 -74.73 0.0009541344    1.897    0.473
        88 -10.8255    121.1862     66.1294   6.0787771979e+01   4.5388884772e+01    0.2449374    0.2345435   8.63  0.001384832    1.048    0.046
        89  -9.3807     90.8237     66.7883   7.0021073556e+01   5.1698319143e+01    0.2519475    0.1535731   2.55 0.0009495082    2.847    0.649
        90 -10.2946     70.9474     66.1727   7.6814037741e+01   5.5409868952e+01    0.2244684    0.1892744 -24.13 0.0003173896    1.118    0.106
        91 -10.1373      3.6185     65.0571   1.0504486470e+02   6.2880431136e+01     0.199096    0.1626214  29.94 0.0005477124    1.533    0.348
        92 -10.0127     43.8821     63.4764   8.6783384875e+01   5.9834932840e+01    0.2806812    0.2191125  79.01  0.001447529    2.296    0.564
        93  -9.2656     32.4924     63.4940   9.1736940175e+01   6.1086910814e+01    0.1319555     0.111478 -26.38 0.0008104899    1.025    0.024
        94  -9.2309     16.6708     63.2900   9.8756778853e+01   6.2480757641e+01    0.1126735   0.09750494  61.17 0.0007017116    1.621    0.383
        95 -10.5185    110.5543     64.7590   6.3272501910e+01   4.7978525217e+01    0.3564022    0.2940035 -62.71  0.001352447    1.499    0.333
        96 -11.6407     59.8351     59.0890   7.8688631913e+01   5.8513807458e+01     0.258945    0.2305456 -23.61 0.0003311898    1.123    0.110
        97  -9.6443     50.8832     59.6066   8.2538578369e+01   5.9700406118e+01    0.1792758    0.1512231  12.66 0.0003893624    1.150    0.131
        98 -11.2265      4.0056     59.5322   1.0357885546e+02   6.4047294677e+01    0.2189014    0.1688555 -40.69 0.0004409132    1.008    0.008
        99 -10.8630    199.9300     56.2842   4.2778186429e+01   2.8515716234e+01    0.4324533    0.2927866  11.23  0.001918904    2.935    0.659
       100 -11.1594     95.7681     56.7608   6.5007145948e+01   5.2450892501e+01    0.3560431    0.2468102 -15.35  0.001733726    1.679    0.404
       101 -10.4926    103.3737     58.7177   6.3356730162e+01   5.0538653477e+01    0.3338649    0.1802033  49.11 0.0008866369    1.798    0.444
       102 -10.0052    111.5835     55.3437   5.9871540929e+01   4.9297120139e+01    0.2814526    0.2181688  81.94  0.001394554    1.763    0.433
       103  -9.5876     69.2230     55.6201   7.3792574529e+01   5.7637137943e+01    0.1830316    0.1673448 -14.56 0.0006575975    1.120    0.107
       104 -10.1115    206.4281     52.5628   4.1044378714e+01   2.7599113477e+01     0.367905    0.2280502 -14.94  0.001684802    2.644    0.622
       105 -10.7366    202.4269     50.5024   4.1070616504e+01   2.8775951078e+01    0.3567069    0.2154478 -48.03   0.00185343    1.549    0.355
       106 -10.3361    135.4581     53.8466   5.3444331162e+01   4.4040507086e+01    0.2647678    0.1966722  56.32  0.001150147    1.266    0.210
       107 -10.4035    161.9686     53.0650   4.7887629071e+01   3.7831796337e+01    0.2612479    0.2011996  48.25  0.001395481    1.316    0.240
       108  -9.0696     44.5084     52.5056   8.2802868348e+01   6.1880117423e+01    0.1334948    0.1121957 -12.31 0.0008106079    1.004    0.004
       109 -10.9871     84.8234     47.3739   6.5193598772e+01   5.6143121409e+01     0.365936    0.2461973 -22.73  0.001870867    1.583    0.368
       110 -10.5043    212.2330     49.9533   3.9731560793e+01   2.6691188301e+01    0.2134198    0.1776015  79.89 0.0005018075    1.169    0.145
       111  -9.2194    126.3055     50.6717   5.4560234456e+01   4.6653302832e+01    0.1418024    0.1108541 -76.15 0.0005088498    1.653    0.395
       112  -9.8127    105.1206     49.4231   5.9662548651e+01   5.1622660995e+01    0.4020112    0.2211864  71.50  0.001396732    3.707    0.730
       113  -9.7790     55.2270     50.0100   7.7304477524e+01   6.0846196683e+01    0.2069122    0.1558652  -9.39 0.0004302292    1.266    0.210
       114 -10.8955     58.7490     47.7102   7.4992309023e+01   6.0704226029e+01    0.2770118    0.2100886 -12.10  0.001276908    1.254    0.202
       115  -9.8836    233.3224     48.1956   3.7037687289e+01   2.2505900082e+01    0.2202106    0.1312894 -49.15 0.0006945462    1.439    0.305
       116  -9.0063    111.6400     49.2997   5.7819371940e+01   5.0202720038e+01    0.1404556    0.1122421 -86.60 0.0007035766    1.715    0.417
       117 -10.7506    150.9686     57.5011   5.1243360153e+01   3.9806670088e+01    0.2315596    0.1817391  82.31 0.0009570728    1.397    0.284
       118 -10.9790     26.8663     47.8703   8.9289719762e+01   6.4734409083e+01    0.4098178    0.2175289  -3.11  0.001956238    2.313    0.568
       119 -10.7810    136.7415     46.6649   5.0940839322e+01   4.4766639860e+01    0.2428776    0.2204861  73.38 0.0003406035    1.094    0.086
       120  -9.7983     17.7145     50.5609   9.4590113497e+01   6.5015365844e+01    0.2108491    0.1130075   7.95 0.0008769303    1.989    0.497
       121  -9.3114     46.1244     47.1292   8.0130093308e+01   6.2639744224e+01    0.1571441    0.1472058  -6.85 0.0002529659    1.252    0.201
       122  -9.3736     41.7231     44.5686   8.1135723868e+01   6.3665003172e+01    0.2520316    0.2073545  86.29  0.001380381    2.403    0.584
       123 -10.3791    166.9637     43.3355   4.4353215881e+01   3.7983287213e+01    0.2880288     0.216134  73.99 0.0008204831    1.269    0.212
       124 -10.1859    141.4246     43.5173   4.9005544958e+01   4.4078475243e+01    0.3297351    0.1515885  52.57 0.0009086613    1.958    0.489
       125 -10.6134    108.1539     43.4476   5.6746624573e+01   5.1816449978e+01    0.3491876    0.2410909  60.19  0.001055659    1.509    0.337
       126  -9.8769    235.5069     42.4972   3.5642405721e+01   2.2824713667e+01    0.1233591    0.1002636 -66.45 0.0008106494    1.004    0.004
       127 -10.2195     56.7673     41.7795   7.3516476306e+01   6.1989983631e+01    0.2653342    0.1629692  28.41 0.0003031987    1.540    0.351
       128  -9.8750     60.2255     40.9940   7.1795006838e+01   6.1561679205e+01    0.1841069    0.1283525 -32.03  0.001020712    1.427    0.299
       129 -10.2620    247.4857     41.4813   3.4352203339e+01   2.0605244233e+01    0.1191259   0.09591034 -64.04 0.0005671689    1.024    0.023
       130  -8.8886    149.3105     41.3239   4.6830529340e+01   4.2478160529e+01    0.1406515    0.1016865  31.54 0.0002275216    1.654    0.395
       131  -9.1283     97.9917     40.9771   5.8720929845e+01   5.4374025179e+01    0.1624187    0.1482981  16.43 0.0005242456    1.057    0.054
       132  -9.9099    181.9527     38.2226   4.0774982788e+01   3.5102164032e+01    0.2069986    0.1805556 -54.49 0.0004210166    1.152    0.132
       133  -9.9877    186.0409     46.9982   4.2427204063e+01   3.2994323282e+01    0.1652358    0.1468882  89.90 0.0004859384    1.026    0.025
       134 -10.1285     80.9260     38.6752   6.3222143245e+01   5.8187938173e+01    0.1866435    0.1567433  33.54 0.0003439689    1.101    0.092
       135  -9.2624    148.6237     37.7629   4.5907640411e+01   4.3098203224e+01    0.1739503    0.1252205 -44.39 0.0004105203    1.483    0.326
       136  -9.3303    134.4970     38.4632   4.8854256280e+01   4.6387771304e+01     0.139208    0.1244536  51.53 9.739363e-05    1.042    0.040
       137  -9.2341     35.8019     38.4412   8.1521972972e+01   6.5453112845e+01    0.1656248    0.1069055  10.11 0.0003915137    1.510    0.338
       138  -9.7222    127.6414     36.8423   4.9790186236e+01   4.8213605760e+01    0.2537195    0.1659224  49.76  0.001291239    1.379    0.275
       139  -9.9380     48.3283     36.8329   7.5133499073e+01   6.4048697247e+01    0.1838125     0.158631 -42.14 0.0006854347    1.475    0.322
       140  -9.2640    170.5108     36.5831   4.1981035841e+01   3.8006242451e+01    0.1336677    0.1190795  78.58 9.629022e-05    1.028    0.027
       141  -9.4102    216.0139     35.4922   3.6078464548e+01   2.7781557272e+01    0.1643028   0.09201328  47.15 0.0006894431    2.375    0.579
       142 -10.0523     43.7026     34.9796   7.6443799918e+01   6.4995577876e+01    0.1757067    0.1429623 -14.36  0.000394944    1.098    0.089
       143  -9.6825    193.5007     33.9793   3.8238141511e+01   3.2964275101e+01     0.287807    0.1281703  51.46  0.001269762    2.468    0.595
       144 -12.0478    237.7988     27.1269   3.2331813099e+01   2.4297164338e+01    0.4850752    0.3636904 -20.98  0.001345474    1.860    0.462
       145 -12.1869     76.5618    219.4161   1.0628273650e+02   1.8154352716e+01    0.6965964    0.5890833   1.12   0.00313089    1.516    0.340
       146  -9.4500    120.5644     32.6663   4.9983341873e+01   5.0380727640e+01    0.1758504    0.1271094 -43.12 0.0009376985    1.567    0.362
       147 -10.3339    115.9389     30.9441   5.0462141611e+01   5.1655218150e+01    0.2470001     0.197442  21.70 0.0005222767    1.344    0.256
       148  -9.9754     78.8598     30.9960   6.0903361220e+01   5.9626316387e+01     0.201078    0.1712816  18.85 0.0005527346    1.032    0.031
       149 -10.2700     81.4681     27.0861   5.8485378512e+01   5.9595391892e+01    0.2647891    0.2290178 -56.82  0.001456696    1.583    0.368
       150 -10.8004     15.2343     28.8407   8.8184488728e+01   6.9212449755e+01    0.2673607    0.1971682  -1.99 0.0008069474    1.178    0.151
       151  -9.1101    201.4766     29.4149   3.6246219425e+01   3.1716948366e+01    0.1281431    0.1055693 -79.17 4.447622e-05    1.048    0.046
       152  -9.9919    109.3556     29.3749   5.1494396834e+01   5.3341201109e+01    0.4631156    0.1209116  52.78  0.001608642    3.063    0.674
       153 -10.5847     47.4070     28.4248   7.2007113700e+01   6.5447704780e+01     0.218564    0.1936046  14.60   0.00081446    1.231    0.187
       154  -9.3404    215.7828     28.4299   3.4557372449e+01   2.8699436590e+01    0.1645394    0.1038371  62.76 0.0009417736    1.611    0.379
       155 -10.4270    183.6327     26.3216   3.7560629599e+01   3.6148790496e+01    0.2965725    0.1906389  52.86 0.0009604092    1.626    0.385
       156  -9.5603    206.5193     26.0390   3.4945818247e+01   3.0997744363e+01    0.1771884    0.1144769 -39.38  0.000741958    1.546    0.353
       157  -9.9438    121.7267     26.0702   4.7521561236e+01   5.0866951086e+01     0.230275    0.1719736  69.97 0.0005897223    1.328    0.247
       158  -9.5992     35.0666     25.7710   7.6590110655e+01   6.7555126029e+01    0.1697639    0.1324258   5.02  0.000447858    1.063    0.059
       159  -9.2488     98.5719     23.7932   5.2216972953e+01   5.6372630397e+01    0.1704415    0.1211832 -40.62 0.0009356046    1.667    0.400
       160 -12.3604     68.4305    217.9249   1.0799442631e+02   1.9579329464e+01    0.7108883    0.6416535  52.08  0.004222616    1.078    0.073
       161 -10.1100    226.6293     23.0004   3.2425035002e+01   2.7054764723e+01    0.1678015    0.1343568 -61.00 0.0005594362    1.098    0.089
       162  -9.7115      2.3876     27.2377   9.4739412321e+01   7.0442856745e+01    0.1499289    0.1002616 -55.44 0.0009485128    1.649    0.394
       163 -10.4637    248.5881     22.1925   3.0548616474e+01   2.2776486948e+01    0.1862182    0.1247705 -79.56 0.0004348064    1.302    0.232
       164  -9.9414    164.2872     22.0644   3.8970486339e+01   4.1171767323e+01    0.2389853    0.1582934  47.68   0.00118037    1.591    0.371
       165  -9.9925    248.7588    211.6152   6.8044100187e+01  -6.3920560227e+00    0.1531204    0.1087211  34.21 0.0008529108    1.665    0.399
       166  -9.7077      1.5755     21.6979   9.3103639923e+01   7.1452173081e+01     0.219874   0.08243159 -46.24  0.001136835    2.108    0.526
       167  -9.5996    142.0195     21.4996   4.2214155906e+01   4.6548262323e+01    0.2027619    0.1140927  62.12 0.0005554589    1.532    0.347
       168  -9.2949     15.5052     21.4994   8.4973658282e+01   7.0388496670e+01    0.1183452   0.09181913 -12.12 0.0008102149    1.048    0.045
       169  -9.2580     69.3626     19.7424   5.9500623228e+01   6.2814096650e+01    0.1650038    0.1126855 -10.45 0.0009362342    1.540    0.351
       170 -11.0613    149.9173     18.5617   4.0079595898e+01   4.4963203141e+01    0.2902294    0.2348143  75.29 0.0006588997    1.096    0.087
       171 -10.9413     59.4232    209.2449   1.0916285658e+02   2.2701297294e+01    0.3870315    0.2277092  50.39  0.001976556    1.586    0.370
       172  -9.6444    119.8539     18.8577   4.5494486011e+01   5.2058660108e+01    0.1988739    0.1571354  39.53 0.0004588615    1.215    0.177
       173  -9.4781    124.0026    205.8314   9.3146173402e+01   1.3936934384e+01    0.1875165    0.1680834  32.47  0.001058793    1.039    0.038
       174  -8.8987      1.0000    184.9683   1.2072479162e+02   3.4326021425e+01    0.2039907   0.05824664 -77.68 0.0008026722    2.944    0.660
       175 -11.2555    249.1338    183.3504   6.2740050146e+01  -2.0750604568e+00    0.2605413    0.1658311 -38.38  0.001487597    1.408    0.290
       176  -9.3268     37.3129     17.3360   7.1645396389e+01   6.8429362698e+01    0.1285339   0.07869491   2.14 0.0007045848    1.688    0.407
       177 -10.6513    236.1718    179.3887   6.4175531702e+01   4.4377512477e-01    0.1712729    0.1234196  47.14 0.0009567713    1.808    0.447
       178  -9.4821      2.4526    153.5612   1.1797826979e+02   4.1770899138e+01     0.126405     0.103557 -84.09 0.0001203143    1.016    0.015
       179 -10.4432     77.4352     16.2791   5.5346895094e+01   6.1613518197e+01    0.1622014    0.1517877  69.51  0.001070399    1.369    0.270
       180  -9.2114     63.1653    149.8315   1.0012952393e+02   3.6844964906e+01      0.20013    0.1616686 -38.31 0.0004432598    1.313    0.239
       181 -10.2930     21.7228    141.9344   1.1133289997e+02   4.3273889901e+01    0.2174783    0.1879222  44.94 0.0002915834    1.282    0.220
       182 -10.4387     10.4803     15.4889   8.5179530489e+01   7.1776163319e+01    0.2276613    0.1672864  -3.72 0.0008225243    1.100    0.091
       183  -9.0971      7.4785     12.4648   8.5578415480e+01   7.2493171028e+01    0.1151188   0.08548579 -12.49 0.0001887767    1.024    0.023
       184  -9.8469     84.9241     14.2608   5.2266036242e+01   6.0280216688e+01    0.1882052    0.1430065  43.64 0.0006691777    1.110    0.099
       185 -10.0383     28.2914    141.3051   1.0929231713e+02   4.2875857562e+01    0.1823324    0.1739061  72.71 0.0002146487    1.132    0.117
       186  -9.4553     93.5357     10.4918   4.8456132630e+01   5.8791300343e+01    0.2034202    0.1163251  69.17 0.0007523008    1.988    0.497
       187 -11.1065     29.2851    137.9114   1.0852266370e+02   4.3650681492e+01    0.2497561    0.2234143 -42.82 0.0003398603    1.167    0.143
       188  -9.3258     39.8228     10.4314   6.7123299824e+01   6.8915032697e+01    0.1645602   0.09265215  26.50 0.0004326922    1.562    0.360
       189 -12.9638    220.5786    116.1452   5.3563937993e+01   1.4295823699e+01     2.014416    0.8616415 -36.16  0.008166763    2.218    0.549
       190 -13.3602    233.3186    127.6544   5.4041517276e+01   9.8950390347e+00     1.162194    0.6863076  54.25   0.00580381    2.057    0.514
       191 -13.0532    215.9383    133.7757   5.8248358657e+01   1.1980949415e+01     1.214235    0.8520752 -65.42  0.005892405    1.906    0.475
       192 -10.6904     16.1245    129.1123   1.1139026351e+02   4.6932743595e+01    0.2872341    0.1973493 -81.60 0.0005264856    1.356    0.263
       193 -10.0569     11.8751    128.9178   1.1268568584e+02   4.7274425198e+01    0.2335132     0.155012 -56.62            0    1.295    0.228
       194 -10.8089     12.9577    125.2683   1.1188011837e+02   4.8113573998e+01     0.343872    0.1861565  77.10  0.001473155    2.379    0.580
       195  -9.1348     64.9509    126.7586   9.5233342663e+01   4.2498208402e+01    0.1785138     0.126778  26.32 0.0003437655    1.518    0.341
       196 -10.6901     24.2029    125.5504   1.0832571574e+02   4.7214408412e+01    0.2391746    0.2016505 -70.85 0.0003542562    1.061    0.058
       197  -9.1990     31.2180    123.9665   1.0579401272e+02   4.7016441721e+01    0.1837589    0.1003072 -66.48   0.00037201    1.618    0.382
       198 -13.1627    227.4410    137.6711   5.7125498229e+01   9.1704096700e+00     1.312765    0.5385262  38.88   0.00520318    3.040    0.671
       199  -8.7310     15.2884    121.6793   1.1064817617e+02   4.8851222604e+01    0.1300561   0.09273487  72.40 0.0003335263    1.600    0.375
       200  -8.8119     53.6899    120.3137   9.7631924942e+01   4.5573779325e+01    0.1435888    0.1099683  71.81 0.0002831304    1.630    0.387
       201  -9.6684     97.9305    117.7614   8.2608884837e+01   3.9455858601e+01    0.2389419    0.2030576   3.56  0.001180972    1.298    0.229
       202  -9.6256     70.1550    117.8311   9.1576681310e+01   4.3998045337e+01    0.2131463    0.1702553 -22.95 0.0005938098    1.351    0.260
