#   1 NUMBER                 Running object number                                     
#   2 MAG_AUTO               Kron-like elliptical aperture magnitude                    [mag]
#   3 X_IMAGE                Object position along x                                    [pixel]
#   4 Y_IMAGE                Object position along y                                    [pixel]
#   5 X_WORLD                Barycenter position along world x axis                     [deg]
#   6 Y_WORLD                Barycenter position along world y axis                     [deg]
#   7 A_WORLD                Profile RMS along major axis (world units)                 [deg]
#   8 B_WORLD                Profile RMS along minor axis (world units)                 [deg]
#   9 THETA_WORLD            Position angle (CCW/world-x)                               [deg]
#  10 FWHM_WORLD             FWHM assuming a gaussian core                              [deg]
#  11 ELONGATION             A_IMAGE/B_IMAGE                                           
#  12 ELLIPTICITY            1 - B_IMAGE/A_IMAGE                                       
         1 -11.2608     80.4136     35.3317   6.6496272240e+01   5.9258816451e+01     1.015399    0.7212709 -16.84  0.005581975    1.437    0.304
         2 -12.4566     75.0543     51.9001   7.4856046212e+01   5.7659620302e+01     1.389382    0.9076966 -51.44  0.006878254    1.854    0.461
         3 -13.4196     42.9353     45.8684   8.5155212496e+01   6.3605271200e+01     1.079324    0.5990934  44.98 0.0008721343    2.441    0.590
         4 -11.7903     61.3998     48.1552   7.8481397374e+01   6.0583966038e+01     1.330174    0.8526358 -42.46  0.007048917    1.548    0.354
         5 -11.4314     60.9716     36.7208   7.4049122280e+01   6.2520956617e+01    0.9156828     0.577998  14.36  0.001241152    1.827    0.453
         6 -12.2254    124.8232     27.9125   5.1781605946e+01   5.0499782935e+01    0.8719119    0.5944448  38.91  0.003393827    1.474    0.322
         7 -13.0610    116.0987     41.8047   5.8728451085e+01   5.0776241015e+01     1.008207    0.8570588  86.65  0.005580059    1.406    0.289
         8 -11.5044    158.1015     51.0294   5.2736154854e+01   3.9355124227e+01     1.869692    0.9205698 -20.37  0.006979355    2.892    0.654
         9 -12.2454    131.0536     14.6292   4.5964033633e+01   5.0405283623e+01     1.329979    0.5573918  69.29  0.004089734    2.372    0.578
        10 -10.9302    154.4365     23.6136   4.4985224742e+01   4.3772589772e+01    0.9916104    0.6857797  18.78  0.004994624    1.971    0.493
        11 -11.4613    136.8858     22.7399   4.7651007987e+01   4.8172597741e+01    0.9268941    0.4223094  53.62  0.004088152    1.934    0.483
        12 -10.2416    147.0701     16.5797   4.3942586790e+01   4.6321616944e+01    0.4669198    0.4191836  50.87  0.002904098    1.117    0.104
        13 -11.5582    164.7030     18.5210   4.1971191209e+01   4.1787960654e+01    0.6818718     0.393856  20.88  0.002910912    2.977    0.664
        14 -10.0135      8.1235     32.3494   9.6604820349e+01   6.9477743176e+01     1.578995    0.4186605 -49.59  0.006973164    2.732    0.634
        15 -10.4453     47.1078     19.1546   7.1825248883e+01   6.7196062431e+01    0.3580632     0.269747 -13.55  0.001451622    1.178    0.151
        16 -11.9258     26.6922     27.6741   8.5236177191e+01   6.8621615631e+01    0.5200869    0.4307168   6.44   0.00240058    1.202    0.168
        17 -12.3971     48.7770     12.9301   6.8083084518e+01   6.7704888738e+01    0.5171185    0.2862876  41.58  0.001855624    1.750    0.429
        18 -11.7178     20.1526     21.8838   8.5980395770e+01   7.0230629151e+01     0.660802     0.232344 -40.31  0.003157724    2.405    0.584
        19 -12.6938     16.9529     12.7882   8.3351198771e+01   7.1927895541e+01    0.8325709    0.4980251 -22.54  0.003478653    1.425    0.298
        20 -12.0857     22.7932     11.5687   7.9590908527e+01   7.1462784891e+01    0.5118251     0.332321 -12.92  0.002724675    1.344    0.256
        21 -10.9658    198.6829     29.2623   4.0675314828e+01   3.2312073640e+01    0.6283633    0.3665022 -23.31  0.003064939    2.073    0.518
        22 -11.4893    105.9059     20.3235   5.3234098158e+01   5.5721162716e+01    0.4684021    0.3838703 -31.23    0.0013933    1.338    0.252
        23 -12.1546    113.7014     25.3273   5.3297792472e+01   5.3399068824e+01    0.8012512      0.34189  51.80  0.002693422    2.042    0.510
        24 -11.9335     36.8964     17.7441   7.5700372041e+01   6.8853719806e+01    0.7386224     0.548281 -23.06  0.004895895    1.222    0.182
        25 -10.5048    214.7718     23.2475   3.7525266280e+01   2.9280792915e+01     0.480027    0.3448902  19.83  0.002541166    2.340    0.573
        26 -11.1452     87.3643      7.5466   5.2684638861e+01   6.1001612901e+01    0.5538539    0.3320778  60.36   0.00214197    1.631    0.387
        27 -11.2470     90.8052     21.0532   5.7433330554e+01   5.8942087839e+01    0.5968268    0.3940506 -24.48  0.002215323    1.585    0.369
        28 -11.2682     86.1405     14.1948   5.5860424895e+01   6.0638613295e+01    0.7663924     0.413065  20.17  0.003493938    2.356    0.576
        29 -10.8207    178.8850     21.0806   4.0861196467e+01   3.8036140224e+01    0.5863594    0.2534805  49.06   0.00179485    2.573    0.611
        30 -11.9805     68.1426     18.0281   6.3179744319e+01   6.3777767581e+01    0.4939536     0.428233  24.75  0.002097667    1.093    0.085
        31 -12.5199    245.7554      7.8012   3.1700692623e+01   2.4300344049e+01     1.088372    0.5507533 -35.72   0.00587694    1.863    0.463
        32 -12.0860    237.3998     15.8943   3.3963436265e+01   2.5142866284e+01    0.6852284      0.38894  71.11  0.002723451    1.733    0.423
        33 -11.0936    226.3625     15.0527   3.4636014293e+01   2.7624665701e+01    0.4494162     0.250229 -59.14  0.001829788    1.603    0.376
        34 -10.9711    211.2996     18.7045   3.6777156551e+01   3.0599942417e+01    0.2505346    0.2346083 -57.22 0.0002856783    1.206    0.171
        35 -11.4778    192.5135      9.2737   3.6256884021e+01   3.5997721602e+01    0.9036644    0.4873308 -11.94  0.004183997    2.857    0.650
        36  -9.9173      4.4497     12.6757   9.0432706608e+01   7.3073979608e+01    0.4031994    0.2459161 -50.82  0.002565215    1.854    0.461
        37  -8.8824      5.3166      9.3281   8.8291243297e+01   7.3514949944e+01    0.1556542    0.1029413 -21.26 0.0007016151    1.168    0.144
        38 -12.3098    104.5447     12.7157   5.0599959471e+01   5.6781439515e+01    0.4862127    0.4587014 -39.79   0.00177556    1.225    0.184
        39 -11.5394    212.0261      9.0633   3.4449094839e+01   3.1483503400e+01    0.5621471    0.3502428  -3.01  0.002250897    2.866    0.651
        40 -10.1154     66.0870     10.2999   6.0295415716e+01   6.4989362638e+01    0.3001803    0.1832464  46.08  0.001020658    1.500    0.333
        41 -10.0575     62.9777      6.7659   5.9665669440e+01   6.5911318048e+01    0.3216934    0.2213048  25.74  0.001302076    1.279    0.218
        42  -9.6664    168.6630      9.6598   3.8928823594e+01   4.1703756115e+01    0.3472125    0.1354695  51.29  0.001443537    2.585    0.613
        43  -9.0078    162.9915     10.0274   3.9728412022e+01   4.3053368047e+01    0.2042592    0.1399285  42.76 0.0008014799    1.620    0.383
        44  -9.3484      1.1083      7.7984   9.0085930130e+01   7.4077407240e+01    0.2736624   0.06397618 -46.59  0.001142872    3.563    0.719
        45 -11.3593      2.8283      2.0077   8.5995577005e+01   7.4778985475e+01    0.3719325    0.1715399  12.51  0.002110609    2.336    0.572
        46 -10.8281    232.6783      7.3302   3.2483147733e+01   2.7099413857e+01    0.3392096    0.2122567 -65.16  0.001794423    1.356    0.263
        47 -10.9976    236.5702      5.0189   3.1730198697e+01   2.6516583741e+01    0.4763245    0.2293394 -68.85  0.002482744    1.971    0.493
        48 -10.1648    228.3868      3.2047   3.1900347822e+01   2.8458260132e+01    0.3220103    0.2128988 -42.50  0.001661774    1.419    0.295
        49 -10.9205    218.7455      3.6160   3.2680079364e+01   3.0532893369e+01    0.3174654     0.251074 -38.05   0.00104653    1.366    0.268
        50 -10.4705    223.4916      1.9989   3.1980345833e+01   2.9648322077e+01    0.3350053    0.1782167  76.12  0.001297339    1.710    0.415
        51  -9.3019     78.4829      7.5199   5.5120678650e+01   6.2841996081e+01    0.2233611    0.1674695  51.66  0.000622746    1.272    0.214
        52 -11.2483     74.7566      3.3530   5.4311393650e+01   6.3952286201e+01    0.6272248    0.3157969  46.52  0.003317717    1.659    0.397
        53 -10.3195    183.9976      5.1697   3.6042259984e+01   3.8424383687e+01      0.40889    0.2734362 -43.76  0.001832166    1.492    0.330
        54  -9.6103    154.2815      7.2555   4.0032295737e+01   4.5435550620e+01    0.3671193    0.1705004  75.18  0.001583463    2.039    0.510
        55  -9.0341    115.4058      6.8021   4.6081065017e+01   5.4809468596e+01    0.2202416    0.1231105   1.79 0.0008704227    2.399    0.583
        56 -10.2912    116.0176      2.9670   4.4559695026e+01   5.4974272399e+01    0.6183101    0.1704181  56.05  0.002431599    2.660    0.624
        57 -11.1203    106.5862      1.9022   4.5967519751e+01   5.7227537474e+01    0.6396887    0.2859268  69.31  0.002180136    2.254    0.556
        58 -10.8169     41.6589      4.2070   6.6598690183e+01   6.9790363067e+01    0.3979219    0.2212815   4.61   0.00214293    2.064    0.516
        59 -10.9960    176.8274      5.7589   3.6934969999e+01   4.0090735181e+01    0.3946605    0.2007243  85.42  0.001141268    1.960    0.490
        60 -10.6580    169.2779      2.3503   3.6816419501e+01   4.2220906308e+01    0.2378384    0.1786787 -67.00 0.0001655217    1.305    0.234
        61 -10.1860    122.4892      5.1291   4.4176899435e+01   5.3284831234e+01    0.3521849    0.1679567  64.04 -0.0002371555    1.804    0.446
        62  -8.9514     31.3299      5.8431   7.2226083261e+01   7.1114942751e+01     0.152669   0.08940683 -18.12  0.000424866    1.568    0.362
        63  -9.8912    142.5958      3.2252   4.0379011950e+01   4.8620849165e+01    0.3458891    0.2387658  75.44  0.001754627    1.306    0.234
        64 -10.9182    207.6036      2.5547   3.3295470233e+01   3.3151074376e+01    0.3173712    0.2138224  77.85  0.001100785    1.328    0.247
        65  -9.9207    203.6887      1.6635   3.3401340200e+01   3.4134922972e+01    0.3159831    0.1443921  62.37  0.001194161    2.067    0.516
        66  -9.2871     54.8398      4.0835   6.1242518313e+01   6.7626729189e+01    0.1591256    0.1474383   2.47 0.0003665987    1.282    0.220
        67  -9.6958    158.5321      2.3850   3.8054005293e+01   4.4822578017e+01    0.3523457    0.1595058  47.24  0.001591341    2.338    0.572
        68 -10.1702     12.9452      1.9003   7.9820811431e+01   7.3827122163e+01    0.3047494    0.1530496  27.49  0.001342938    1.934    0.483
        69  -9.0906    152.2850      1.3381   3.8509830407e+01   4.6425693754e+01    0.1818605    0.1068373  81.64 0.0005405158    1.612    0.380
        70  -9.4504    122.6138      1.4179   4.2846557506e+01   5.3545941118e+01    0.2704427    0.1077642  65.64 0.0007904511    2.137    0.532
        71 -10.3883     82.2338      1.3124   5.1317893768e+01   6.2591091787e+01    0.2003917   0.09696626  55.43 0.0003436418    1.781    0.439
        72 -12.2827    134.2475      2.5415   4.1374970017e+01   5.0688742285e+01    0.4586563     0.253812  72.78 0.0006291554    1.656    0.396
        73  -8.6393     29.6815      1.6604   7.0722874614e+01   7.1815645697e+01    0.1218467    0.0717664   5.91 0.0007049375    1.710    0.415
        74 -12.0996     30.0025    132.8497   1.1111002568e+02   4.5233215773e+01    0.6280459    0.3673637 -87.24  0.000331259    1.778    0.438
        75 -10.0321    142.7308    249.6428   1.0031224674e+02   3.3579089953e+00     0.229325    0.1338237  44.33  0.001272026    1.472    0.321
        76 -10.6675     21.6299    135.2555   1.1384498286e+02   4.5384153394e+01    0.5446227    0.3086825 -77.81  0.002820075    1.537    0.349
        77 -10.2190     25.4976    135.4772   1.1277306042e+02   4.4993068656e+01     0.296757    0.2061469 -75.99 0.0008019897    1.216    0.178
        78 -10.3895    217.0650    138.0088   6.4756655429e+01   1.0452826065e+01    0.4429772    0.3189452 -61.14  0.001578082    1.724    0.420
        79  -9.7760     80.0444    136.8975   9.7175536579e+01   3.7977446502e+01    0.4814456    0.2919391 -30.03  0.001952384    2.416    0.586
        80 -10.0908     67.1640    136.0995   1.0075796923e+02   4.0080682156e+01    0.3922279    0.2153153 -47.37   0.00136556    1.821    0.451
        81 -10.3096     47.3352    135.6220   1.0647481528e+02   4.2729661574e+01     0.461795     0.195391 -62.04  0.001303686    2.005    0.501
        82 -10.3284     39.6231    138.1395   1.0910477643e+02   4.2951629221e+01    0.3064615    0.2047778  23.14 0.0009154385    1.823    0.452
        83  -9.1509    192.2929    136.3284   6.9028218795e+01   1.5815224269e+01    0.1518874    0.1169458  -3.69 0.0003276936    1.626    0.385
        84 -10.6348     93.6496    132.1593   9.2259376948e+01   3.6918727132e+01    0.5905468    0.1756719 -51.38  0.001841864    3.085    0.676
        85  -9.0481     92.4758    128.5267   9.1785199255e+01   3.8011821338e+01    0.2458996    0.2307546 -77.14 0.0008694241    1.050    0.047
        86  -9.8923     74.2150    132.6428   9.8015568752e+01   3.9927622080e+01     0.321393    0.2288775 -36.58  0.001551212    1.594    0.372
        87 -10.0434     61.8039    132.2679   1.0161523033e+02   4.1774857073e+01    0.4049613    0.2891512 -42.79  0.002057978    1.467    0.318
        88  -9.6925     39.2920    133.0138   1.0841479946e+02   4.4268964359e+01    0.2175202    0.1989644  46.20  0.000573465    1.237    0.192
        89  -9.6449    104.0045    130.9305   8.9042255652e+01   3.5371091827e+01     0.223223    0.2182775 -25.88  0.000359441    1.082    0.076
        90 -10.7949     10.4765    127.6055   1.1608672840e+02   4.8126522880e+01    0.6935092     0.207752 -57.75  0.002897564    2.531    0.605
        91  -9.3541     78.8746    128.8330   9.5847361955e+01   4.0166653100e+01    0.2216048    0.1933109 -38.44 0.0003854995    1.201    0.167
        92  -9.7873     80.9766    125.1242   9.4414460133e+01   4.0753944659e+01    0.3963135    0.3036025  60.68   0.00196886    1.483    0.326
        93 -10.3224    241.0327    127.3566   5.8422857089e+01   7.7564856762e+00    0.3244025    0.2400898 -50.91  0.001286182    1.352    0.260
        94 -10.6382     22.7776    127.1307   1.1242161336e+02   4.7293513291e+01    0.2072896    0.1861288 -76.80 0.0003429812    1.092    0.085
        95 -12.1165     18.7812    122.3315   1.1294378870e+02   4.8799970892e+01    0.2749364     0.197452 -71.96 0.0002942024    1.144    0.126
        96  -9.1480    223.9883    126.9431   6.1045867636e+01   1.1092482358e+01    0.2208951    0.1628287 -62.87 0.0006513133    1.636    0.389
        97 -10.5483     55.7534    123.4426   1.0175886322e+02   4.4767864495e+01    0.5455536    0.4163248  -4.84  0.002244923    1.737    0.424
        98  -9.8442     49.4289    123.2412   1.0367715357e+02   4.5587028386e+01    0.2945136    0.2347381 -24.48  0.001011012    1.499    0.333
        99 -11.0763     45.2943    120.0000   1.0436243742e+02   4.6867587579e+01     0.636009    0.3577708 -88.92  0.002661036    2.496    0.599
       100 -12.1804    103.9697    122.5963   8.7073682089e+01   3.7382491755e+01    0.4503397    0.4049476 -28.14  0.001868647    1.183    0.155
       101  -9.6206     70.9567    121.2896   9.6616405057e+01   4.3232674132e+01     0.324643    0.2041032 -31.52   0.00115763    2.024    0.506
       102  -9.3024      4.7991    121.6565   1.1703065339e+02   4.9947862393e+01    0.2605261    0.1331201  78.76  0.001242521    2.286    0.563
       103  -9.5812      2.4526    126.0467   1.1821216041e+02   4.9033560477e+01    0.2645018    0.1695296  80.49  0.001251915    1.533    0.348
       104  -9.0013    148.3143    120.3179   7.4739663355e+01   2.8742851452e+01    0.1595097    0.1265235  -1.35 0.0003118234    1.649    0.394
       105  -8.8895     62.8152    120.2286   9.8914305962e+01   4.4644256984e+01    0.1806191     0.148762 -41.45 0.0002148647    1.223    0.183
       106  -9.4350    185.3169    119.3253   6.6303234018e+01   2.0688708414e+01    0.1550079    0.1212496   2.22 0.0007044472    1.672    0.402
       107 -10.5431     33.8892    118.9262   1.0775444667e+02   4.8321305792e+01    0.2174658    0.1548981 -48.25 0.0007901374    1.329    0.248
       108  -8.8061     13.7499    118.9513   1.1400194661e+02   5.0004549605e+01    0.1585773   0.08958458 -68.70 0.0002861035    1.413    0.292
       109  -9.3769     58.5425    117.8075   9.9749463264e+01   4.5811264615e+01    0.2831984    0.1196063 -55.56  0.001131687    2.038    0.509
       110  -9.7002    113.6603    116.0652   8.2682940128e+01   3.7046938709e+01    0.2736712    0.2437004 -38.45  0.001181789    1.117    0.105
       111 -10.6912     15.8083    109.7530   1.1201758551e+02   5.2092927520e+01    0.3550804    0.3237114  39.82  0.001731599    1.317    0.241
       112 -11.8394      7.0850     88.7673   1.1153775402e+02   5.7645740945e+01    0.6470866    0.4738557  14.81  0.004118844    1.677    0.404
       113 -11.7360     17.0894    101.0335   1.1017161537e+02   5.4100793539e+01     0.431446    0.2787063  26.10 0.0003513864    1.844    0.458
       114 -10.6841     42.7222     94.4801   9.9896970271e+01   5.3353206286e+01    0.4180683      0.34093   7.66 0.0006487509    1.414    0.293
       115 -11.1107      9.8913     97.5152   1.1203503637e+02   5.5424083489e+01     0.594668    0.4906453  28.68  0.001622745    1.483    0.326
       116 -11.0007     48.5282    103.0649   9.9844131240e+01   5.0650687198e+01     1.140392    0.5842572 -13.30  0.003603684    5.053    0.802
       117 -11.1880     51.8722     95.5279   9.6923378121e+01   5.2045369811e+01    0.7683699    0.5106162  88.40  0.002677695    2.334    0.571
       118 -11.0402     26.8262     86.0526   1.0374799400e+02   5.6868482201e+01    0.5762329    0.5262035 -20.05  0.001393945    1.185    0.156
       119 -10.6866     18.7819    106.0481   1.1045273787e+02   5.2770046999e+01    0.2005623    0.1828817 -78.34 0.0002741215    1.132    0.116
       120 -11.9469     35.0041     93.5102   1.0242687087e+02   5.4378383398e+01     1.262062    0.7274132 -63.00  0.004964041    1.545    0.353
       121 -12.1998     42.6424     85.0639   9.7620517690e+01   5.5548292322e+01     1.000192    0.4982928  25.27  0.004629619    2.304    0.566
       122 -11.8494     24.8131    113.7401   1.0976218380e+02   5.0418136698e+01      0.86766    0.3812312  10.85  0.003585297    3.508    0.715
       123 -12.1673     25.0754    108.1476   1.0873240787e+02   5.1760907163e+01    0.9239586    0.5747268 -40.27  0.004949677    1.638    0.390
       124 -11.6041     22.3899     94.8936   1.0720867713e+02   5.5162512317e+01    0.5122774    0.3736334  -0.18  0.001889879    1.680    0.405
       125 -11.8406     18.2218     90.2256   1.0778729121e+02   5.6578462004e+01     0.470315    0.2494876 -58.94 0.0004812329    1.487    0.327
       126 -10.5514    107.2761    111.8020   8.3384439159e+01   3.9294037911e+01    0.5910681    0.3761967 -64.84  0.002450567    1.913    0.477
       127  -9.3245    103.6401    112.3144   8.4574160451e+01   3.9875238971e+01    0.2638288    0.2206106  77.06 0.0007931021    1.420    0.296
       128 -10.7445    101.5799    109.2947   8.4385610201e+01   4.0969341352e+01    0.6821426    0.4645771 -10.47  0.002468572    2.354    0.575
       129  -9.2547     79.2677    114.3565   9.2456430026e+01   4.3660787686e+01    0.2840577    0.1630084 -45.83  0.001231317    1.665    0.400
       130  -9.7857     67.0225    112.3334   9.5848169142e+01   4.6001219756e+01    0.5739587    0.3435952 -67.46   0.00256096    1.784    0.439
       131 -10.2549      7.0931    114.3211   1.1542112725e+02   5.1575713311e+01    0.2373516    0.2188094 -50.26 0.0007863775    1.215    0.177
       132 -12.4313      2.1284    111.3039   1.1656620093e+02   5.2597180209e+01     0.415058    0.2207148 -68.77 0.0006029475    1.445    0.308
       133 -11.2248      3.9448    104.8620   1.1513091317e+02   5.4032629681e+01    0.4184919    0.2968074  29.91  0.002027587    1.722    0.419
       134  -8.9372    126.7718    113.6156   7.8454218388e+01   3.4904873556e+01    0.2131996    0.1493281  54.48 0.0005410527    1.549    0.354
       135  -9.7167     94.4046    112.1839   8.7279494918e+01   4.1615575782e+01    0.3350664    0.2956848 -12.08  0.001450057    1.272    0.214
       136  -9.6786     48.8752    112.4423   1.0173899346e+02   4.8327223025e+01    0.2541026    0.1852077 -64.56  0.001111504    1.233    0.189
       137 -11.0928    170.5332    110.3606   6.7075539299e+01   2.5816963200e+01    0.4529094     0.382768 -28.23  0.001504943    1.227    0.185
       138 -10.2449    120.5871    109.0657   7.8903948291e+01   3.7228306880e+01    0.3722635    0.2970955 -22.63  0.001298674    1.436    0.304
       139 -11.4220     79.5144    108.3197   9.0898884479e+01   4.5073232080e+01    0.6463884    0.3771449  33.24  0.001262604    1.880    0.468
       140  -9.1682     58.8216    109.3769   9.7830211184e+01   4.7844569402e+01    0.1977429    0.1640052 -67.01 0.0004933784    1.154    0.134
       141 -10.0604    132.4220    111.6250   7.6435177598e+01   3.4135836658e+01    0.3508087    0.1934957 -63.23  0.001212124    2.688    0.628
       142 -10.0183    157.3407    106.7072   6.9019010056e+01   2.9591205237e+01    0.3969273    0.2952482 -12.96  0.001662261    1.775    0.437
       143 -10.3210    143.4845    105.9638   7.2098554697e+01   3.2907942521e+01     0.355536    0.3002599 -81.08  0.001350946    1.380    0.276
       144 -11.5620    145.4566    100.1590   7.0008561876e+01   3.3670683900e+01    0.5125443    0.4173149 -30.90 0.0003985332    1.276    0.216
       145 -10.5969     85.8945    103.8346   8.7724510696e+01   4.5071933190e+01    0.5118386    0.3374735 -19.54  0.001632661    2.179    0.541
       146  -9.5949     57.2824    102.5060   9.6751154571e+01   4.9704703717e+01    0.2818294    0.1790668 -56.28 0.0009735613    1.404    0.288
       147 -10.1632    209.3099     99.7259   5.7028164189e+01   1.9050648910e+01    0.4715171    0.2484476 -25.34  0.000734534    2.441    0.590
       148 -11.2529     67.6285     95.5467   9.1493230697e+01   4.9912877044e+01    0.5358623    0.4497851  17.07  0.002421015    1.319    0.242
       149 -10.8604     89.7518     89.6060   8.2505858338e+01   4.7611435385e+01      1.00872    0.5708879 -20.75  0.003552561    3.141    0.682
       150 -10.3610     77.5853     96.7486   8.8490733539e+01   4.8097376037e+01    0.3668129    0.2826249  80.03  0.001230099    1.802    0.445
       151 -10.2225     82.5168     93.5051   8.5972222217e+01   4.8017918733e+01    0.3983982    0.2618862  27.35 0.0009759908    1.732    0.422
       152 -10.7979     77.1151     92.9304   8.7588716957e+01   4.9044856787e+01    0.5150703    0.4273879   0.72  0.002009027    1.371    0.270
       153 -10.5113     89.9351    104.5068   8.6640047587e+01   4.4212985819e+01    0.4486491    0.3381639  11.54  0.001388354    1.680    0.405
       154  -9.3178    120.8212    101.1687   7.6650904074e+01   3.8924123638e+01    0.2209732    0.1883907  -5.81  0.001004767    1.367    0.268
       155 -10.2788    117.5270     93.1243   7.5239562158e+01   4.1350208966e+01    0.4040224     0.298945 -15.47  0.001471058    1.719    0.418
       156 -10.8960    124.4945     93.9656   7.3577555698e+01   3.9668820163e+01    0.6205456    0.3334783  47.50  0.001699572    1.905    0.475
       157 -11.0329    120.6974     87.4365   7.2664342579e+01   4.1845884416e+01    0.6808614     0.385215 -45.37  0.002824716    1.754    0.430
       158  -9.4733    160.3247     93.6359   6.4760387487e+01   3.1508084717e+01    0.4095251    0.2406866  73.30  0.001492608    2.631    0.620
       159 -10.7151    152.3018     91.7967   6.6033988790e+01   3.3758061286e+01    0.5072094    0.4124291  78.14  0.001912597    1.418    0.295
       160 -10.8460    100.8331     91.5400   7.9630643420e+01   4.5102045986e+01    0.6322951    0.3862921  52.48  0.002617764    1.878    0.468
       161 -10.7128    104.9751     86.5189   7.6874826788e+01   4.5345984222e+01    0.6543976    0.3997718 -13.58  0.002357617    2.964    0.663
       162 -10.8956    113.4020     83.5136   7.3497138828e+01   4.4213440812e+01    0.4492725    0.4132741 -70.24   0.00190307    1.196    0.164
       163  -8.8413    137.6019     93.6855   7.0094061345e+01   3.6793347133e+01    0.1653864    0.1232234  11.04 7.729256e-05    1.863    0.463
       164 -10.1867     66.6720     88.6882   8.9947719721e+01   5.1622567850e+01     0.336013     0.225731 -21.97  0.001044459    1.824    0.452
       165 -10.3883     67.1514     82.0214   8.7853181458e+01   5.3030924174e+01    0.4543957    0.3747457  14.12  0.002519924    1.311    0.237
       166  -9.8478     60.2116     83.2461   9.0689012269e+01   5.3766863803e+01     0.273059    0.2266928 -55.76 0.0008853069    1.195    0.163
       167 -10.6972     80.4738     83.6990   8.3768307180e+01   5.0526395110e+01    0.4727024    0.3296139 -33.21  0.002308591    1.443    0.307
       168 -11.3542     74.8720     78.2503   8.3997537136e+01   5.2624733283e+01    0.6554068    0.6043012  88.48  0.003755207    1.332    0.249
       169 -11.5696     53.1158     75.9808   9.1181740815e+01   5.6313539699e+01    0.6316004     0.374994 -56.09  0.002725769    1.658    0.397
       170 -10.8936     57.9910     77.7884   8.9902155966e+01   5.5270747517e+01    0.3449256    0.2602212 -58.29 0.0008046497    1.374    0.272
       171 -10.8736     47.0391     74.7391   9.3129207618e+01   5.7342557243e+01    0.3734676    0.2328918 -53.07 0.0008735475    1.461    0.316
       172 -10.5808    183.5852     85.8307   5.7941778730e+01   2.7436135324e+01    0.6601179    0.2817583 -45.34   0.00243559    2.289    0.563
       173  -9.9976    109.0367     80.5174   7.3815897548e+01   4.5736233027e+01     0.326426    0.2767538  23.08  0.001068382    1.255    0.203
       174  -8.8406    214.5578     86.4194   5.2927852158e+01   2.0197384141e+01    0.1423068    0.1288173 -54.60 4.323118e-05    1.007    0.007
       175 -10.3745    165.7684     83.6817   6.0808597885e+01   3.2084386390e+01    0.3966382    0.3208428 -58.22  0.001443602    1.273    0.215
       176 -11.2185    143.1534     84.0767   6.5918036689e+01   3.7401958974e+01    0.3447127    0.3097183 -64.86 0.0008589694    1.166    0.142
       177  -9.6184    138.0579     86.0000   6.7722436884e+01   3.8219392159e+01    0.4473419    0.1464071  52.20  0.001362791    3.219    0.689
       178 -10.1465    127.5289     82.8959   6.9454990545e+01   4.1234435916e+01    0.2892051    0.2234712  45.61  0.001033434    1.305    0.234
       179  -9.3665     21.1051     80.8472   1.0474055307e+02   5.8529188513e+01    0.1821955    0.1648071 -86.34 0.0007356988    1.272    0.214
       180  -8.5990    249.2853     80.6844   4.6956500929e+01   1.3829348908e+01    0.1364433   0.08689161 -59.97  0.000213751    1.584    0.369
       181  -9.9116    103.3242     78.9246   7.4999154382e+01   4.7233561311e+01    0.3319547    0.2119493 -31.85 0.0008516643    1.654    0.395
       182 -10.7334    103.9656     74.3231   7.3323676026e+01   4.8007535056e+01    0.4459647    0.3246652 -48.42  0.000783294    1.424    0.298
       183 -10.5398    232.6847     77.2149   4.8207779840e+01   1.7766366024e+01    0.5112982    0.2653668 -49.70  0.002363594    1.773    0.436
       184 -11.8382     14.1486     74.7183   1.0607244226e+02   6.0415685291e+01    0.5202225    0.3471456 -59.13   0.00251854    1.233    0.189
       185 -10.1148     14.7188     67.3416   1.0410074295e+02   6.2004613531e+01    0.3531385    0.2259195   8.52  0.002076046    1.824    0.452
       186 -10.1786    126.9864     77.2367   6.7843898794e+01   4.2443892245e+01    0.3176658     0.257748  19.59  0.000952679    1.423    0.297
       187  -9.6249    175.1716    246.8696   9.3613737043e+01  -1.1736930591e+00     0.188665    0.1582043  42.67  0.001167269    1.248    0.199
       188 -11.1376    127.9122    241.8510   1.0226878803e+02   6.9614024620e+00    0.3699304    0.3005152  13.82  0.002312878    1.451    0.311
       189 -10.9860     79.2207     67.6157   7.9023550130e+01   5.4043578137e+01      0.61181    0.5603377  42.15   0.00356264    1.211    0.174
       190 -10.4233     94.5654     76.1938   7.6816528822e+01   4.9518389449e+01    0.4404815    0.3746035  24.93  0.002149734    1.212    0.175
       191 -11.6519     86.0204     73.5608   7.8715873535e+01   5.1653050988e+01    0.7824812    0.5428131  42.59  0.003258793    1.512    0.339
       192 -11.4804     91.3689     63.0507   7.3410844917e+01   5.2652576010e+01    0.9158568    0.4531711  48.75  0.003459359    2.173    0.540
       193 -10.9196     87.5853     56.9579   7.2466320840e+01   5.4470963838e+01    0.5845018    0.2558403 -33.01  0.001276247    2.442    0.590
       194 -10.8659     91.8768     57.1977   7.1173097967e+01   5.3591505551e+01    0.4493105    0.3289454 -32.05  0.002324739    1.346    0.257
       195 -11.6831      1.9111     71.1567   1.1018491962e+02   6.1923295150e+01    0.5374797    0.1865389 -64.52  0.002468224    2.223    0.550
       196  -9.5216    138.9930     77.4583   6.4916654554e+01   3.9622703477e+01    0.2300386    0.1489797  51.78 0.0003642807    1.544    0.353
       197 -12.4601      6.0256     62.4464   1.0656665093e+02   6.3606794323e+01    0.7042705    0.4396009 -18.24  0.002866125    1.723    0.420
       198  -9.6823    192.4436     65.7404   5.1053813872e+01   2.8705552625e+01    0.2861116    0.2187519 -64.20 0.0008807465    1.326    0.246
       199 -12.2262    186.3806     70.6516   5.3355164264e+01   2.9369146705e+01     0.935325    0.6313621 -41.64   0.00321174    1.417    0.294
       200  -9.4532     63.6491     76.2641   8.7365772101e+01   5.4793162559e+01    0.4525436    0.2929534 -79.49  0.001828221    3.058    0.673
       201  -9.1701     66.4323     74.4861   8.5801421314e+01   5.4751713870e+01    0.2118898    0.1889452  32.41 0.0007856359    1.222    0.182
       202  -9.3422    114.4048     75.0705   7.0547544737e+01   4.5653881626e+01    0.3305801    0.1765191  32.56  0.001099823    2.374    0.579
       203  -9.8895    184.1352     60.9192   5.1075966800e+01   3.1463073486e+01     0.279348    0.2108184 -51.40  0.001167247    1.285    0.222
       204 -11.2213     40.9139     70.8702   9.4388458872e+01   5.8885923622e+01    0.5333803    0.2915516 -47.61  0.002064119    1.554    0.357
       205 -11.6330     32.2576     72.1603   9.8203006479e+01   5.9504699834e+01    0.5971065    0.2698759  26.73  0.001954166    2.470    0.595
       206  -9.4584     22.1096     66.1166   1.0070735028e+02   6.1714918605e+01    0.3352605      0.23212 -85.79  0.001463913    2.089    0.521
       207  -8.8307     25.5993     65.4725   9.9074000347e+01   6.1559310994e+01    0.1479852    0.1206133  32.29 0.0002241025    1.478    0.323
       208  -9.6712    152.9108     72.9527   6.0389758109e+01   3.7107022559e+01     0.487704    0.1730332  43.59  0.001511765    3.380    0.704
       209 -11.6838    123.0169     68.9202   6.6224466845e+01   4.4874006747e+01    0.5814847     0.516183  36.04  0.001676732    1.128    0.113
       210  -9.4165     24.5940     72.6008   1.0139225003e+02   6.0098156268e+01    0.3394682    0.1549527 -68.40  0.001464637    2.543    0.607
       211  -9.9891    172.4752     68.4972   5.5200328867e+01   3.3096041480e+01    0.3927996    0.3224509  31.16  0.001631088    1.439    0.305
       212  -9.7730    172.2332     64.9853   5.4246431220e+01   3.3727232758e+01    0.5992177    0.3772881  87.08  0.002513458    2.170    0.539
       213  -9.6692    162.1702     70.8700   5.7855982970e+01   3.5215332906e+01    0.2857609    0.2357759 -66.70  0.001235471    1.291    0.225
       214 -11.4162    219.7597     66.5486   4.7351265122e+01   2.2243758309e+01    0.5189191    0.3456666  66.68  0.002003659    1.584    0.369
       215  -8.8278    207.6822     68.6667   4.9526251357e+01   2.4658783119e+01    0.1380356     0.112369  17.69 0.0004595873    1.693    0.409
       216  -9.5102     53.1422     66.0195   8.8070614779e+01   5.8404434534e+01    0.2548073    0.1815222  44.12  0.000988834    1.696    0.410
       217 -11.5805    234.3739     61.0772   4.4280131625e+01   1.9870694747e+01    0.5443695    0.4072869  75.45  0.002259669    1.410    0.291
       218  -9.8187    198.5452     62.7615   4.9342880273e+01   2.7718220373e+01    0.3245353    0.2352135 -66.08  0.001222876    1.429    0.300
       219  -9.3030    106.0193     64.3012   6.9371442710e+01   4.9440566027e+01    0.3366788    0.2126495 -40.12  0.001557399    1.584    0.369
       220 -10.9821    106.3972     58.5296   6.7268793200e+01   5.0361399695e+01    0.3892643    0.3196194  68.30  0.001103893    1.447    0.309
       221 -10.7979     59.4851     63.5376   8.4797649828e+01   5.8016575061e+01    0.7067296    0.3379139  21.39    0.0028027    2.955    0.662
       222  -9.9024     57.3215     61.3083   8.4867543734e+01   5.8767334739e+01     0.255466    0.1918912  -8.82  0.000605025    1.413    0.292
       223 -10.4499     13.1477     47.4096   9.9235435684e+01   6.6262094654e+01      0.63401    0.1469659 -40.66  0.002316288    3.738    0.732
       224 -10.5964     25.9592     48.3500   9.3607003772e+01   6.5013709700e+01    0.2989746    0.1579442 -42.83  0.000473276    1.556    0.357
       225 -11.9431     21.1236     46.7908   9.5302784332e+01   6.5751944561e+01     0.542016    0.3571749 -73.35  0.002894707    2.373    0.579
       226 -10.2740     23.0069     38.2743   9.1359609406e+01   6.7176907342e+01    0.8341292    0.6014083  74.03  0.004165112    3.469    0.712
       227 -12.1453     25.9368     56.5560   9.6297591106e+01   6.3388241461e+01     1.023095    0.6481354  10.99  0.005854998    1.768    0.434
       228 -10.9704    148.5066    237.7172   9.7568648826e+01   4.4405239948e+00    0.4588858    0.2422833  36.21  0.001847242    1.643    0.391
       229 -10.5843     34.1225     57.7653   9.3143280453e+01   6.2345071249e+01    0.2996016    0.2030174  -8.17  0.001681551    1.628    0.386
       230  -9.7832    167.5061    237.5115   9.3738720883e+01   1.4670233931e+00    0.1272709    0.1082256  28.01 0.0003283399    1.010    0.009
       231 -10.6806    198.6900    232.8366   8.6941022640e+01  -2.6455821730e+00    0.3893538    0.3069488  21.90   0.00250081    1.082    0.076
       232 -11.9978     58.0794     30.0398   7.2316715393e+01   6.3982770108e+01    0.4752307    0.2938715  25.12  0.001030094    1.625    0.385
       233 -11.7049     49.0184     30.3894   7.6176412878e+01   6.5335243256e+01    0.6039001    0.2610902  32.39  0.001667083    2.383    0.580
       234 -12.3587     49.1630     60.5815   8.7840133400e+01   6.0022417158e+01    0.7544134    0.5203236  36.71   0.00272761    1.633    0.388
       235 -11.1160     41.0697     57.0807   8.9977473657e+01   6.1712611959e+01    0.3949832    0.2656152  38.31  0.001520998    1.761    0.432
       236  -9.3356    201.7846     64.5712   4.9336229705e+01   2.6673864866e+01    0.2780513    0.2115491  76.42  0.001465985    1.354    0.262
       237 -10.2602    158.6405     62.5229   5.6090557821e+01   3.7459001107e+01    0.5998111    0.2184498  46.84  0.002020795    2.959    0.662
       238  -9.5237    172.4724    238.5146   9.2908357763e+01   5.2824566220e-01    0.1270351    0.1065742  22.65 0.0002808454    1.033    0.032
       239 -12.2367    117.5012     55.8056   6.3283261408e+01   4.8355575412e+01     1.423195    0.9265388 -69.92  0.005845117    2.593    0.614
       240 -10.4534    247.0861    231.7667   7.8037635415e+01  -9.3369148775e+00    0.2015952    0.1434774 -17.10 0.0006569474    1.220    0.180
       241  -9.5531     23.9256    231.9472   1.2186866666e+02   2.2978601875e+01    0.1935652   0.09731033  62.86 0.0008733042    1.656    0.396
       242  -9.7027     67.7943    240.4221   1.1410761949e+02   1.6001580942e+01    0.1593317    0.1077138  30.94  0.000830629    1.673    0.402
       243 -10.7995    138.1671     33.6007   5.1015413106e+01   4.6608896585e+01    0.5333703    0.3669425 -42.35  0.002243695    1.546    0.353
       244 -10.6207    123.8988     20.7461   4.9443393125e+01   5.1506284349e+01    0.8152842    0.2887257  69.44   0.00276488    3.570    0.720
       245  -9.3505     15.3243    233.6067   1.2354668393e+02   2.3549989760e+01    0.2056847    0.1155573 -79.88  0.001234072    1.598    0.374
       246  -9.2786    108.5055    229.5215   1.0471581046e+02   1.2244671164e+01    0.1304778    0.1104997  54.84 6.079773e-06    1.025    0.024
       247  -9.7599    233.6279    223.2577   7.8897213401e+01  -6.3861538531e+00    0.2205845    0.1291755  14.43  0.001199377    1.789    0.441
       248 -11.0376    155.5903     42.0987   5.0471683983e+01   4.1229389812e+01    0.4601546    0.3784819  53.87  0.001929687    1.184    0.155
       249 -12.1088    153.0580     35.9577   4.9024037005e+01   4.2656583002e+01    0.3505029     0.298459  44.13 0.0003442123    1.212    0.175
       250  -9.3445      9.7776    217.9673   1.2371468096e+02   2.7280980387e+01    0.1495599   0.07657678 -81.84 0.0007982563    1.660    0.398
       251 -11.9928    160.0607     29.6227   4.5932332073e+01   4.1697251043e+01    0.3900751    0.3370152  10.80 0.0006207688    1.401    0.286
       252 -11.0718    164.0294     27.6967   4.4754807309e+01   4.0941004490e+01    0.2839879    0.2465862 -54.38  0.000423272    1.171    0.146
       253 -10.4403    136.3681     57.0532   5.9099197396e+01   4.3747452387e+01    0.6718755     0.428825   1.59  0.002673233    2.640    0.621
       254 -10.2655    134.9067     50.7754   5.7377511821e+01   4.5061374611e+01    0.3591074     0.293507 -65.96  0.001879992    1.403    0.287
       255 -11.3984    145.9111     47.3820   5.3953522891e+01   4.2883740287e+01    0.9914601    0.4326098 -21.79  0.003469835    3.272    0.694
       256  -9.8234    145.5081     39.4741   5.1510229127e+01   4.4065275429e+01    0.2292348    0.2114883  -6.94 0.0005984301    1.198    0.166
       257 -10.7654    246.7013     51.5520   4.0848818474e+01   1.8651684229e+01    0.4480912    0.2198899  83.06  0.001002422    2.602    0.616
       258 -10.7459    240.2708     50.7010   4.1302445540e+01   2.0107660851e+01    0.3411556    0.3064468  -8.21  0.002062449    1.488    0.328
       259  -9.5836    187.6369     55.2446   4.8981459932e+01   3.1472245010e+01     0.297103    0.1785678  57.33  0.001392042    1.657    0.397
       260 -12.5671    119.5211     37.9023   5.6505403402e+01   5.0513605283e+01     0.818665    0.5765247 -82.37  0.003111565    2.092    0.522
       261  -9.1412    205.5285     52.5179   4.5741986437e+01   2.7599674429e+01    0.2390292    0.1324447  67.32 0.0008214428    1.828    0.453
       262  -9.3495    201.5404     52.9678   4.6387117510e+01   2.8473587976e+01    0.3673406    0.2463365 -14.20  0.001733164    2.091    0.522
       263  -9.8315    201.6963     48.6600   4.5261660517e+01   2.9051599913e+01    0.2498879    0.2232885  30.56   0.00100502    1.404    0.288
       264 -11.2652    201.4901     45.3226   4.4434323271e+01   2.9564596771e+01    0.5952511    0.3031632  80.21  0.002535879    2.315    0.568
       265 -10.1000    175.4661     43.9621   4.7721986829e+01   3.6058407099e+01    0.5762685    0.2137457  52.87  0.002163549    2.632    0.620
       266 -10.7621    173.8823     48.4687   4.9252467428e+01   3.5822359634e+01    0.5297577    0.3370785  76.12  0.002283271    1.670    0.401
       267  -9.9735    149.2707     60.8093   5.7473040373e+01   4.0027696275e+01    0.5056696     0.190715  59.76  0.001734552    2.785    0.641
       268  -9.7760     90.9955     47.8197   6.7993789473e+01   5.5316073088e+01    0.3161407    0.2134634 -49.00  0.001562921    1.758    0.431
       269  -9.9399      2.1830     48.2523   1.0464041449e+02   6.6777795040e+01    0.4618997    0.1789628 -49.13  0.002389815    1.839    0.456
       270  -9.1908    226.1418    217.1727   7.9160980145e+01  -4.4423439936e+00    0.1553545    0.1443952  13.92 0.0004542191    1.312    0.238
       271 -10.2879    164.7671    212.3502   9.0322412938e+01   6.2345405264e+00    0.2526914    0.2128363  43.52 0.0008113505    1.169    0.145
       272 -10.6757     13.9881     23.4940   8.9959870406e+01   7.0552242633e+01    0.2730235    0.1580451 -25.68  0.001157319    1.494    0.330
       273  -9.1372    204.6678    208.3424   8.1578301889e+01   2.4405394824e-01    0.1217819    0.1075321  81.33 0.0006242015    1.753    0.430
       274  -9.6573    153.0889    207.6906   9.2020220305e+01   9.1169898834e+00    0.2211745    0.1952375 -71.52 0.0007240653    1.336    0.251
       275  -9.3386     61.1437    206.6711   1.1226333459e+02   2.3887658244e+01    0.2121409    0.1567189  84.37 0.0006641822    1.242    0.195
       276 -10.1332    238.2394    204.5596   7.4717585794e+01  -4.3647323309e+00    0.2351901    0.1590645 -30.01  0.001391833    1.358    0.264
       277  -8.7969    196.4888    205.4552   8.2646724730e+01   2.0690900999e+00    0.1332812    0.1187919   9.46 0.0001974755    1.027    0.026
       278 -10.1416    211.5275     52.4378   4.4953591858e+01   2.6215797461e+01    0.2250771    0.1804634  63.00  0.001278323    1.314    0.239
       279 -10.8903    135.3171     45.6722   5.5601792742e+01   4.5703601458e+01    0.5111476    0.2273931  58.15  0.001176414    2.149    0.535
       280 -10.1024    139.7499     43.5818   5.3979468561e+01   4.4921187726e+01     0.272539    0.2235219  48.86 0.0007936495    1.175    0.149
       281  -9.1138    101.4672     44.4993   6.3615760825e+01   5.3644263601e+01    0.2019687    0.1280886 -42.26 0.0008743796    1.709    0.415
       282 -10.8673     93.9161     41.2763   6.4604228807e+01   5.5709322927e+01    0.6570815    0.2753072  48.43  0.002696775    2.273    0.560
       283  -9.5451     95.3374     36.3676   6.2283911091e+01   5.6101426558e+01    0.2720915    0.2253117  78.10  0.001154775    1.578    0.366
       284 -10.4328    189.0388     41.6635   4.5119744837e+01   3.3047552597e+01    0.4810685    0.1829551 -30.87  0.001558873    2.744    0.636
       285 -10.0986    231.8186     39.0381   3.9528631716e+01   2.3501253424e+01    0.2872238    0.1678305 -46.41 0.0008867307    1.475    0.322
       286 -10.1337    193.7954     39.0480   4.3796201614e+01   3.2245109492e+01    0.2257878     0.184227  66.35 0.0003245362    1.219    0.180
       287  -9.0240    184.5105     38.7257   4.4947350222e+01   3.4537551824e+01    0.1975337    0.1174984 -46.91 0.0009449589    1.641    0.391
       288 -10.9610    176.7582     36.2425   4.5352495173e+01   3.6757919675e+01    0.3532535    0.3061317 -38.14  0.001413057    1.216    0.178
       289  -9.6367    206.7397     37.1185   4.1728950641e+01   2.9424039072e+01    0.2240477    0.1802781  82.45 0.0007396233    1.177    0.150
       290  -9.5629    132.7462     36.7663   5.3168711005e+01   4.7524523482e+01    0.3383235    0.2131055 -75.02  0.001439203    2.466    0.594
       291 -10.2426     16.9071    203.8549   1.2143207700e+02   2.9602548054e+01     0.289961    0.1707818 -73.88  0.001745031    1.512    0.339
       292 -10.9420      5.8730    198.7360   1.2335368920e+02   3.1758191154e+01    0.3026111     0.133735 -72.74  0.001629578    1.911    0.477
       293 -11.9495    106.1561     32.5579   5.7849904187e+01   5.4250885131e+01    0.5712897    0.3230531  22.14  0.002259584    2.493    0.599
       294 -11.0899      7.4204    192.8330   1.2265961466e+02   3.2927517708e+01    0.4309098    0.1789545 -56.03  0.002094786    2.722    0.633
       295 -10.8251    176.3472     30.3345   4.3754176367e+01   3.7590952626e+01    0.4174202     0.224608  49.57  0.001740266    1.969    0.492
       296  -8.5290    216.7165     32.3218   3.9481294373e+01   2.7732551414e+01    0.1384377   0.08378059 -62.70 0.0003005196    1.593    0.372
       297 -10.8451    144.4124     25.0325   4.7072421457e+01   4.6083720818e+01    0.7315983    0.3639477  51.22  0.003307644    1.865    0.464
       298 -11.2404    240.1936     31.4925   3.7089974805e+01   2.2675857140e+01    0.4093705    0.3145146 -42.74  0.001946887    1.250    0.200
       299 -10.4486    245.6410    200.8583   7.2754591570e+01  -4.8960223041e+00    0.2096009    0.1524138  12.77 0.0006584447    1.300    0.231
       300  -9.4139    221.6770     29.8966   3.8419170572e+01   2.6913714698e+01    0.1851029    0.1445603 -49.31  0.001125127    1.178    0.151
       301 -10.5784    189.4641     27.6665   4.1341691905e+01   3.4712771417e+01    0.3632496    0.2682357  -1.94  0.001642398    1.939    0.484
       302 -11.1725    123.2306     58.8530   6.2844352568e+01   4.6550182495e+01    0.9012081    0.5125541  32.05   0.00366396    2.235    0.553
       303  -9.1619     99.5215     30.4601   5.8803043325e+01   5.5973563912e+01    0.2108019    0.1666017  56.97 0.0007127183    1.289    0.224
       304  -9.5812     97.6616     26.5859   5.7784506165e+01   5.6845663263e+01    0.2762212    0.2211772 -45.96   0.00111866    1.479    0.324
       305 -10.3021    230.6534     27.4350   3.7029749717e+01   2.5230239584e+01    0.3541956    0.1895858 -43.69  0.001225601    1.619    0.383
       306  -9.3484     43.0043     27.9887   7.7717121083e+01   6.6554014158e+01     0.332218    0.1768844   6.26  0.001455255    2.932    0.659
       307  -8.9429     44.9861     24.4711   7.5243747078e+01   6.6787075304e+01    0.2580296    0.1639177 -27.37 0.0008474396    1.443    0.307
       308  -9.6290    211.4825     27.4980   3.8861784876e+01   2.9528065004e+01    0.2189322     0.164619 -37.47 0.0008990826    1.358    0.264
       309 -10.5308    234.2311    196.8867   7.3976907416e+01  -2.6063182525e+00    0.3951615    0.2746928  10.44  0.001572973    1.465    0.317
       310 -11.3013    183.3135     25.4825   4.1510671750e+01   3.6459887256e+01    0.5118862    0.3188174  56.20   0.00264119    1.595    0.373
       311 -10.1183    250.2829     26.6225   3.5238561296e+01   2.1186760662e+01     0.233433     0.160381 -29.17  0.001406128    1.655    0.396
       312  -8.5771      1.2977     26.6793   9.8141699439e+01   7.0946673402e+01   0.09406595   0.08821987 -85.42 0.0007021113    1.619    0.382
       313  -8.7663    195.3271    199.6735   8.1809401908e+01   3.2568738971e+00    0.1275145    0.1105634  80.96 0.0006059852    1.699    0.411
       314  -9.3325     82.5661    196.2128   1.0619560149e+02   2.3229871762e+01    0.3282531    0.1997033  23.67  0.001531508    2.166    0.538
       315  -9.9274    169.8461    191.4734   8.5533113368e+01   9.2667801355e+00     0.360023    0.2220269  24.55  0.001147537    1.863    0.463
       316  -9.4069    168.8876     23.8384   4.2937223756e+01   4.0181604845e+01    0.2092521    0.1710408  48.68 0.0007190722    1.296    0.229
       317  -9.6369     59.6090     23.7889   6.8927019451e+01   6.4584430792e+01    0.1983012    0.1525211  12.16 0.0005409463    1.172    0.147
       318 -10.1733     60.2363     19.9360   6.6918611620e+01   6.4964807615e+01    0.3255359       0.2396 -52.02   0.00123738    2.063    0.515
       319 -12.0486      4.9045    184.3694   1.2263094849e+02   3.5050237788e+01    0.6054568      0.43751  76.82  0.003259799    1.113    0.102
       320  -9.1726    223.4353     22.0556   3.6455462780e+01   2.7467776007e+01    0.1965517    0.1457502  86.32 0.0007038188    1.243    0.196
       321 -10.1702    239.5638    184.8635   7.0721942793e+01  -1.5558870590e+00    0.3649795    0.2127912 -12.86  0.001357487    2.078    0.519
       322 -10.2609    250.4229    177.9103   6.7531920576e+01  -2.1426839424e+00    0.4357697    0.1300121 -32.26  0.001558346    3.416    0.707
       323  -9.9765    247.7380    173.9352   6.7179198775e+01  -1.1073090807e+00     0.439336    0.1624865  31.63  0.001627082    3.867    0.741
       324  -9.1334    157.6254    179.7176   8.5959249537e+01   1.3895894317e+01    0.1508083    0.1135587   4.13  0.000701342    1.708    0.415
       325  -9.9647    231.0351    175.5737   7.0348495819e+01   1.3191503101e+00    0.3735106    0.1548592  39.22  0.001585009    2.573    0.611
       326  -8.3944    194.3391     19.2954   3.8615191137e+01   3.4504632253e+01    0.1286188   0.09418404  44.37 0.0007030339    1.654    0.396
       327  -8.9882    205.4944     17.4918   3.7035559570e+01   3.2077677654e+01    0.1292102    0.1100167 -78.57 -3.460436e-05    1.014    0.013
       328  -9.5668     28.0015    175.9398   1.1671574503e+02   3.4877457338e+01    0.2006916    0.1629703  85.13 0.0007372862    1.016    0.016
       329  -9.9808    186.4731     15.1635   3.8395110196e+01   3.6834522534e+01    0.2470126     0.202736  89.56 0.0004621875    1.071    0.066
       330  -8.9050    174.4022     15.8503   3.9968550622e+01   3.9688781127e+01    0.1543388    0.1291494  -2.77 0.0004364616    1.523    0.343
       331 -10.3274     52.2110    173.7195   1.1059940744e+02   3.2692378274e+01     0.520124    0.2386734 -88.76  0.001965535    3.037    0.671
       332  -9.6457     39.5191    173.4968   1.1369546509e+02   3.4237826453e+01     0.238685    0.1593453 -78.38 0.0007382444    1.309    0.236
       333 -10.5228     35.6882    170.5003   1.1430361579e+02   3.5379277446e+01    0.4401954    0.2348275  86.94   0.00208869    1.975    0.494
       334  -9.7211      9.2802    156.1472   1.1939895862e+02   4.1294750150e+01    0.2301165    0.1638089 -51.21  0.001214524    1.543    0.352
       335  -9.6551     74.5270     19.5349   6.1709022988e+01   6.2401101967e+01    0.2288952    0.1755572   8.20 0.0007392972    1.249    0.200
       336 -11.6098      9.5010    167.1158   1.2029841988e+02   3.8666354101e+01    0.4966984    0.3588438 -87.85  0.002128465    1.098    0.089
       337 -11.2246     13.7298    159.4966   1.1860412621e+02   4.0130422257e+01    0.5418588    0.2325205 -68.28  0.002036544    1.873    0.466
       338  -9.0870    197.8663    167.8886   7.4969592198e+01   8.5803091175e+00    0.1911315    0.1712711 -58.69  0.001060799    1.303    0.232
       339  -9.5822    188.6380    164.1744   7.6048376061e+01   1.1060527176e+01    0.2974078    0.1682255 -23.66 0.0009772627    2.375    0.579
       340 -10.3707     18.9463    165.0130   1.1784330865e+02   3.8353080831e+01    0.3230453    0.2693054 -37.50  0.001600735    1.562    0.360
       341  -8.8804    156.3983    166.2205   8.3511140819e+01   1.6983161139e+01    0.2060915    0.1429498 -57.43 0.0005920483    1.598    0.374
       342  -8.9526    152.4290    166.5330   8.4490875604e+01   1.7696038868e+01      0.14727    0.1447835  -2.97 9.848863e-05    1.015    0.014
       343 -10.7200     28.6507    160.1960   1.1492938815e+02   3.8605174819e+01    0.2717303    0.1569389 -75.53  0.001102596    1.474    0.321
       344  -9.8223    204.9844    162.9666   7.2523026911e+01   8.1603643206e+00    0.2337958     0.204378  27.64  0.000577718    1.169    0.145
       345  -9.8962    208.4903    160.9248   7.1411369382e+01   7.8791570496e+00    0.4770627    0.1965637 -41.43  0.001858988    2.290    0.563
       346  -9.3448     40.8384    163.5578   1.1221192026e+02   3.6506300130e+01    0.3286511    0.1640176  87.91  0.001393055    2.405    0.584
       347  -9.3660     78.9880    160.0222   1.0171661222e+02   3.2383453356e+01     0.236811    0.1642805  75.91 0.0009457788    1.668    0.401
       348  -9.5297    223.9585    157.0892   6.7741603794e+01   5.7163821538e+00    0.2663176    0.1683552 -54.40  0.001241927    1.978    0.494
       349  -9.4393    215.3766    157.8295   6.9453093788e+01   7.1584198542e+00     0.212353    0.1226018 -28.71 0.0009489726    1.772    0.436
       350 -11.8447     15.7760    147.7480   1.1690814593e+02   4.2805034671e+01     0.670134    0.3468921  40.61  0.003521564    2.049    0.512
       351 -11.5623     12.8820    138.2350   1.1664583214e+02   4.5355802571e+01     1.168065     0.509351 -85.95  0.005156995    2.332    0.571
       352 -10.9727     22.2882    154.9612   1.1598593066e+02   4.0483378075e+01    0.4747304    0.3028414  42.61   0.00140473    1.661    0.398
       353 -11.3013     21.3154    150.7079   1.1577360552e+02   4.1609816354e+01    0.2249606    0.1687853  70.54 0.0006087866    1.289    0.224
       354 -11.8065     24.4829    147.4892   1.1456419380e+02   4.2115925559e+01    0.3817194    0.1822213 -60.23 0.0008990472    1.784    0.439
       355 -10.2542    104.8560    154.1477   9.3776422470e+01   2.9576294412e+01    0.3868055    0.3225335 -37.04  0.001978994    1.324    0.245
       356 -10.5049      3.2918    152.5533   1.2057133001e+02   4.2603998701e+01    0.4199852    0.1910607  85.54  0.002000692    2.160    0.537
       357 -10.7722      3.6939    147.2441   1.1999805655e+02   4.3845558472e+01    0.3439134    0.1967842  82.91  0.001749937    1.613    0.380
       358 -11.6931      3.2110    141.5808   1.1959480798e+02   4.5239523304e+01    0.7635812    0.3646905  71.45   0.00156474    2.352    0.575
       359 -10.5471     63.1158    150.7555   1.0447379932e+02   3.6957246716e+01    0.3834605    0.3092437 -15.41   0.00131482    1.680    0.405
       360 -11.2875     45.6906    148.1274   1.0887166921e+02   3.9783436814e+01    0.7357717    0.4166307 -59.14  0.003619205    1.568    0.362
       361 -10.7827     32.0190    153.3144   1.1325638956e+02   3.9959678474e+01    0.7766158    0.4504096  64.80  0.003888268    1.882    0.469
       362  -9.5444     71.0545    151.3018   1.0238273887e+02   3.5718068252e+01    0.2191951    0.1908674   3.27  0.001201613    1.456    0.313
       363  -9.6525    234.1872    150.3336   6.4527178468e+01   5.0567549716e+00    0.2153101    0.1690775  10.84  0.001194677    1.431    0.301
       364  -9.7979    239.7922    146.6216   6.2808464133e+01   4.6990677386e+00     0.243978    0.1705665 -34.37 0.0005480814    1.240    0.194
       365 -10.7909    249.6458    142.7799   6.0441666742e+01   3.6336846645e+00    0.6220419    0.2237785 -36.82  0.002502094    2.376    0.579
       366 -10.6507     33.4955    144.4337   1.1172380694e+02   4.2012281475e+01     0.416393    0.2567508  52.77  0.001960027    1.738    0.424
       367  -9.9653    133.1002    140.9081   8.3573334501e+01   2.7334723668e+01     0.361023    0.2315042 -52.71 0.0008517178    1.562    0.360
       368  -9.4391     27.4655    140.0862   1.1282596088e+02   4.3672163373e+01    0.2736248    0.1822822 -67.77 0.0007233322    1.254    0.203
