#   1 NUMBER                 Running object number                                     
#   2 MAG_AUTO               Kron-like elliptical aperture magnitude                    [mag]
#   3 X_IMAGE                Object position along x                                    [pixel]
#   4 Y_IMAGE                Object position along y                                    [pixel]
#   5 X_WORLD                Barycenter position along world x axis                     [deg]
#   6 Y_WORLD                Barycenter position along world y axis                     [deg]
#   7 A_WORLD                Profile RMS along major axis (world units)                 [deg]
#   8 B_WORLD                Profile RMS along minor axis (world units)                 [deg]
#   9 THETA_WORLD            Position angle (CCW/world-x)                               [deg]
#  10 FWHM_WORLD             FWHM assuming a gaussian core                              [deg]
#  11 ELONGATION             A_IMAGE/B_IMAGE                                           
#  12 ELLIPTICITY            1 - B_IMAGE/A_IMAGE                                       
         1 -11.4912    194.7590     40.4854   4.8321697020e+01   3.1505235208e+01    0.9121388    0.8203503 -77.36  0.003913817    1.040    0.038
         2 -11.5514    204.4557     30.6833   4.4427379323e+01   3.0379606665e+01    0.6701862    0.6233013 -31.76  0.001553969    1.210    0.173
         3  -8.4232    237.5939      5.6735   3.5250850703e+01   2.5515941988e+01    0.2194805    0.1798874  61.82  0.001432715    1.420    0.296
         4 -10.3981    231.3065      4.8050   3.5527984926e+01   2.7014280038e+01    0.5487325     0.502854 -19.65  0.003751945    1.408    0.290
         5 -10.3031    224.5838      3.8659   3.5835382936e+01   2.8643716719e+01    0.5556651    0.3202254 -44.06   0.00307143    1.577    0.366
         6  -8.8228    120.4757      8.8582   5.0744084794e+01   5.3728689774e+01    0.3310802    0.1596498  51.65  0.001422512    1.756    0.430
         7  -9.9679      3.2415      4.2425   9.3927623861e+01   7.3966217646e+01    0.4541956     0.182081 -53.00  0.002249277    3.026    0.669
         8  -7.3250    124.0050      4.9656   4.8596266268e+01   5.3225862667e+01    0.1525445    0.1394271  40.64 0.0003052074    1.063    0.059
         9  -8.0019    235.6496    192.9005   7.7876179187e+01  -2.6558592989e+00    0.1778707     0.145022 -18.68 0.0003954658    1.147    0.128
        10  -9.7756    107.5326    250.5993   1.1168129152e+02   9.0141887514e+00    0.2099628    0.1011826  40.13  0.001118466    1.700    0.412
        11 -15.3010     50.2727    202.9066   1.1839692669e+02   2.6136836982e+01     7.356778     4.826673  53.02   0.04473448    1.337    0.252
        12 -10.0188    176.6605    192.1736   8.9259970108e+01   7.7973203446e+00    0.2435236    0.2331945  22.72 0.0003871013    1.083    0.077
        13  -8.4393    128.9572    191.1613   9.9536411740e+01   1.6737682583e+01    0.2030517    0.1856011  56.19 0.0004037333    1.016    0.016
        14  -9.9064     73.6752    189.2814   1.1187144686e+02   2.6047814285e+01    0.5209328    0.2501265  65.91  0.002134247    2.739    0.635
        15 -14.8189      1.5831    240.5099   1.2971512528e+02   2.3915244236e+01     2.513016    0.3445992 -70.83    0.0055159    5.300    0.811
        16  -8.8124    111.5925    188.8620   1.0313113763e+02   2.0239215187e+01    0.2445574    0.1929858  60.87 0.0005049361    1.217    0.178
        17  -9.6334    146.2402    224.0457   1.0084545992e+02   7.4490301226e+00    0.2276986    0.1871534  88.70  0.001369562    1.540    0.351
        18  -9.2142    219.1044    211.6871   8.4413625115e+01  -2.7661743068e+00    0.2707964    0.2471511 -89.73  0.001028309    1.798    0.444
        19 -11.9816     59.7894    188.7319   1.1493385497e+02   2.8047606990e+01     1.131214    0.7495377  74.54  0.006344177    1.447    0.309
        20  -8.6794    221.7447    178.3878   7.7545436640e+01   1.9652244370e+00    0.2609169    0.1577761 -44.32  0.001269651    1.823    0.451
        21 -10.3595    238.8374    204.6074   7.9527474431e+01  -4.8500646880e+00    0.2387612    0.2018545   8.32 0.0003945853    1.101    0.092
        22  -9.1439     67.2124    173.9009   1.1144656998e+02   3.0461659646e+01    0.4406626    0.1937321  58.15  0.001509661    2.757    0.637
        23  -9.1941     62.3456    170.1099   1.1212875785e+02   3.2000537297e+01    0.2552671    0.1814623  65.41 0.0001650134    1.363    0.266
        24  -9.9913     72.5877    174.9843   1.1030156170e+02   2.9465634403e+01     0.413583    0.2507396 -46.02  0.001589515    2.007    0.502
        25  -9.5568     76.8318    169.9480   1.0857413470e+02   3.0038249397e+01    0.3284747    0.2432003 -46.62 0.0006959498    1.557    0.358
        26  -8.7882    197.8519    176.6817   8.1853645505e+01   6.6382968538e+00      0.23591    0.2103868 -25.74 0.0004374483    1.129    0.114
        27  -8.3570    137.3028    174.9487   9.4793296578e+01   1.8645542912e+01     0.198934    0.1871184 -61.47 0.0004025006    1.111    0.100
        28  -8.0589    106.6265    171.1876   1.0146456545e+02   2.5026448151e+01    0.1972504    0.1282565 -47.58 0.0005035375    1.662    0.398
        29  -9.0049    207.1984    206.0249   8.5649811450e+01   4.4525308589e-02    0.2157392    0.1725857  35.18 -0.000430966    1.220    0.181
        30  -7.2204    125.5993    168.4701   9.6371170687e+01   2.2256819020e+01    0.1427079    0.1401069  71.22 8.346079e-05    1.047    0.045
        31  -8.8140     65.0081    164.8211   1.1077250181e+02   3.2901382330e+01    0.3437666    0.2075682  69.42  0.001038042    1.868    0.465
        32  -9.1757    208.3574    201.4571   8.4588712779e+01   5.6594726290e-01    0.2617149    0.2093737   0.92 0.0002901258    1.190    0.160
        33  -9.8398     83.7874    161.2111   1.0550993163e+02   3.1075724489e+01    0.6388243    0.2955939  46.07  0.001199985    2.152    0.535
        34 -11.1473     73.3002    156.4742   1.0744933736e+02   3.3762134585e+01    0.4382569    0.3319281 -49.86 0.0008356067    1.406    0.289
        35  -9.6624     62.5540    156.0985   1.1016512933e+02   3.5320564654e+01    0.5821236    0.2539117  63.27  0.001983117    3.830    0.739
        36  -8.6512     90.0677    155.7400   1.0298385617e+02   3.1404965983e+01    0.2514642    0.2384221 -56.36 0.0004152671    1.142    0.124
        37  -8.7101     93.2775    152.4964   1.0157291169e+02   3.1665213621e+01    0.3234846    0.2715374  83.47  0.001430436    1.210    0.174
        38  -8.7084    119.5540    220.7718   1.0589063865e+02   1.2452345301e+01    0.2480593    0.1597356  41.99 0.0007006997    1.345    0.257
        39  -9.0220    134.2691    148.9352   9.0323714599e+01   2.5003368683e+01      0.45376    0.2125149 -61.32  0.001521938    2.958    0.662
        40  -9.0025     36.1281    151.1212   1.1628372300e+02   3.9600031839e+01    0.2193218    0.1659456  51.93  0.001311171    1.362    0.266
        41 -12.0239     68.2105    144.0302   1.0679590186e+02   3.7505827922e+01     1.419644    0.8411503 -80.76  0.004880322    1.902    0.474
        42 -11.5569     58.3236    132.5846   1.0761686937e+02   4.1619339738e+01    0.8823255    0.4889121 -76.17  0.003976794    1.913    0.477
        43 -10.2427     15.5474    145.5352   1.2087719678e+02   4.2805317079e+01    0.3253911    0.2169852  40.85  0.001149909    1.650    0.394
        44  -7.3174    156.0100    148.2338   8.4897674631e+01   2.0702786793e+01    0.1955043    0.1271651  42.94 0.0003531784    1.522    0.343
        45  -7.8433    132.4165    140.7699   8.8992422924e+01   2.7238319297e+01    0.2234772    0.1441619 -38.73 0.0009501484    1.676    0.403
        46  -8.2722    103.6561    141.3039   9.6651627420e+01   3.2590639140e+01    0.3271212    0.2045002  46.68   0.00129199    1.634    0.388
        47  -8.2263    105.4878    138.0746   9.5482483446e+01   3.3038794126e+01    0.4205249    0.3021609  73.85  0.001907519    1.760    0.432
        48  -9.7168     92.0182    139.8250   9.9514151609e+01   3.4939975741e+01    0.2637354    0.2519177 -44.75 0.0003115007    1.127    0.112
        49  -9.7657      3.7133    140.2496   1.2334077225e+02   4.4918699880e+01    0.2512599    0.1848411  73.41  0.001321959    1.265    0.209
        50  -9.9408      3.1392    131.4897   1.2268276903e+02   4.7005922972e+01    0.3514313    0.2675326 -69.02  0.002381363    1.143    0.125
        51  -9.3137     32.9576    132.1555   1.1470627418e+02   4.4504227529e+01    0.2461273    0.1612937 -70.48  0.001131488    1.272    0.214
        52  -8.0702    112.4734    130.9709   9.2020425117e+01   3.3443907538e+01    0.2325156    0.1473788 -51.15 0.0005372212    1.534    0.348
        53  -9.2222     43.5901    127.4679   1.1100058569e+02   4.4583015827e+01    0.2629325    0.1561671  65.40 0.0008040206    2.079    0.519
        54  -8.5492    100.1050    126.7475   9.4494350560e+01   3.6725012365e+01    0.2659157    0.2053937 -45.45 0.0004416663    1.284    0.221
        55  -8.2856     80.6975    126.9834   1.0010979962e+02   3.9884391292e+01    0.2102694    0.1802508 -64.88  0.000549379    1.082    0.076
        56  -8.6596    144.5912    124.0855   8.1934573710e+01   2.8446563150e+01    0.2736104    0.2264303  46.76 0.0003331101    1.222    0.181
        57  -9.5319    201.0181    122.5517   6.9008709335e+01   1.6131644993e+01    0.2639019    0.2494582 -33.28 0.0003509726    1.024    0.023
        58  -7.7491    205.9057    119.1667   6.7242219478e+01   1.5690454031e+01    0.1971111    0.1702736   3.31            0    1.276    0.216
        59  -8.3778    107.8830    119.1916   9.0518186304e+01   3.7103049356e+01    0.2963687    0.2003468  54.69  0.001313632    1.661    0.398
        60 -13.2589     57.1958    241.0261   1.2016573729e+02   1.7670290698e+01     1.003857    0.8712751  60.95  0.003528101    1.248    0.199
        61  -9.2247     37.5186    112.9539   1.1041632193e+02   4.8747724702e+01    0.2156496    0.1130813 -65.59  0.001039209    1.611    0.379
        62 -10.7951     30.2159    141.3878   1.1664299480e+02   4.2523891608e+01    0.5537422    0.3173256 -69.12  0.002975061    1.445    0.308
        63  -8.2224     19.4744    110.7430   1.1560455812e+02   5.0821519892e+01    0.1964778     0.172707  27.43 0.0006968218    1.400    0.286
        64  -8.2741    117.5022    109.0239   8.5210734076e+01   3.7577187515e+01    0.2425345     0.150712 -48.42  0.000729192    1.569    0.363
        65  -8.9961     11.1375    108.6197   1.1783820881e+02   5.1903480860e+01    0.3737772    0.1282726  34.86  0.001690017    3.196    0.687
        66  -8.2048     40.3418    108.6500   1.0876622052e+02   4.9514172003e+01    0.1389347   0.09532031  74.57 1.416073e-05    1.801    0.445
        67  -8.3861     83.3271    197.1154   1.1066514216e+02   2.2927925139e+01    0.2830327    0.1713924  78.25  0.001005804    1.941    0.485
        68  -8.1703     90.4651     98.5801   9.0416218016e+01   4.5088709966e+01    0.2444361    0.2239419 -42.18 0.0001484142    1.027    0.026
        69  -7.6177    147.5773     98.0752   7.4230032904e+01   3.3366175402e+01    0.2299066    0.1530355 -41.85  0.000300435    1.483    0.326
        70  -7.6200    123.7273     84.1105   7.6332422925e+01   4.1657318304e+01    0.2701146    0.1847204  -8.33 0.0009297628    2.173    0.540
        71 -10.1527    106.6994     78.4414   7.9480592128e+01   4.6424956070e+01    0.2673906    0.2510777 -30.49 0.0002566607    1.034    0.033
        72  -8.8492    202.8549     74.9580   5.6419901898e+01   2.4286000957e+01    0.3628526     0.235256 -27.11  0.001640769    1.664    0.399
        73  -8.9536    209.0297    196.7348   8.3575301290e+01   1.2043825032e+00    0.2266472    0.1817763 -16.79 0.0003801254    1.214    0.176
        74  -7.8916    178.0230     65.0151   5.7996191350e+01   3.2056009532e+01    0.2327101    0.1735963 -69.18 0.0003832384    1.554    0.356
        75  -7.7068    152.7873     52.2102   5.9065960997e+01   4.0444693499e+01    0.2032436    0.1713389  25.16 0.0004026703    1.308    0.236
        76 -10.4148    184.6504     48.7208   5.2152233876e+01   3.2894909714e+01    0.4922154    0.3350397  44.39  0.001743582    1.607    0.378
        77  -7.3845    218.7062    196.7151   8.1723263418e+01  -4.4305315299e-01     0.133169   0.09230392   4.89 0.0001730433    1.541    0.351
        78  -8.9720    115.2855    241.8233   1.0927543074e+02   9.3342165177e+00    0.1912905    0.1475588 -76.86  0.001233139    1.514    0.339
        79  -7.7676    172.4429     23.4982   4.6668755832e+01   3.9274482965e+01    0.1390951    0.1273586  64.04 6.860694e-05    1.074    0.069
        80  -8.2336    164.2488     22.7973   4.7689836203e+01   4.1439083201e+01    0.1965251    0.1785062 -83.28 0.0004715919    1.088    0.081
        81  -8.5994    131.9803     19.2096   5.2200144590e+01   4.9928532997e+01    0.2249817     0.195491 -32.92            0    1.257    0.204
        82  -8.7263    249.9191    239.4385   8.3710986407e+01  -1.0869356859e+01    0.1832618      0.14532 -26.72 0.0006671327    1.529    0.346
        83  -7.8805    192.4725    193.9676   8.6331641456e+01   4.5909032365e+00    0.1813889    0.1234283 -66.53 0.0008099456    2.570    0.611
        84  -7.6122    169.1590    236.8336   9.8120063518e+01   1.5743394896e+00     0.167162    0.1301446  17.35 0.0004183885    1.286    0.223
        85 -15.1745      5.2932    249.7310   1.2948565415e+02   2.1906773664e+01     2.466935     1.110399  29.11   0.01417039    3.127    0.680
        86  -8.4803    220.7222    229.1264   8.7135824272e+01  -5.4556932292e+00    0.1674051    0.1469094  10.39 0.0005714029    1.188    0.158
