#   1 NUMBER                 Running object number                                     
#   2 MAG_AUTO               Kron-like elliptical aperture magnitude                    [mag]
#   3 X_IMAGE                Object position along x                                    [pixel]
#   4 Y_IMAGE                Object position along y                                    [pixel]
#   5 X_WORLD                Barycenter position along world x axis                     [deg]
#   6 Y_WORLD                Barycenter position along world y axis                     [deg]
#   7 A_WORLD                Profile RMS along major axis (world units)                 [deg]
#   8 B_WORLD                Profile RMS along minor axis (world units)                 [deg]
#   9 THETA_WORLD            Position angle (CCW/world-x)                               [deg]
#  10 FWHM_WORLD             FWHM assuming a gaussian core                              [deg]
#  11 ELONGATION             A_IMAGE/B_IMAGE                                           
#  12 ELLIPTICITY            1 - B_IMAGE/A_IMAGE                                       
         1  -8.6397    119.1414     33.2639   8.2419975700e+01   5.1096582540e+01    0.3139416    0.1603839 -39.44 0.0008130304    2.077    0.519
         2  -8.2543      7.5375     15.5047   1.1692619543e+02   7.1495407067e+01    0.1119221   0.08485519 -29.77  8.12778e-06    1.045    0.043
         3  -8.8593    232.8525     12.7464   5.9376516565e+01   2.5545255980e+01    0.2040462    0.1730038 -25.93 0.0006897998    1.350    0.259
         4  -7.6570     83.4246     11.1828   8.2984706290e+01   6.1404975907e+01    0.1692474    0.1128653 -33.89 0.0007843935    1.637    0.389
         5  -8.6098     55.6833     10.1201   9.1887714562e+01   6.6548623644e+01    0.1822808    0.1619909  29.74 0.0006732478    1.309    0.236
         6  -7.7729     47.6153      9.8048   9.4956496746e+01   6.7840121600e+01    0.1636854    0.1000612 -36.46 0.0009407338    1.726    0.420
         7  -8.1562     27.8484      9.8638   1.0389760977e+02   7.0448506089e+01    0.1464164    0.1244639 -25.61 0.0006784332    1.320    0.242
         8  -8.2807     90.8850      8.9452   7.9881365797e+01   6.0108636464e+01    0.1911743    0.1553492 -59.36 0.0008492186    1.706    0.414
         9  -7.6006    101.2338      7.9683   7.6811911582e+01   5.7981679132e+01    0.1546501    0.1061087 -18.09 0.0002932113    1.512    0.339
        10  -8.7102     33.4176      5.3436   9.8916320930e+01   7.0376412158e+01    0.2452065    0.1831466 -57.49  0.001435216    2.667    0.625
        11  -8.5670     79.0683      3.7623   8.0883615331e+01   6.3005027730e+01    0.2630517    0.1532923 -37.10  0.001053381    2.012    0.503
        12  -7.5163     99.2629      3.6689   7.5479803828e+01   5.8800168443e+01    0.1196382   0.09785131 -54.10 0.0002717042    1.573    0.364
        13  -7.7894     15.6514      3.2214   1.0672832044e+02   7.2687767021e+01    0.1562003   0.07992304 -30.24 0.0004207955    1.599    0.375
        14  -8.3269     62.3387      1.5443   8.5165852994e+01   6.6351145874e+01    0.1481488    0.1428072 -58.20 0.0002669355    1.519    0.342
        15  -7.5280     39.2977      1.6405   9.4269930679e+01   7.0028957449e+01    0.1035003   0.08912402 -41.39 0.0007034279    1.708    0.415
        16  -8.9824    120.2607    245.4948   1.3002551770e+02   9.2743641559e+00    0.3173442    0.1753513  65.57  0.001609865    2.265    0.558
        17  -8.5514     93.9954    249.6374   1.3515247047e+02   1.2453274279e+01    0.2580234    0.1174566  63.28  0.001270075    2.590    0.614
        18  -8.3822     67.5844    245.2697   1.3941658180e+02   1.6775266847e+01    0.1933421    0.0984714 -79.33  0.001135865    2.142    0.533
        19  -8.6151    139.5779    244.8053   1.2641859098e+02   6.4096080190e+00    0.1439435    0.1113655 -82.42 0.0009376017    1.683    0.406
        20  -8.7577     78.7863    244.1125   1.3735756479e+02   1.5485806328e+01      0.38572    0.1365993  62.45  0.001457566    4.402    0.773
        21  -8.9776      9.6827    244.2624   1.4896059003e+02   2.3591601146e+01    0.2519892   0.08884724  84.99  0.001345584    2.798    0.643
        22  -9.3376    246.6053    229.1459   1.0502299164e+02  -8.0563993749e+00     0.305555    0.1867438 -24.53   0.00112308    1.624    0.384
        23  -9.5315    248.5455    242.3743   1.0686144942e+02  -9.7899951779e+00    0.2468899    0.1988373 -25.78 0.0008534511    1.540    0.351
        24  -9.3382    248.0909    235.0358   1.0575159892e+02  -8.9292793304e+00    0.3169584    0.1845849 -35.67  0.001590107    2.016    0.504
        25  -8.6809    201.9822    243.2660   1.1492537730e+02  -3.1475395813e+00    0.2084165    0.1604319 -45.70 0.0007781824    1.756    0.431
        26  -8.8494    168.9990    243.4423   1.2086798681e+02   1.9754879435e+00    0.1863358    0.1649593  86.24 0.0005861623    1.513    0.339
        27  -9.6701    160.3660    240.5954   1.2206709443e+02   3.7564954155e+00    0.3818268    0.2525845 -82.50   0.00161288    3.008    0.668
        28  -9.2029    194.4488    240.2375   1.1581728620e+02  -1.5949089559e+00    0.2579603    0.2083888 -63.83   0.00133553    1.946    0.486
        29  -9.1645    183.0127    240.1716   1.1786784180e+02   2.1158734169e-01    0.3409892    0.2204557  62.87  0.001742049    2.423    0.587
        30  -7.9962    153.4903    242.0282   1.2352001895e+02   4.6386733254e+00    0.1505691    0.1030091 -88.96 0.0007240303    2.554    0.608
        31  -8.5445    146.8505    240.4862   1.2454896141e+02   5.9249622619e+00    0.3402653    0.1938315  67.30   0.00160938    2.917    0.657
        32  -8.1942     88.4324    242.1181   1.3545909563e+02   1.4494662087e+01    0.1521804    0.1057014 -78.10 0.0005041151    1.560    0.359
        33  -8.7790    240.9862    239.5714   1.0765996606e+02  -8.4435999670e+00    0.2915691    0.1434713 -24.57  0.001497307    2.168    0.539
        34  -7.7515    214.3008    241.6452   1.1252532525e+02  -4.8115300709e+00    0.1029593   0.09023604  60.08 0.0003917412    1.704    0.413
        35  -9.1453    136.1417    239.3232   1.2639220709e+02   7.7997165650e+00    0.2734236     0.148212  58.08  0.001419456    2.043    0.511
        36  -8.3623    209.3933    238.7213   1.1293680304e+02  -3.7088423594e+00    0.1823601    0.1114794 -41.34 0.0005431934    2.039    0.509
        37  -8.7809    129.4238    238.7694   1.2757623211e+02   8.9422237607e+00    0.2244551    0.1566344  82.33  0.001334254    1.880    0.468
        38  -9.0622    231.0946    237.2367   1.0894997286e+02  -6.7665227192e+00    0.2111239    0.1867301 -43.24  0.001057155    1.714    0.417
        39  -8.3420     25.3870    236.6595   1.4604694445e+02   2.3313367569e+01    0.1963087   0.07181673  85.18 0.0009450805    3.118    0.679
        40  -9.8785    215.0634    233.4293   1.1111578646e+02  -3.9107445358e+00    0.4750975    0.3592448  89.82  0.002410633    3.641    0.725
        41  -9.0062    203.2698    235.0667   1.1346142396e+02  -2.2954199774e+00    0.2453604    0.2061448 -61.10  0.001226794    1.842    0.457
        42  -9.7727    175.7238    233.4070   1.1822910540e+02   2.3321324721e+00     0.418348    0.2509101 -60.11  0.002188822    2.670    0.625
        43  -8.2524    170.3438    236.0442   1.1960213370e+02   2.8200967539e+00    0.1460846    0.1139594 -64.26  0.000517685    1.783    0.439
        44  -9.3983    109.0688    234.6674   1.3091586267e+02   1.2759144802e+01    0.4283395    0.1875165  53.86  0.001307492    2.179    0.541
        45  -7.7110    152.7194    235.3530   1.2279025919e+02   5.7732675907e+00    0.1182967    0.0876909  68.28 0.0006553405    1.654    0.395
        46  -8.3838     99.4990    234.4529   1.3268337825e+02   1.4224830361e+01    0.2092199    0.1274024  65.65 0.0006997056    1.654    0.395
        47  -8.9861     78.8854    234.2775   1.3648082704e+02   1.7192695979e+01    0.2507177    0.1454948 -88.27  0.001055145    1.935    0.483
        48  -8.9916      8.1773    234.8678   1.4878314392e+02   2.5394070909e+01    0.1282755    0.1028716  87.38 0.0008303427    1.311    0.237
        49  -8.2369    122.8936    234.1603   1.2825693206e+02   1.0719242544e+01    0.1937656    0.1375424  62.49 0.0007511373    1.374    0.272
        50  -9.1828     68.2486    232.2282   1.3824599978e+02   1.8994657664e+01    0.4396212    0.1908392  70.77  0.001976775    3.141    0.682
        51  -8.5858    194.4811    232.8483   1.1470403465e+02  -6.1169196560e-01    0.2148512    0.1767905  56.76 0.0009266417    1.528    0.345
        52  -8.8831    140.4072    230.4512   1.2447206471e+02   8.5441781772e+00    0.3913429    0.1768785  56.57  0.001566115    2.824    0.646
        53  -7.7925    132.7331    232.7628   1.2622607738e+02   9.3983728035e+00    0.1923371    0.1193172  66.17  0.001027872    1.984    0.496
        54  -8.4886     92.5357    232.3123   1.3376624004e+02   1.5617961874e+01    0.2851938    0.1400161  67.89  0.001349277    2.642    0.622
        55  -9.3468    186.6694    230.9459   1.1584278060e+02   9.0856580097e-01    0.2935084    0.2298606  79.97  0.001488569    2.138    0.532
        56  -8.1611    157.7112    232.1470   1.2141788436e+02   5.4570418930e+00    0.1754441     0.148687  79.57  0.000726459    1.475    0.322
        57  -8.9197      1.7992    231.0685   1.4964620069e+02   2.6684835217e+01    0.2116225   0.09735598  79.99 0.0008596759    1.752    0.429
        58  -9.0413    236.1190    230.3911   1.0698749885e+02  -6.6933492908e+00    0.2672309    0.1706936 -30.29  0.001087714    1.679    0.404
        59  -9.4975    148.8418    224.7148   1.2207948993e+02   8.1002457093e+00    0.4386064    0.2883972  79.57  0.001361847    2.572    0.611
        60  -8.0735    229.7634    228.9759   1.0783929221e+02  -5.5840244246e+00    0.1530339    0.1369868 -60.66 0.0006148489    1.884    0.469
        61  -9.0322    162.3311    227.8210   1.1993512048e+02   5.3674765146e+00    0.2729891    0.1861234  63.06 0.0007409473    1.855    0.461
        62  -8.9106    127.9047    227.2081   1.2645479843e+02   1.1101625297e+01    0.3020646     0.198099  68.86  0.001096888    1.817    0.450
        63  -8.3747    120.1051    227.5497   1.2800010752e+02   1.2282492523e+01     0.202642    0.1494651  68.80   0.00120589    1.394    0.283
        64  -7.8930    223.3762    227.1980   1.0865307216e+02  -4.3975606973e+00    0.1491933    0.1091181 -39.56 0.0006361826    1.711    0.415
        65  -8.8420    206.0501    226.0374   1.1153988131e+02  -1.5350710983e+00    0.2413887    0.1753423 -44.97 0.0008859905    1.766    0.434
        66  -8.1650     49.4170    226.7285   1.4122833202e+02   2.2394877618e+01    0.2510919    0.1085867  70.75  0.001227563    2.609    0.617
        67  -8.2546    199.9111    225.9442   1.1263848782e+02  -5.3605481195e-01    0.2008994    0.1630101 -37.36 0.0007532637    1.468    0.319
        68  -8.8296    180.4443    224.3404   1.1599231574e+02   2.8893304930e+00    0.2301546    0.1870289  64.61 0.0006492899    1.573    0.364
        69  -8.9730     94.1690    224.3777   1.3263633675e+02   1.6812383262e+01    0.3473492    0.1755753  64.80  0.001592409    2.318    0.569
        70  -8.9142    216.4899    223.1953   1.0920436351e+02  -2.8122556079e+00    0.2589977    0.1930139 -43.54  0.001048395    1.735    0.424
        71  -9.0112    173.0937    223.0339   1.1718181830e+02   4.3142258638e+00    0.2854649    0.2239388 -85.75  0.001012654    1.987    0.497
        72  -7.7519    113.9859    224.0187   1.2875946987e+02   1.3864560897e+01    0.1962929    0.1278301  67.96 0.0006084982    1.674    0.403
        73  -8.9515    104.6561    223.4808   1.3050987406e+02   1.5403562349e+01      0.29764    0.1865125  78.20  0.001377519    1.951    0.487
        74  -7.7221     38.3111    224.6426   1.4307640020e+02   2.4094131994e+01    0.1223982   0.06190906  67.42 0.0007043093    1.737    0.424
        75  -8.9707    151.3129    228.9653   1.2219300902e+02   7.0045633310e+00    0.2699554    0.1772232  80.88   0.00115806    2.709    0.631
        76  -9.2624    225.6330    221.6296   1.0733016653e+02  -4.0356263077e+00    0.2641277    0.1918146 -10.29 0.0007898673    1.357    0.263
        77  -8.0808    140.4983    222.9607   1.2345617589e+02   9.7737480398e+00    0.1636087    0.1263396 -59.06  0.000728526    1.525    0.344
        78  -8.9912    239.2338    221.6322   1.0498858755e+02  -6.0971774712e+00    0.2015025     0.175881  -9.51 0.0007140962    1.272    0.214
        79  -9.3076    192.4050    221.1948   1.1325991380e+02   1.3654648598e+00    0.2760981    0.2399984 -76.23  0.001081281    1.712    0.416
        80  -9.0469    158.9877    220.4873   1.1950851719e+02   7.0917961317e+00    0.2455679    0.1878408  79.13 0.0008536869    1.815    0.449
        81  -9.4454      7.3979    221.8985   1.4830088125e+02   2.7843636095e+01     0.275227   0.08504801  55.91  0.001445968    2.515    0.602
        82  -8.6874     82.6694    220.5837   1.3445899627e+02   1.9181362200e+01    0.3018265    0.1422374  64.52  0.001276363    2.500    0.600
        83  -8.5434     73.1643    220.9501   1.3632105800e+02   2.0432269449e+01     0.267195     0.131745  67.72  0.001240818    2.282    0.562
        84  -8.0812     27.5092    221.4828   1.4479271260e+02   2.5888974611e+01    0.1106682   0.08196255  73.13 0.0008103075    1.018    0.017
        85  -8.3170    202.8305    220.1381   1.1116349485e+02  -2.0135146963e-01    0.1748989    0.1609737  40.66 0.0005286256    1.285    0.222
        86  -9.0999    120.2861    219.2263   1.2693187146e+02   1.3724176798e+01    0.4015052    0.2088146  62.31  0.001819912    2.441    0.590
        87  -8.7027    248.6212    218.1735   1.0281609505e+02  -7.0561151734e+00    0.3389112    0.2055895  57.49  0.001605533    3.626    0.724
        88  -8.5274    209.9599    218.9062   1.0966049941e+02  -1.1907733816e+00     0.202254    0.1619984 -36.03 0.0007059581    1.461    0.316
        89  -8.6532    179.1474    217.8627   1.1522502354e+02   4.0894788681e+00    0.1900805    0.1611058  55.16 0.0008064435    1.316    0.240
        90  -9.3487    132.8367    216.0247   1.2401568503e+02   1.2245616952e+01    0.4408884    0.2674872  77.54  0.002005911    2.792    0.642
        91  -8.1983    111.8545    217.5557   1.2839274514e+02   1.5370326050e+01    0.2420007    0.1411477  72.22  0.001173611    2.301    0.565
        92  -8.8887     51.5033    217.1582   1.4009693890e+02   2.3964707381e+01    0.2777391    0.1552621  87.58 0.0009160402    1.749    0.428
        93  -8.7876    169.2693    216.1059   1.1684830320e+02   6.0505556951e+00    0.2787181     0.203051 -83.84 0.0008407718    2.334    0.572
        94  -8.6286    142.8074    216.5343   1.2210578035e+02   1.0487459530e+01    0.2256418    0.1655006 -82.87 0.0007134101    1.855    0.461
        95  -8.3956     61.8588    217.1186   1.3812986831e+02   2.2668218469e+01    0.1910915    0.1249512  70.17 0.0006773613    1.338    0.253
        96  -8.1674    154.6697    215.5351   1.1961525716e+02   8.6440940991e+00    0.1984431    0.1569816  88.37  0.001152989    1.699    0.411
        97  -8.4301     18.5026    216.0116   1.4605933897e+02   2.7873642084e+01    0.1622342   0.08693821 -83.38 0.0005986684    1.592    0.372
        98  -8.7242    232.3725    214.4881   1.0492880823e+02  -4.1572008503e+00    0.2488638    0.1805802 -27.29  0.001083998    1.424    0.298
        99  -8.3966    185.8426    214.7343   1.1344538783e+02   3.4315609734e+00    0.2084847    0.1693265 -87.77  0.001201945    1.955    0.488
       100  -8.9692     93.1601    214.2156   1.3171704832e+02   1.8868641569e+01    0.2960967    0.1677256  71.22  0.001048236    2.112    0.526
       101  -7.8589     41.3817    215.2049   1.4183976334e+02   2.5551619703e+01    0.1623926   0.08746579  87.71 0.0005898018    1.751    0.429
       102  -9.4155     72.9952    211.9471   1.3547704018e+02   2.2196020959e+01    0.5854236    0.2156532  61.50  0.002154316    3.992    0.750
       103  -8.5205    224.6063    212.0972   1.0586906495e+02  -2.6196893545e+00    0.2471196     0.113772 -35.18  0.001140064    2.286    0.563
       104  -9.4810    214.0642    212.1498   1.0776464530e+02  -9.2102569259e-01    0.3370659    0.2639998  55.77  0.001500973    1.699    0.411
       105  -8.9710    161.8122    212.4305   1.1773256334e+02   7.9363317412e+00     0.233105    0.1910617  70.81 0.0007978364    1.478    0.323
       106  -8.2211    106.4966    212.9756   1.2889845377e+02   1.7067168261e+01    0.1719531    0.1218242 -68.82 0.0005601572    1.534    0.348
       107  -9.0278    204.3465    211.0153   1.0934703805e+02   8.5355617480e-01     0.244104    0.2220645 -80.80 0.0007206641    1.626    0.385
       108  -9.6263    175.3450    210.1790   1.1471945246e+02   5.9566385644e+00    0.4334506    0.2846626  70.79  0.001974371    2.725    0.633
       109  -9.2893    171.9632    206.1322   1.1471569037e+02   7.2125919112e+00    0.2650707    0.1843472  46.97 0.0002754328    1.354    0.261
       110  -8.2721    192.4766    210.5294   1.1148612028e+02   2.9399738734e+00    0.1963698    0.1235499 -52.47 0.0006113572    2.144    0.534
       111  -8.8211    148.0338    210.5188   1.2018032599e+02   1.0644097006e+01    0.2818091    0.2043407 -88.96  0.001289349    2.005    0.501
       112  -8.9470    116.3831    210.6658   1.2660389383e+02   1.5928574106e+01    0.3126372    0.1859946  64.41  0.001150966    1.936    0.484
       113  -8.5990     85.6533    209.7527   1.3271949284e+02   2.0840675889e+01    0.3136647    0.1622226  73.85  0.001222384    2.665    0.625
       114  -9.4264    236.7369    207.5758   1.0294786445e+02  -3.9334022443e+00    0.4099169    0.2386035 -33.83  0.001659706    1.774    0.436
       115  -8.2869     46.6512    209.6387   1.4040495073e+02   2.6030830356e+01    0.2337124    0.1102166  81.04  0.001154301    2.398    0.583
       116  -9.3328    246.4395    207.2481   1.0124051167e+02  -5.3817512563e+00    0.2627425    0.1923278 -13.82 0.0006224692    1.239    0.193
       117  -9.3849    250.0936    201.9861   9.9669830954e+01  -5.2623400911e+00    0.3285163    0.1621213 -30.65  0.001209296    1.948    0.487
       118  -8.1379    156.5133    208.0546   1.1810019268e+02   9.6013144089e+00    0.1754959    0.1319942 -51.04 0.0005235791    1.526    0.345
       119  -8.4411    139.0427    207.8833   1.2160250979e+02   1.2659307030e+01    0.2175759    0.1665581 -82.72 0.0008939683    1.643    0.391
       120  -8.0139    126.2486    208.4619   1.2429425894e+02   1.4718376134e+01    0.1825223    0.1067004  51.87 0.0008192885    1.588    0.370
       121  -9.2713     99.5217    206.4211   1.2950543998e+02   1.9415813782e+01    0.3791835    0.2207389  78.09  0.001340178    2.324    0.570
       122  -9.0264      5.7167    207.7260   1.4787112987e+02   3.0712019278e+01    0.2255751   0.08650891  78.12  0.000999691    2.497    0.600
       123  -8.1123    109.0781    205.5060   1.2742010824e+02   1.8091429177e+01    0.1897335    0.1614728 -82.98 0.0006359857    1.211    0.174
       124  -8.6279     56.7073    205.8107   1.3810859779e+02   2.5566201174e+01    0.2810918     0.143265  63.85   0.00146175    1.913    0.477
       125  -9.5378    194.8135    203.5291   1.0983397556e+02   3.6140596663e+00    0.4016798    0.3614144 -33.30  0.001768928    1.260    0.206
       126  -9.3550    192.5893    197.6042   1.0920593123e+02   4.9437707639e+00    0.3174729     0.254242 -59.71 0.0009696072    1.675    0.403
       127  -9.0343    183.7791    204.0078   1.1204143607e+02   5.4754106664e+00    0.2934596    0.2338044  71.98 0.0009029952    1.763    0.433
       128  -8.6371    131.3169    204.0861   1.2262474411e+02   1.4680439084e+01    0.3179765    0.2042408  82.44 0.0009951363    2.430    0.588
       129  -7.7618     92.3298    205.6557   1.3088913276e+02   2.0663130229e+01    0.1367689   0.08418266  69.37 0.0007050666    1.752    0.429
       130  -9.5880    163.7382    203.0075   1.1583636919e+02   9.1996107295e+00    0.3799571    0.2628559  64.52 0.0009453479    1.867    0.464
       131  -8.4377    210.9735    201.9977   1.0653094469e+02   1.0569367852e+00    0.2426337    0.1750246 -61.81 0.0007720257    2.336    0.572
       132  -7.6220     66.6374    203.3092   1.3587600225e+02   2.4785557098e+01    0.1341329   0.07587007  66.26 0.0007039889    1.746    0.427
       133  -8.1441     32.2554    210.2552   1.4318119967e+02   2.7552731110e+01    0.1780879    0.0761225  89.23 0.0008844123    2.429    0.588
       134  -9.2324    243.1205    200.5749   1.0057887353e+02  -4.0058800588e+00    0.3212507    0.1781663 -28.20   0.00104551    1.747    0.428
       135  -8.3961    228.4051    201.3770   1.0327254204e+02  -1.7643258418e+00    0.2387349    0.1049103 -21.54  0.000950309    3.245    0.692
       136  -8.8044    140.3915    201.0511   1.2028898430e+02   1.3679174920e+01    0.3155821    0.2152815  88.25  0.001177059    2.237    0.553
       137  -8.6313     80.1224    201.5765   1.3292869232e+02   2.3275190034e+01     0.273911    0.1631016  75.30  0.001262779    1.874    0.466
       138  -7.6804     72.9865    202.4669   1.3449485436e+02   2.4096081509e+01    0.1748389   0.08013859  58.48 0.0006543832    2.248    0.555
       139  -8.1747     48.4513    202.1546   1.3941657966e+02   2.7327228713e+01    0.2428797    0.1111221  64.99  0.001175664    2.281    0.562
       140  -8.9094    237.0901    198.6194   1.0124695372e+02  -2.7893740646e+00     0.275656    0.1626792 -41.90 0.0009333998    2.000    0.500
       141  -9.5549    149.6631    198.7768   1.1801042589e+02   1.2461135026e+01    0.4038076    0.2774881  84.76  0.001360699    2.345    0.574
       142  -9.0162    124.0234    199.2351   1.2343034522e+02   1.6845794318e+01    0.3063732    0.2053326 -84.58  0.001256155    2.004    0.501
       143  -9.6665    112.9277    198.5084   1.2566472253e+02   1.8841148631e+01    0.4733201    0.2561594  67.44  0.001903363    2.656    0.624
       144  -8.6608    176.9545    199.1127   1.1253489545e+02   7.4984321789e+00    0.1963722    0.1744328  65.80 0.0004833073    1.326    0.246
       145  -8.9841     88.6518    198.4681   1.3078308051e+02   2.2662944834e+01    0.3212818    0.1971156  81.05  0.001639997    1.936    0.484
       146  -8.2534    202.1614    197.8546   1.0742316013e+02   3.2096115287e+00    0.1847382    0.1748387  51.87 0.0005355945    1.292    0.226
       147  -9.1165     61.3564    196.8500   1.3629765032e+02   2.6811443518e+01    0.4432339    0.2302492  84.08  0.001595292    2.284    0.562
       148  -9.5152     12.7052    197.4876   1.4600044769e+02   3.2104496116e+01    0.2673276    0.1103388  81.42  0.001360896    2.368    0.578
       149  -8.3556     53.7556    197.1347   1.3788698231e+02   2.7716114236e+01    0.2292414    0.0978986  67.21 0.0009678587    2.978    0.664
       150  -7.9957     36.3976    197.2047   1.4138993789e+02   2.9739398967e+01    0.1718396   0.09071334  89.19 0.0009487181    1.777    0.437
       151  -7.7442     29.3284    197.6583   1.4281803001e+02   3.0411384369e+01    0.1267593   0.06599295  68.01 0.0007051337    1.741    0.426
       152  -8.7724    215.8218    195.4692   1.0444109184e+02   1.1968734142e+00    0.2716816    0.1693036 -51.27  0.001083875    2.264    0.558
       153  -8.4385    133.0009    195.7874   1.2101539259e+02   1.5967137454e+01    0.2315357    0.1691488 -75.83 0.0007773762    1.670    0.401
       154  -9.2407    245.5520    193.6769   9.8876285592e+01  -3.4656495501e+00    0.2516226    0.2244215 -66.23   0.00144156    1.848    0.459
       155  -7.7250    209.3074    195.6635   1.0567997374e+02   2.2959706436e+00    0.1200096    0.1068241  86.18 0.0003139123    1.676    0.403
       156  -8.9320    185.2235    194.8244   1.1014003023e+02   6.7233096908e+00    0.2436629    0.2219897  80.95 0.0007695499    1.404    0.288
       157  -8.9179    161.1508    194.5580   1.1493832298e+02   1.1155920967e+01    0.2749745    0.2122725  77.01 0.0009378252    1.738    0.425
       158  -8.9090     44.0401    193.6247   1.3954438350e+02   2.9617788761e+01    0.3877541    0.1705107  66.57  0.001801989    2.559    0.609
       159  -8.3046    231.1888    193.7834   1.0136680119e+02  -1.1544156089e+00    0.2537458    0.1469689 -30.67  0.001038968    1.707    0.414
       160  -8.7402     77.0659    193.8242   1.3267353340e+02   2.5312145562e+01    0.2576838    0.1728127  78.75 0.0007079014    1.508    0.337
       161  -8.7766    172.4368    192.1001   1.1220401357e+02   9.5259739424e+00    0.2837093    0.2178008 -76.16  0.001011002    1.899    0.473
       162  -8.7469    224.5780    194.1896   1.0261576920e+02  -1.0695064365e-01    0.2513639    0.2089078 -57.00  0.001062277    1.753    0.430
       163  -8.3747    198.8018    191.6900   1.0692535242e+02   4.7814139307e+00    0.2432297    0.1802458 -47.17 0.0006607214    1.587    0.370
       164  -8.0486    179.1603    191.5778   1.1075566630e+02   8.3801168737e+00      0.20438    0.1583899 -32.47 0.0003823448    1.392    0.282
       165  -9.1099    139.6623    190.8521   1.1881083086e+02   1.5740742969e+01    0.3628506    0.2414027  73.80  0.001230127    2.132    0.531
       166  -8.2380     23.2425    192.5105   1.4362942906e+02   3.2103917745e+01    0.2043196   0.09068835  42.00  0.000925338    2.080    0.519
       167 -10.3920     92.1117    188.7331   1.2879219465e+02   2.4160792912e+01    0.9148778    0.2604307  50.53  0.003009412    4.000    0.750
       168  -8.6526    148.8031    189.5360   1.1665039981e+02   1.4338267576e+01    0.2583663    0.1848284 -75.82  0.001100853    1.913    0.477
       169  -8.1984    247.0505    189.0628   9.7744006395e+01  -3.0770564216e+00    0.2099191    0.1294717 -50.99  0.001033407    2.603    0.616
       170  -8.1373    237.1291    188.6561   9.9352565773e+01  -1.4100368506e+00    0.2031781    0.1605953 -29.69  0.000609089    1.303    0.233
       171  -8.9179    216.5578    187.9534   1.0288221919e+02   2.2048714169e+00     0.269455    0.2215503 -51.86 0.0008869481    1.586    0.369
       172  -9.2884    155.9639    187.6127   1.1480696379e+02   1.3384088781e+01    0.3469092     0.216866 -59.71   0.00103356    1.989    0.497
       173  -8.9427    129.3988    188.6952   1.2066177826e+02   1.7988998201e+01    0.3121746    0.2072506  68.21   0.00108188    1.850    0.459
       174  -9.9088    120.9630    186.8257   1.2219845570e+02   1.9837670452e+01    0.5563694    0.2993945 -74.73  0.002235243    2.965    0.663
       175  -8.6787     34.1677    187.9113   1.4106436940e+02   3.1932790364e+01    0.2925916    0.1404021  78.91  0.001256509    2.218    0.549
       176  -8.9999    242.8244    188.3073   9.8310517142e+01  -2.2934826566e+00     0.175741    0.1430266 -20.96 0.0007232744    1.188    0.158
       177  -8.1771    230.6602    187.5787   1.0027283027e+02  -1.7338326594e-01    0.2001054    0.1522748 -48.12 0.0007468197    1.709    0.415
       178  -8.7805    191.4451    187.5384   1.0757249697e+02   6.8034936472e+00     0.260588    0.2273023 -84.23 0.0009471718    1.591    0.372
       179  -9.2459    109.7631    186.3785   1.2458675915e+02   2.1828872033e+01    0.4151151    0.2518064  70.68  0.001654267    2.147    0.534
       180  -9.0562     54.7526    187.1247   1.3667924003e+02   2.9709724844e+01    0.3640704    0.1782812  69.31   0.00146692    2.380    0.580
       181  -8.8335    164.7310    186.7932   1.1282956777e+02   1.1905764601e+01    0.2877221    0.2304663  71.04  0.001217569    1.542    0.351
       182  -8.5954    249.1870    185.5537   9.6709519414e+01  -2.9374884047e+00    0.2241139    0.1844589 -41.17  0.001058922    1.520    0.342
       183  -9.0553    182.9978    185.0804   1.0878366196e+02   8.7922361404e+00    0.3258858    0.1982577 -42.17  0.001068152    1.759    0.432
       184  -9.3263    210.1285    184.3380   1.0337508506e+02   3.9134817938e+00    0.2578121    0.1872922 -28.67 0.0004844815    1.387    0.279
       185  -8.4766    202.7720    184.6903   1.0483529280e+02   5.1934094740e+00    0.2438013    0.1811274 -45.90 0.0004197436    1.545    0.353
       186  -8.9060     66.6272    184.6373   1.3384423411e+02   2.8710957000e+01    0.3284943    0.1900804  66.50  0.001037849    1.796    0.443
       187  -8.5134    224.1421    183.6519   1.0066820356e+02   1.5301761426e+00    0.2082391    0.1704048 -33.22 0.0005603093    1.297    0.229
       188  -8.4313    197.1055    183.5576   1.0570775932e+02   6.4227377127e+00    0.2890853    0.1883083 -37.71  0.001081654    1.603    0.376
       189  -9.2420    174.2338    183.1243   1.1019236187e+02   1.0786910786e+01    0.3887049    0.2414887 -55.61  0.001350517    2.014    0.504
       190  -8.3277      2.0357    183.7994   1.4720581641e+02   3.5862865994e+01    0.1872398    0.1005409  48.51  0.001196722    1.714    0.417
       191  -8.9962     44.5456    182.3758   1.3837757368e+02   3.1961312135e+01    0.3523602    0.1741668  66.24  0.001042615    2.149    0.535
       192  -8.2818     20.2956    183.6453   1.4355728230e+02   3.4257705145e+01    0.1249752   0.06697161  70.74  0.000703321    1.692    0.409
       193  -8.6456    240.8311    181.7674   9.7373975646e+01  -1.0424680349e+00    0.2699556    0.2002201 -46.57  0.001548621    1.717    0.418
       194  -9.3654    147.4711    180.5893   1.1536824197e+02   1.6310288386e+01    0.3630073    0.2632975 -84.47  0.001201457    1.959    0.490
       195  -7.9963    235.3026    181.6814   9.8308001109e+01  -9.9834426661e-02      0.11589    0.1054888 -67.00 0.0006309684    1.625    0.385
       196  -8.5410    137.5762    179.3908   1.1731359671e+02   1.8382656689e+01     0.289642    0.2061354  82.99 0.0009467925    1.945    0.486
       197  -9.5194    191.5113    178.3895   1.0579653670e+02   8.3477190744e+00    0.3174589    0.2519599  62.50   0.00058393    1.568    0.362
       198  -8.1690    169.3011    178.4458   1.1032677412e+02   1.2580716623e+01    0.2232054    0.1723663 -70.48 0.0008179752    1.720    0.419
       199  -9.2505     36.0282    176.8332   1.3967334390e+02   3.4122416224e+01    0.5293537    0.2128603  78.49  0.001980714    3.939    0.746
       200  -9.5900    248.6373    176.7910   9.5074925271e+01  -1.6258202714e+00    0.4140128    0.2308862 -44.97   0.00204652    2.201    0.546
       201  -8.7414    250.5024    172.9112   9.3989525851e+01  -1.3818911469e+00    0.2447713    0.1740162 -17.45 0.0006805977    1.274    0.215
       202  -8.7291    231.2010    177.1026   9.8113121545e+01   1.2860148299e+00    0.2748082    0.1603678 -40.49   0.00101385    1.806    0.446
       203  -8.7084    217.6861    177.3555   1.0059299885e+02   3.6522496677e+00    0.2230869    0.1599521 -44.44 0.0006899853    1.583    0.368
       204  -8.5052    205.1207    177.7231   1.0301894786e+02   5.9018499927e+00     0.224227    0.1840094 -44.00 0.0007172577    1.369    0.269
       205  -8.6418    129.2425    177.5537   1.1883990953e+02   2.0276960497e+01    0.2911398    0.2120617  78.55  0.000830585    1.715    0.417
       206  -9.5025    183.2706    175.6736   1.0691230919e+02   1.0400348682e+01    0.4468206    0.2316162 -39.49 0.0007755312    2.028    0.507
       207  -9.3274    104.4536    174.9811   1.2402346560e+02   2.5131224442e+01    0.5539204    0.2817276  60.54  0.001932937    2.518    0.603
       208  -8.1827     97.7510    177.4622   1.2593503416e+02   2.5686627777e+01    0.1775998    0.1298036  28.22 0.0009343936    1.638    0.389
       209  -8.6934     89.0515    176.7906   1.2781627978e+02   2.7197873766e+01    0.2868405    0.1809248  82.77 0.0009943572    1.940    0.485
       210  -9.9223     57.2989    173.2693   1.3458127369e+02   3.2425297577e+01    0.7780957    0.3442133  80.52  0.002666377    4.390    0.772
       211  -8.6904     13.0723    176.9085   1.4453309658e+02   3.6366365608e+01    0.2593581    0.1133993  64.91   0.00117265    2.240    0.554
       212  -9.3623    158.9243    175.0775   1.1188029223e+02   1.5211764637e+01    0.3746127      0.27412  78.86  0.001022657    1.973    0.493
       213 -10.7680     75.8164    170.0626   1.2991299945e+02   3.0653566510e+01     1.205253    0.4477503 -74.67  0.003896704    4.343    0.770
       214  -8.5428     79.2578    158.5683   1.2740248411e+02   3.2764935017e+01    0.2598936    0.1355714  27.95  0.001117819    2.517    0.603
       215  -9.5196     25.6997    179.1937   1.4208498915e+02   3.4680946471e+01    0.5945712    0.2196957  76.94  0.002185168    4.275    0.766
       216  -8.3905    224.3868    174.2362   9.8746104820e+01   2.9321581979e+00    0.1822852    0.1202741 -42.08 0.0006581128    1.642    0.391
       217  -8.4996    193.8121    172.7376   1.0421375469e+02   8.8886510075e+00    0.2294948    0.1688593  20.51 0.0008905399    1.453    0.312
       218  -9.4851    175.8552    172.1806   1.0774083176e+02   1.2474504430e+01    0.3781406    0.2593518 -42.63   0.00114165    1.530    0.346
       219  -8.0272    143.0019    172.9823   1.1495932797e+02   1.8666948168e+01    0.2197171    0.1686033  77.57 0.0004945608    1.619    0.382
       220  -8.5471    134.7991    171.9094   1.1659390174e+02   2.0425300539e+01    0.2563028    0.1943567 -82.10 0.0008086945    1.628    0.386
       221  -9.6095    121.4222    170.4208   1.1936827663e+02   2.3182998927e+01    0.4250479    0.2743037 -80.66  0.001037855    2.154    0.536
       222  -9.2619     44.9703    171.0164   1.3710920310e+02   3.4413719527e+01    0.3737912    0.1932357  80.37  0.001341601    2.225    0.551
       223  -8.8560    230.2892    170.4148   9.6916194111e+01   2.4665001092e+00    0.2453493    0.1675842 -28.97  0.000779902    1.392    0.282
       224  -8.6053    205.7781    170.3747   1.0140598044e+02   7.0029223137e+00    0.2952857    0.1765881 -51.53 0.0008511291    2.136    0.532
       225  -8.6419    198.6463    170.2968   1.0276704926e+02   8.3812072671e+00    0.2626101     0.224943 -85.18  0.001009087    1.644    0.392
       226  -8.3772    237.1562    169.6717   9.5569942363e+01   1.3647652583e+00    0.2186025    0.1695512 -38.34 0.0007664231    1.376    0.273
       227  -9.1594    167.3840    168.8483   1.0885602063e+02   1.4764035258e+01    0.3771016    0.2600222  73.72  0.001174335    2.244    0.554
       228  -8.5341    149.8548    169.6486   1.1281394190e+02   1.8030527757e+01    0.2671922    0.1915388 -72.40 0.0009561921    1.835    0.455
       229  -8.3684    244.4780    169.0750   9.4207547504e+01   1.8640109582e-01    0.1931574    0.1170585 -31.53 0.0004384895    1.530    0.346
       230  -8.8078    218.8963    168.4606   9.8557760477e+01   4.8513848309e+00    0.2359208    0.1864701 -49.09 0.0006295644    1.510    0.338
       231  -8.5758     88.5588    168.3814   1.2668605297e+02   2.9135530755e+01    0.2467048    0.1767703  89.35  0.001052076    1.494    0.331
       232  -8.0243    211.4484    168.0169   9.9845633458e+01   6.3208753581e+00    0.2073171     0.130863 -36.51 0.0004683608    1.578    0.366
       233  -8.5727    111.6766    167.5938   1.2113361199e+02   2.5513025525e+01    0.3443916     0.201889  70.70   0.00119922    2.538    0.606
       234  -9.0222    191.9018    166.5377   1.0332315980e+02   1.0352922430e+01    0.2954654    0.1973988 -43.33 0.0008083981    1.569    0.362
       235  -8.8871    184.9764    166.5776   1.0472814598e+02   1.1711419703e+01    0.2560109    0.1984041 -58.19 0.0006484836    1.565    0.361
       236 -10.1264     95.0283    163.1021   1.2431583851e+02   2.9299655567e+01    0.8144359    0.4294875  77.30  0.002726195    4.063    0.754
       237  -8.2505     95.0033    155.4948   1.2303744231e+02   3.1028552263e+01    0.2893658    0.2043577  -6.62  0.001270366    2.636    0.621
       238  -9.2589     20.5551    165.9669   1.4205600742e+02   3.8069028315e+01     0.407371    0.1816451  74.15  0.001330735    2.529    0.605
       239 -10.0029    136.8540    164.4951   1.1474196375e+02   2.1584971976e+01    0.6537442    0.3188746  58.96  0.002349297    2.951    0.661
       240  -8.2084    233.9322    165.1385   9.5188689565e+01   2.6282794088e+00    0.1930819    0.1767353 -38.89 0.0005986519    1.282    0.220
       241  -8.8164    159.4920    164.4779   1.0967839144e+02   1.7176285301e+01    0.2883192    0.2462537  79.35 0.0007414662    1.386    0.278
       242  -9.4409     33.5049    163.3380   1.3889644892e+02   3.7388121890e+01    0.5170993    0.1925194  57.80  0.002115815    3.213    0.689
       243  -8.9516    246.0458    163.0014   9.2694471243e+01   8.1569768031e-01    0.2520249    0.1667098 -30.04 0.0004792262    1.382    0.276
       244  -8.2547    245.4484    158.9484   9.1945803018e+01   1.5266837708e+00    0.1864873    0.1174349 -40.08 0.0005995566    1.603    0.376
       245  -8.1118    239.9990    164.2656   9.3968232055e+01   1.6824130296e+00    0.1817939    0.1592676  -0.21 0.0004706316    1.031    0.030
       246  -8.7221    212.9235    163.6007   9.8645331610e+01   6.7753861776e+00    0.2592474    0.1935911 -42.35 0.0006715248    1.419    0.295
       247  -8.8149     57.2679    163.9881   1.3344853387e+02   3.4521639858e+01    0.3002821    0.1737137  12.71  0.001286274    3.445    0.710
       248  -8.5528    205.0683    162.7342   9.9948025005e+01   8.4395509284e+00    0.2311041    0.1888392 -45.20 0.0005418892    1.337    0.252
       249  -7.6036    200.3274    163.3061   1.0098489636e+02   9.2678091378e+00    0.1464896    0.1064077   7.53 0.0005382673    1.652    0.395
       250  -9.2935      3.3144    162.3654   1.4552207593e+02   4.0326381067e+01    0.3528691    0.1498883  58.71  0.001751375    2.298    0.565
       251  -9.1506    177.3979    160.7889   1.0508547495e+02   1.4302472339e+01    0.3245909    0.2410842 -56.89 0.0008134531    1.579    0.367
       252  -7.7060    221.9787    161.7453   9.6589995176e+01   5.3631218909e+00     0.170026    0.1143409  40.44 0.0003805485    1.493    0.330
       253  -8.8600    151.7684    160.9734   1.1067440400e+02   1.9412883285e+01    0.2592818    0.2037203 -71.74 0.0008910617    1.536    0.349
       254  -8.7212     60.5475    160.4590   1.3220684120e+02   3.4911273592e+01    0.2950221    0.1596533  70.45  0.001006684    2.313    0.568
       255  -9.7632    250.1848    157.9745   9.0968870173e+01   8.4677657627e-01    0.3658321    0.1675498 -33.56 0.0008024918    1.979    0.495
       256  -7.8176    242.2257    160.0310   9.2708030502e+01   1.9313543742e+00    0.1693736    0.1002699 -31.07 0.0003188421    1.557    0.358
       257  -8.7556    227.3832    159.0843   9.5058671551e+01   4.7801568531e+00    0.2684353    0.1945664 -51.46   0.00098329    1.710    0.415
       258  -9.6951    105.6293    157.6930   1.2083192569e+02   2.8752483084e+01    0.4691176    0.3046738 -81.19  0.001170453    1.962    0.490
       259  -8.1812    237.0691    159.0166   9.3363719407e+01   3.0103253589e+00    0.1970218    0.1634067 -61.08 0.0007977856    1.672    0.402
       260  -8.7254    196.7178    158.2710   1.0061897628e+02   1.0872940151e+01    0.2777648    0.2329243 -81.17 0.0007374964    1.651    0.394
       261  -9.4261    167.7210    157.5833   1.0646447634e+02   1.6883078850e+01    0.3736106    0.2835582 -80.48  0.001185499    1.884    0.469
       262  -8.4171    128.0373    159.0562   1.1573581964e+02   2.4412705522e+01    0.2219748    0.2066089  76.08 0.0005749537    1.057    0.054
       263  -8.4866    188.0994    157.7329   1.0222788045e+02   1.2707495610e+01    0.2476753    0.1944536 -50.61 0.0007092371    1.405    0.289
       264  -8.4615    217.8470    156.5617   9.6232188779e+01   7.0036626527e+00    0.2705154    0.1708481 -50.02  0.000924943    1.905    0.475
       265  -8.8514    157.5331    155.9014   1.0834006544e+02   1.9288601770e+01    0.3686998    0.2385442 -54.44  0.001420791    1.706    0.414
       266  -9.4275    119.4349    155.1757   1.1702963993e+02   2.6860005201e+01    0.4411092     0.276313 -76.96  0.001434523    2.241    0.554
       267  -8.9817     23.2516    156.3131   1.4054762454e+02   3.9978065259e+01    0.2702702    0.1237972 -40.93  0.001133262    3.871    0.742
       268  -9.5069     81.3938    154.6124   1.2624920866e+02   3.3358599784e+01    0.4488556    0.2738249  81.78  0.001397586    2.192    0.544
       269  -9.2135     49.6883    155.2711   1.3414483331e+02   3.7443692259e+01    0.3963993    0.2088026  66.86  0.001782078    2.270    0.559
       270  -9.4411    241.6904    154.3425   9.1591889160e+01   2.8977118554e+00    0.3457502    0.2454511  76.32  0.001518979    2.717    0.632
       271  -8.2594    204.5268    155.1548   9.8423664949e+01   9.8618135384e+00    0.2094575    0.1364904 -36.36 0.0008923485    1.514    0.339
       272  -8.5911    144.5182    154.9819   1.1108868143e+02   2.2092257171e+01    0.2730352    0.2018457  63.72 0.0007845569    1.543    0.352
       273  -9.7612    132.9602    152.9816   1.1336990776e+02   2.4787160154e+01    0.4990875    0.3408932  77.55  0.001457117    2.115    0.527
       274  -9.5016    133.6111    148.2086   1.1222751505e+02   2.5694665332e+01    0.4177139    0.2261441 -44.48  0.001750746    1.913    0.477
       275  -9.8397     67.9072    153.6619   1.2944490006e+02   3.5506450470e+01    0.4758569    0.2804742  86.91  0.001713288    2.115    0.527
       276  -8.0471    232.8450    154.0388   9.3023802132e+01   4.5675960869e+00    0.2134177    0.1497517 -55.22 0.0006352299    1.921    0.480
       277  -8.6283     20.1446    152.8584   1.4093208056e+02   4.1041206552e+01    0.1869638    0.1310962  76.14  0.000444746    1.278    0.218
       278  -9.7199     29.1548    150.5185   1.3854767288e+02   4.0738250356e+01    0.4671896    0.2106462  71.62  0.002001553    2.962    0.662
       279  -9.5304    248.7993    149.2802   8.9347509585e+01   2.3967188755e+00    0.3149223    0.1795522 -34.88 0.0007833733    1.590    0.371
       280  -8.9573    246.9992    144.0098   8.8497119933e+01   3.5283861222e+00    0.2328175    0.1719428 -28.60 0.0005306504    1.209    0.173
       281  -9.6142    242.6242    149.9120   9.0486270360e+01   3.4132241813e+00    0.3115069    0.2887052  43.28  0.001722359    1.275    0.216
       282  -8.2084    182.4059    151.2204   1.0197620023e+02   1.5091701904e+01    0.2045313    0.1376377 -51.53 0.0006067054    1.656    0.396
       283  -8.3952    162.4892    150.6378   1.0611305258e+02   1.9338043821e+01    0.2819509    0.2011715 -77.27 0.0007899277    2.098    0.523
       284  -8.7911     98.3325    150.7005   1.2135852828e+02   3.1576252479e+01    0.3008378      0.21295  83.57 0.0009704015    1.715    0.417
       285  -8.9026    189.3773    150.1595   1.0031195654e+02   1.3846415579e+01    0.3478126    0.2264555 -57.08 0.0009074436    1.963    0.491
       286  -8.2581    212.9970    150.0004   9.5691490301e+01   9.0651797507e+00      0.20477    0.1739247 -72.33 0.0004890807    1.583    0.368
       287  -9.8890     40.0360    148.0726   1.3559813999e+02   4.0194904282e+01    0.5504252    0.2543443  67.83  0.002247596    3.044    0.671
       288  -8.9709      2.7155    149.7677   1.4468736727e+02   4.3144259335e+01    0.2474281    0.1041908  80.40  0.001176731    2.509    0.601
       289  -8.6236    207.2661    147.1730   9.6136619410e+01   1.0709985301e+01    0.3443214    0.2326843 -64.23  0.001498197    2.294    0.564
       290  -8.5636    198.8910    149.0954   9.8179951403e+01   1.2079527799e+01    0.2163308    0.1962471 -74.92 0.0006230316    1.350    0.259
       291 -10.0764     89.1882    146.2084   1.2284789070e+02   3.4103489049e+01    0.6783975    0.3798774 -87.10  0.002559575    3.023    0.669
       292  -8.6887    233.2091    147.6822   9.1579387093e+01   5.5155691435e+00    0.2702317    0.1800399 -26.39 0.0007424615    1.423    0.297
       293  -9.1845     78.0680    147.1395   1.2584826240e+02   3.5588020895e+01    0.3021428    0.1979993  81.55 0.0009472904    1.869    0.465
       294 -10.4376     54.5095    144.0647   1.3139778671e+02   3.9477415384e+01    0.8643693    0.4389108  85.29   0.00320175    3.012    0.668
       295  -9.7467     57.1819    135.6242   1.2939576448e+02   4.1138460173e+01    0.3682636    0.1763234  23.08  0.001540293    3.038    0.671
       296  -8.3673    223.4303    146.9649   9.3123832373e+01   7.5168758386e+00    0.2028384    0.1858004  21.07 0.0003935476    1.100    0.091
       297  -8.5520    175.4578    146.2720   1.0233213780e+02   1.7495562513e+01    0.2723027    0.2208622 -78.70  0.000782166    1.615    0.381
       298 -10.3381    148.9893    144.8855   1.0789845197e+02   2.3310747565e+01    0.6008168    0.4083753 -85.84  0.001716021    2.477    0.596
       299  -8.6280    150.1612    136.6764   1.0577030658e+02   2.4795153007e+01    0.5096325    0.3230006 -10.57  0.001808631    3.141    0.682
       300  -9.9548    139.0791    145.0719   1.1025798731e+02   2.5287329783e+01    0.4472407    0.3115542 -83.22   0.00111138    2.133    0.531
       301  -9.2336     13.4376    146.1980   1.4187070759e+02   4.3119926613e+01    0.3487445     0.169748  61.51  0.001323289    2.185    0.542
       302  -8.3371    240.0928    145.4562   8.9935609275e+01   4.5760270541e+00     0.240108    0.1721796 -30.88 0.0004585242    1.271    0.213
       303  -8.0162    242.7051    143.3198   8.9039309388e+01   4.4258016877e+00     0.166676    0.1455201  67.37 0.0004680604    1.504    0.335
       304  -8.9813    165.4924    144.1053   1.0399997785e+02   2.0026684356e+01    0.2778131    0.2495553 -88.71 0.0007009092    1.281    0.219
       305  -9.8610    125.2491    142.9186   1.1313131304e+02   2.8483846098e+01    0.5670081     0.369564  89.60  0.001549433    2.580    0.612
       306 -11.0792     68.7485    141.0184   1.2722660930e+02   3.8350684072e+01    0.9147473    0.4159089 -60.02  0.004016963    1.977    0.494
       307  -7.8497    194.3570    144.0974   9.7947940106e+01   1.3930455711e+01    0.2055339    0.1315332 -48.98  0.000485197    1.704    0.413
       308  -9.5417      2.5985    141.4761   1.4401977114e+02   4.5004017214e+01     0.424448    0.1731078  82.39  0.001646361    2.730    0.634
       309  -8.5164    182.0809    141.7158   9.9900676387e+01   1.6973917527e+01    0.2550042    0.1991711 -52.02 0.0005341285    1.382    0.276
       310  -8.3155    250.3139    141.0195   8.7321203820e+01   3.3851037626e+00    0.1926327    0.1558245 -28.14 0.0008099237    1.107    0.097
       311  -8.9358    242.4237    138.9639   8.8125339274e+01   5.1631557781e+00    0.3304438    0.2361073 -79.78   0.00151238    2.703    0.630
       312 -10.3671    106.6143    143.7859   1.1795745178e+02   3.1736358168e+01    0.8068739    0.4976276 -79.59  0.002372342    2.319    0.569
       313  -9.7592     23.5912    138.2863   1.3853735918e+02   4.4071814279e+01    0.5041212    0.2309397  65.87  0.002263039    2.808    0.644
       314  -7.9256    218.6334    138.8078   9.2145243548e+01   9.8485435590e+00    0.2039357    0.1245447 -44.26 0.0005554642    1.674    0.403
       315  -8.6704    172.2523    138.3112   1.0119532728e+02   1.9743371736e+01    0.2964768    0.2298567 -70.72 0.0008858102    1.655    0.396
       316  -9.4042    139.7932    137.5944   1.0842909990e+02   2.6755091418e+01    0.3980488    0.2924942 -14.42  0.001774857    1.919    0.479
       317 -10.0741    230.1160    136.0333   8.9508250140e+01   8.0118177680e+00    0.3604858    0.2617961 -14.68  0.000417793    1.449    0.310
       318  -8.3612    207.2128    137.8922   9.4033919391e+01   1.2360864670e+01    0.2160695    0.1972467 -62.59 0.0009203442    1.265    0.209
       319  -8.7492    197.5543    137.6142   9.5823638393e+01   1.4446821622e+01    0.2830717    0.2297898 -55.48 0.0009632927    1.390    0.281
       320  -9.5107     39.1891    136.1938   1.3424740932e+02   4.3058392705e+01    0.2996288    0.1862412  85.13 0.0007717336    1.708    0.414
       321  -9.0286    250.7066    130.2711   8.4894352339e+01   4.9696079110e+00    0.4469312    0.1213792 -33.36  0.001385187    3.410    0.707
       322  -8.9843    248.4002    135.3447   8.6374982865e+01   4.6121370069e+00    0.3037105    0.2125678 -34.98 0.0007639725    1.292    0.226
       323  -8.6219    246.9013    130.3055   8.5487702927e+01   5.6796711378e+00    0.2382116    0.1624128 -39.62 0.0006879099    1.374    0.272
       324  -9.0375    162.5464    136.0420   1.0279664587e+02   2.2288333687e+01    0.2745794    0.2218138 -48.11  0.001029938    1.257    0.204
       325 -10.1373    131.1746    118.9760   1.0611905707e+02   3.2586731273e+01    0.6423289     0.430137 -76.92    0.0023129    2.286    0.563
       326  -9.4367    113.0292    133.4959   1.1417040246e+02   3.2921271457e+01    0.4500925    0.2926213  81.44  0.001697413    2.491    0.599
       327  -8.5158    187.8441    135.3623   9.7233750102e+01   1.6948034175e+01    0.2103889    0.1845638 -48.02 0.0005980299    1.182    0.154
       328  -8.7450    179.4283    133.8904   9.8625356004e+01   1.9056862746e+01    0.3326403    0.2417355 -65.09 0.0009001459    1.783    0.439
       329 -10.3381     83.3730    132.7303   1.2183937366e+02   3.8169280688e+01     0.589588    0.3153932 -69.39  0.001371759    2.118    0.528
       330  -8.6401     84.8040    122.7433   1.1941177813e+02   4.0291966143e+01    0.4000818    0.2563905  11.58  0.001685156    2.629    0.620
       331  -8.3132    237.4964    133.5791   8.7722663420e+01   6.9642952058e+00    0.2491667    0.1141528 -44.16  0.001019059    2.247    0.555
       332  -9.5047    143.1245    131.4075   1.0619906869e+02   2.7395350979e+01    0.4778575    0.2607727 -52.69  0.001554457    1.948    0.487
       333 -10.5361     98.4152    129.3043   1.1709823878e+02   3.6508085524e+01     1.018231    0.3339409 -52.61  0.003465677    2.869    0.651
       334  -9.7623    152.9362    128.3188   1.0314541323e+02   2.5957496574e+01    0.6440963    0.2867687 -48.21  0.001513308    2.318    0.569
       335  -9.9652     73.0770    129.3567   1.2398760568e+02   4.0499367707e+01    0.4604811    0.2883538 -75.91   0.00158707    1.749    0.428
       336 -10.0370     12.7667    128.9055   1.4024628301e+02   4.7123007996e+01    0.5351344    0.2449827  86.72  0.002428681    2.460    0.593
       337  -7.9726    220.5073    130.0193   8.9784857412e+01   1.0965812784e+01    0.2127331    0.1338031 -35.72 0.0004418741    1.491    0.329
       338  -8.3578    204.6522    130.1698   9.2707182680e+01   1.4282433333e+01    0.2325619    0.1781779 -54.01 0.0006271084    1.464    0.317
       339  -8.4425    192.7849    130.0969   9.4987686580e+01   1.6864316449e+01    0.2280673    0.2008114 -60.25 0.0006967727    1.263    0.208
       340  -9.4573    168.3781    129.4965   9.9943463933e+01   2.2344389099e+01    0.3274559    0.2493409 -62.17 0.0007811185    1.538    0.350
       341 -10.3794    132.3623    131.3120   1.0879405784e+02   2.9640342853e+01    0.7608171    0.4975723 -84.58  0.002520859    2.663    0.624
       342  -7.9664      1.9644    130.4736   1.4317189439e+02   4.7527329514e+01    0.1568675   0.07162865  54.78 0.0008080811    2.405    0.584
       343  -8.2067    211.4434    129.1743   9.1210227875e+01   1.3011170323e+01    0.2127226    0.1286523 -48.33 0.0009325431    1.785    0.440
       344  -7.7768    186.3067    129.6656   9.6188380701e+01   1.8364135227e+01    0.1519938    0.1205156 -75.94 0.0007040497    1.669    0.401
       345 -10.7929     44.8296    123.5382   1.3080973154e+02   4.5441896319e+01      1.08158    0.5393183  79.78  0.003992091    3.757    0.734
       346  -8.1900     26.2020    129.6287   1.3679772772e+02   4.5851247474e+01    0.1517328     0.121701   3.17 0.0009575646    1.732    0.423
       347  -9.9678    118.1343    125.6157   1.1106744075e+02   3.3735487192e+01    0.5906258    0.3847311  83.20  0.001670504    2.659    0.624
       348 -10.8167     59.6651    123.9509   1.2670918479e+02   4.3592999062e+01    0.9521875    0.4572127 -76.09  0.003530613    2.671    0.626
       349 -10.3351     28.4597    122.5144   1.3522016170e+02   4.7312001852e+01    0.7714086    0.3654202  73.14  0.003112911    3.410    0.707
       350  -9.2413     27.1833    113.6632   1.3427781254e+02   4.9496300045e+01    0.3299763    0.1707308  26.15  0.001450577    2.346    0.574
       351  -8.5969    228.4905    125.5164   8.7364998437e+01   1.0082750837e+01    0.1420742    0.1303738 -30.66 0.0003311034    1.057    0.054
       352  -9.2113    179.2183    124.7055   9.6445107083e+01   2.0887442216e+01    0.2964583    0.2570244 -59.68 0.0006435245    1.254    0.202
       353  -8.4085    188.6600    124.1718   9.4374190928e+01   1.8884936395e+01    0.2384592    0.1820009 -54.00 0.0007429662    1.430    0.301
       354  -9.5684    158.7276    121.6555   1.0016857989e+02   2.6068317227e+01     0.354267    0.2791109 -83.56 0.0009086744    1.662    0.398
       355  -8.0006    203.3136    122.1176   9.1022607322e+01   1.6022376993e+01    0.2222055    0.1247421 -45.71 0.0006148321    1.818    0.450
       356  -8.0194    195.1923    122.2309   9.2603632287e+01   1.7795128346e+01    0.2401212    0.1040502 -46.19 0.0004977379    2.439    0.590
       357  -8.8518    172.0424    121.8101   9.7252452349e+01   2.3061523995e+01    0.2623949    0.2154236 -43.32 0.0004469735    1.208    0.172
       358  -9.6918     71.0055    119.5320   1.2263728803e+02   4.3116702264e+01    0.4621593     0.266256 -70.79  0.001360356    1.886    0.470
       359 -10.1612    141.6058    117.8468   1.0324515283e+02   3.0618982758e+01     0.688705    0.3540125 -53.38  0.001632583    2.164    0.538
       360  -9.5411    248.7308    117.0335   8.2212097489e+01   7.4096321434e+00    0.4284028    0.2629501  -7.60   0.00141649    2.323    0.570
       361  -9.7291      2.9304    117.2544   1.4156138833e+02   5.0468656868e+01    0.5203646    0.2324087  83.98  0.002227071    2.606    0.616
       362  -7.6075    219.3154    116.6652   8.6824066116e+01   1.3502216310e+01    0.1480022    0.1118638 -65.81 0.0002632578    1.691    0.409
       363  -8.4728    193.0151    115.4725   9.1347668216e+01   1.9532996508e+01    0.2859259    0.2008306 -52.47 0.0006706445    1.546    0.353
       364  -8.6918    185.7970    116.1365   9.2947938444e+01   2.1046863187e+01    0.2311486    0.2025975 -60.40 0.0004582672    1.233    0.189
       365  -8.9851    109.3166    107.4247   1.0895202571e+02   3.9517942867e+01    0.4321457    0.2102242  29.18    0.0014982    3.048    0.672
       366  -8.5942    167.0890    114.8898   9.6573434347e+01   2.5554175501e+01    0.2432248    0.1903912   9.02 0.0007084153    1.626    0.385
       367 -10.0813     92.7333    112.5226   1.1487343357e+02   4.1366561983e+01    0.5500177    0.3352196 -70.50  0.001401447    2.095    0.523
       368  -9.9636     78.8155    112.4487   1.1886429122e+02   4.3631692395e+01    0.5309119    0.3545818  81.78  0.001694554    2.219    0.549
       369  -8.8584     78.5273    105.5232   1.1734563200e+02   4.5282625795e+01    0.4192145    0.3129296  -2.44  0.002071852    1.880    0.468
       370  -9.9957    133.7773    109.6984   1.0307974343e+02   3.4040692564e+01    0.6680439    0.3453752 -54.54  0.002037338    2.208    0.547
       371  -9.9133    121.5401    112.5589   1.0698051818e+02   3.5970847023e+01    0.4325467    0.3332548  81.28 0.0009708868    1.690    0.408
       372  -9.8436     14.1230    111.5530   1.3774089715e+02   5.1025200883e+01    0.3786588    0.2049954  65.39  0.001304651    2.301    0.565
       373  -8.8580    174.7684    111.8060   9.4118234138e+01   2.4400751098e+01     0.302195    0.2039972 -50.50 0.0007145245    1.559    0.359
       374  -9.1354    159.2783    111.8381   9.7525394873e+01   2.7942935200e+01    0.2865764    0.2276734 -68.44 0.0006665126    1.493    0.330
       375 -10.0724     66.3203    110.3618   1.2208635185e+02   4.5925630599e+01    0.4858354    0.3006729 -68.99  0.001782149    1.662    0.398
       376 -10.0272    109.1799    114.1280   1.1068491998e+02   3.8041774755e+01     0.584645    0.3399945 -64.76  0.001332992    2.166    0.538
       377  -9.4274    248.6241    108.9269   8.0371103010e+01   8.6990239773e+00    0.2455507    0.2101905  70.79  0.000875271    1.410    0.291
       378 -10.0044    249.2448    103.3593   7.8998044495e+01   9.4428162066e+00    0.4791511    0.1952669 -30.39  0.001896585    2.369    0.578
       379  -8.2097    189.2227    108.1995   9.0235207570e+01   2.1746001113e+01    0.2128118    0.1742395 -60.61 0.0005927393    1.352    0.260
       380  -9.7901    139.7974    104.3252   1.0013501835e+02   3.3862572205e+01    0.5201017    0.2954052 -52.11  0.001459887    1.898    0.473
       381 -10.4924     45.6697    102.4840   1.2673493573e+02   5.0304838353e+01    0.7334163    0.4118139  76.04  0.002857522    3.240    0.691
       382  -9.1313     45.7496     93.2062   1.2475009216e+02   5.2441117149e+01    0.4592598      0.27501  -5.48  0.002085356    2.815    0.645
       383 -10.7497     22.9421    102.7869   1.3382003948e+02   5.2381452440e+01    0.7267836    0.3762025  76.24  0.002549161    3.048    0.672
       384  -9.7669    150.6311    103.0486   9.7173080981e+01   3.1689232974e+01    0.5451646    0.3113117 -59.03  0.001384454    2.341    0.573
       385  -8.7277     93.5439    104.7921   1.1274148197e+02   4.2992781057e+01    0.3285839    0.2075219  15.58  0.001209539    2.510    0.602
       386  -8.6764    166.5285    104.0804   9.3847556775e+01   2.7812083623e+01    0.3143948     0.235731 -61.37 0.0006992684    1.545    0.353
       387  -9.0612      6.9325    103.3424   1.3872788699e+02   5.3393954937e+01    0.2919494    0.1757094  69.52  0.001223259    1.950    0.487
       388 -10.1232    128.4793    102.1648   1.0241047603e+02   3.6775393099e+01    0.3622845    0.2803432 -74.32 0.0007641054    1.621    0.383
       389  -8.3188    175.6764    102.1895   9.1389594813e+01   2.6032149290e+01    0.2445309    0.1891308 -55.86 0.0006899615    1.394    0.282
       390 -10.6421    108.9586     98.8717   1.0677491213e+02   4.1470528377e+01     0.780555    0.4979132  74.96  0.001313767    2.849    0.649
       391  -8.9150    107.6099     92.6835   1.0542884297e+02   4.3067789852e+01    0.3226768    0.2707579   6.09 0.0009589147    1.401    0.286
       392  -8.5148    159.7823    100.9756   9.4499389129e+01   2.9991736936e+01    0.2900951    0.2074476 -56.92 0.0007746927    1.566    0.361
       393  -9.0695     82.0769    100.0320   1.1493116857e+02   4.5983897191e+01      0.35949    0.2456603 -77.85 0.0009991428    1.958    0.489
       394  -9.2288     95.0411     97.0095   1.1026976433e+02   4.4473083052e+01    0.3150898    0.2259242 -62.90 0.0006092195    1.519    0.342
       395 -10.1669     63.8678     95.8432   1.1953299016e+02   4.9622740438e+01    0.5713125    0.3770225  86.96  0.001917819    2.399    0.583
       396  -8.7436     64.6644     87.8482   1.1727002654e+02   5.1320689576e+01    0.3165787    0.2149507 -12.97  0.001473511    2.077    0.519
       397  -8.4926    176.6215     93.6040   8.8863825701e+01   2.7411292404e+01    0.3058963    0.2109407 -69.57 0.0008160077    1.995    0.499
       398  -8.3148    164.8656     94.1218   9.1478521446e+01   3.0119247166e+01    0.2399135    0.2067473 -68.89 0.0004950741    1.288    0.223
       399 -10.4207    123.6528     91.5134   1.0067553102e+02   4.0031778462e+01     0.591767    0.5112381   7.76  0.001470269    1.316    0.240
       400  -9.4337    139.0912     91.7059   9.6769152198e+01   3.6594267561e+01    0.5794226    0.3157631 -48.94  0.001346532    1.926    0.481
       401  -9.4979      5.2434     92.2261   1.3766764643e+02   5.6019707645e+01    0.3405453    0.1821462  55.44  0.001416804    2.437    0.590
       402  -8.1713    157.8590     91.6143   9.2317991263e+01   3.2258135156e+01    0.2609383    0.1794165 -44.57 0.0007190494    1.447    0.309
       403  -9.5527     34.5528     89.6124   1.2765849830e+02   5.4402786985e+01    0.4362856    0.2589689 -85.39   0.00207229    2.246    0.555
       404  -9.0996     22.9564     90.4048   1.3164843100e+02   5.5224757833e+01    0.2920646    0.1957918 -38.95   0.00133683    1.511    0.338
       405  -8.3656    150.9406     89.1623   9.3193071599e+01   3.4358664998e+01    0.2379841    0.2068211 -72.74 0.0005028151    1.296    0.228
       406 -10.1483     86.4943     85.9046   1.0976660823e+02   4.8387519595e+01    0.7230604    0.4033836 -51.22  0.002258257    1.718    0.418
       407  -9.7719     48.6017     84.5630   1.2178432828e+02   5.4080891297e+01     0.468792    0.3092858  73.58  0.001909021    2.453    0.592
       408  -7.7678    179.4371     85.9419   8.6178547865e+01   2.8119087839e+01    0.2231791    0.1201403 -56.16 0.0008060908    2.442    0.591
       409  -8.0652    188.5608     93.7830   8.6561565684e+01   2.4527145895e+01    0.2226144     0.136211 -47.54 0.0008720456    1.670    0.401
       410  -9.7956    104.6255     83.1259   1.0348793804e+02   4.5657477774e+01    0.4468745    0.3022192 -63.46  0.001062512    1.884    0.469
       411  -8.5374    104.6801     77.6329   1.0178683041e+02   4.6763202356e+01    0.2707132    0.1818577 -20.91  0.001200254    1.841    0.457
       412  -8.6172    157.9520     83.9792   9.0096716947e+01   3.3671641297e+01    0.2324413     0.225279 -49.63 0.0004028469    1.030    0.029
       413  -9.4228    140.8281     82.7843   9.3713901006e+01   3.7938758394e+01    0.4062349     0.233328 -45.62  0.000948378    1.766    0.434
       414  -8.3815     35.3733     82.7588   1.2588049900e+02   5.5874239082e+01     0.194309   0.09376719 -51.69 0.0009469784    1.680    0.405
       415  -9.5260      9.8489     81.1802   1.3434357783e+02   5.8223883212e+01     0.329605    0.1906959  67.37  0.001446344    2.513    0.602
       416  -9.7440     24.3631     80.0260   1.2909870594e+02   5.7453450858e+01    0.4611452    0.2541915 -84.38  0.001784533    2.534    0.605
       417  -8.5114    150.2039     80.6695   9.0864886852e+01   3.6135068100e+01    0.2801005    0.1995282 -48.24 0.0007855161    1.447    0.309
       418  -8.9287    119.3278     80.2136   9.8459941147e+01   4.3235058339e+01    0.3268904    0.2463643 -65.25 0.0008812748    1.645    0.392
       419  -8.8332     74.4952     80.3709   1.1199412162e+02   5.1523822622e+01    0.3201952    0.2100396 -64.84 0.0009777877    1.834    0.455
       420  -8.4886    166.5240     79.9786   8.7089999884e+01   3.2322941132e+01    0.2237397     0.210324  50.58 0.0004771528    1.074    0.069
       421  -9.0722     64.1699     64.0886   1.1053181760e+02   5.6449118205e+01    0.6534297    0.2784659 -31.85  0.002360026    3.253    0.693
       422  -9.0976     65.3844     78.2045   1.1439843945e+02   5.3335682262e+01    0.3074842    0.2113364 -57.35   0.00109431    1.434    0.302
       423  -9.8416     63.3506     73.8284   1.1382282772e+02   5.4554960317e+01    0.4578006     0.221497 -58.09  0.001720147    2.257    0.557
       424  -7.8464    183.5919     78.4881   8.3295313417e+01   2.8403554509e+01    0.1503569    0.1444509 -47.26  0.000120718    1.017    0.017
       425  -9.5848    128.1630     75.2915   9.4585176897e+01   4.2247756559e+01    0.4832442    0.2532359 -48.64 0.0006519195    2.076    0.518
       426  -9.0778    140.5531     75.1758   9.1461182489e+01   3.9425707049e+01    0.3028432    0.2118718 -44.05 0.0007324916    1.438    0.305
       427  -9.6982     82.3359     72.7593   1.0713897390e+02   5.1850226145e+01    0.4275019    0.2643916 -61.18  0.001104149    2.069    0.517
       428  -8.3605    163.3591     73.6609   8.5890050733e+01   3.4206457343e+01    0.2585894    0.2229067 -63.16 0.0006312693    1.246    0.197
       429  -9.0363    115.7981     72.8441   9.7109595903e+01   4.5415528551e+01    0.3174934    0.2029047 -44.49   0.00072528    1.559    0.358
       430  -8.2278    151.2552     73.4336   8.8438817174e+01   3.7193676126e+01    0.2073102    0.1495408  67.41 0.0009352578    1.571    0.364
       431  -9.3502     95.2624     71.4291   1.0263602978e+02   4.9811373909e+01    0.3812698    0.2367959 -58.12 0.0009297532    2.016    0.504
       432  -8.3139     42.7310     72.8537   1.2083376638e+02   5.7311062607e+01    0.2338212    0.1652714 -70.78 0.0008036316    1.594    0.373
       433  -7.9616    175.4494     72.5394   8.3140602840e+01   3.1415845742e+01    0.1501795    0.1464064 -63.45 0.0001620696    1.014    0.013
       434  -9.1107    105.9047     71.8491   9.9592394960e+01   4.7656885089e+01    0.2565854    0.2125083 -54.38 0.0004767076    1.303    0.233
       435  -9.4814     51.5655     69.8889   1.1682164426e+02   5.6929910029e+01    0.4895952    0.2616818 -68.11  0.001542391    2.749    0.636
       436  -7.5990    170.3401     71.6686   8.3882778683e+01   3.2826478131e+01    0.1615516    0.1173409 -71.09 0.0007051625    1.745    0.427
       437  -8.9911     28.7682     70.4438   1.2531264929e+02   5.9193257864e+01    0.2728773    0.1564349 -24.93 0.0009514536    2.128    0.530
       438  -8.4753     32.2210     68.3339   1.2349512479e+02   5.9337657387e+01    0.2030219     0.182689 -23.92 0.0005802707    1.161    0.139
       439  -8.9378     16.6314     70.1265   1.2972273656e+02   6.0215089176e+01    0.2730832    0.1833555  88.05   0.00109912    1.961    0.490
       440  -8.0028    157.0000     69.9827   8.6125220295e+01   3.6399180127e+01    0.2445001   0.08637922 -35.06 0.0004022001    2.829    0.647
       441  -9.2794    147.2251     68.0466   8.7681406418e+01   3.9107533470e+01    0.4951736    0.2512568 -37.99  0.001446363    1.947    0.486
       442  -7.9498    130.9743     69.0000   9.1868602139e+01   4.2767028039e+01    0.2510529   0.08557517  51.11 0.0008041817    2.955    0.662
       443  -8.7494    138.4039     66.0845   8.9111045610e+01   4.1552014690e+01      0.31881     0.214041 -53.91 0.0009044715    1.724    0.420
       444  -9.1022    121.5866     65.9696   9.3305386891e+01   4.5428533037e+01    0.3594916    0.2409342 -55.84  0.000869042    1.810    0.447
       445  -7.8190    163.5132     65.5253   8.3413463931e+01   3.5542522889e+01    0.1490128    0.1477638  39.44 0.0001690013    1.020    0.019
       446  -9.0897    110.1562     63.8829   9.5739969813e+01   4.8273533681e+01    0.2983124    0.2251512 -53.73 0.0006687799    1.498    0.332
       447  -8.7425     37.1514     64.2829   1.2054036180e+02   5.9720281870e+01    0.2852229    0.1862108 -81.06  0.001024588    2.383    0.580
       448  -7.8599    130.5311     64.5033   9.0520955077e+01   4.3664172486e+01     0.147433    0.1456383 -18.83 7.747036e-05    1.035    0.034
       449  -9.4447    241.6262     61.4655   7.0093501486e+01   1.7361963967e+01    0.2269612     0.214682 -32.06 0.0006495171    1.136    0.120
       450  -8.2000    158.0422     61.9624   8.3439434152e+01   3.7480597347e+01    0.1765319    0.1749188 -46.82 0.0003878727    1.015    0.015
       451  -9.4692     97.5917     60.2567   9.8185153227e+01   5.1481375879e+01     0.386961     0.287675 -34.87  0.001364798    1.290    0.225
       452  -9.5705     73.2875     59.6214   1.0585453187e+02   5.5937307725e+01     0.385317    0.2236183 -52.57 0.0009429012    1.888    0.470
       453  -8.1217    164.4871     59.5677   8.1405076765e+01   3.6259946748e+01    0.1478742    0.1448173  77.07 0.0001757104    1.011    0.011
       454  -8.0718    146.8370     59.2035   8.4962448845e+01   4.0681278102e+01    0.2062429    0.1744657  19.97 0.0004090332    1.302    0.232
       455  -7.8289     89.0108     59.5219   1.0060067520e+02   5.3245419559e+01    0.1969557    0.1387055  44.38 0.0005365028    1.512    0.339
       456  -9.9061     23.3695     56.5573   1.2374374511e+02   6.2587219405e+01    0.4220759    0.2694798 -87.50  0.001993583    2.706    0.630
       457  -8.6679    130.5229     57.9775   8.8361225528e+01   4.4774192478e+01     0.218639    0.1435512 -37.14 0.0004805248    1.521    0.343
       458  -9.4882      7.2602     56.8469   1.3028183173e+02   6.3647228274e+01    0.3336085    0.1814151 -74.48   0.00119603    2.007    0.502
       459  -8.4337    139.9259     56.2943   8.5570036313e+01   4.2822357132e+01    0.2550231    0.1967122 -45.60 0.0005062373    1.354    0.261
       460  -9.3662    119.1123     55.4997   9.0421810863e+01   4.7787972722e+01    0.4620769    0.2610288 -48.30   0.00140297    2.028    0.507
       461  -9.6006     54.3157     55.7208   1.1136866914e+02   5.9463389767e+01    0.3467589    0.2145095 -56.89  0.001143152    1.807    0.447
       462  -8.8989     44.2001     55.6563   1.1521796203e+02   6.0724468529e+01    0.2392328    0.1857476 -71.59 0.0007252794    1.695    0.410
       463  -8.5852    105.6082     53.1237   9.3301886786e+01   5.1104628773e+01     0.274875    0.2090214 -49.08  0.000973725    1.461    0.316
       464  -9.4993     92.3945     50.6807   9.6370348187e+01   5.4173476607e+01    0.3622894    0.2345708 -46.58 0.0009693903    1.673    0.402
       465  -8.4265     75.0023     51.5042   1.0239020219e+02   5.7162050791e+01    0.1952736    0.1128744  15.62 0.0008106451    2.609    0.617
       466  -8.6014    144.9115     49.3048   8.2156239314e+01   4.2693492576e+01    0.2037212    0.1898268  45.28 0.0004350036    1.046    0.044
       467  -8.6302    129.8479     49.1571   8.5525194351e+01   4.6337649568e+01    0.2008809    0.1680799  16.06 0.0003142134    1.281    0.220
       468  -8.4716      9.2912     49.3418   1.2756030578e+02   6.5073804995e+01    0.1262467   0.06498914 -38.99 0.0005318652    1.651    0.394
       469  -7.8127    163.6665     48.2780   7.8074874675e+01   3.8171619256e+01    0.1501696    0.1123748 -73.37 0.0002533827    1.606    0.377
       470  -8.7758    120.8813     47.5758   8.7186018604e+01   4.8655535334e+01    0.2519777    0.2010693 -39.10 0.0003488162    1.293    0.227
       471  -8.7056    112.2516     47.1004   8.9279339787e+01   5.0657121092e+01    0.2769565    0.2168146 -47.99 0.0007128171    1.423    0.297
       472  -8.9723     82.0178     46.3746   9.8101768736e+01   5.6835745973e+01     0.286766    0.1878271 -37.43 0.0007687717    1.462    0.316
       473  -8.6251     44.9874     44.8163   1.1118790128e+02   6.2713025878e+01    0.2176025    0.1601106 -40.90 0.0005257271    1.201    0.167
       474  -9.0051     16.4956     44.6218   1.2312726869e+02   6.5529077461e+01     0.215297     0.170314 -60.00 0.0006979872    1.304    0.233
       475  -8.9023    132.8585     43.5223   8.2869788809e+01   4.6461247004e+01    0.2769543    0.2186668 -61.85 0.0009969383    1.525    0.344
       476  -8.6766     92.3363     43.1730   9.3574109734e+01   5.5414965012e+01      0.27551    0.1238242 -27.10  0.001074538    2.531    0.605
       477  -8.6996     58.1400     42.6981   1.0521872936e+02   6.1346484798e+01    0.2791027    0.1722491 -53.74  0.001050616    2.005    0.501
       478  -9.7382      5.5663     42.2847   1.2722702606e+02   6.6711663646e+01    0.3516178    0.2367995 -88.32  0.001769029    2.280    0.561
       479  -9.3451     69.3854     41.4158   1.0055031715e+02   5.9834624169e+01    0.4090599    0.2251114 -45.42  0.001821903    1.913    0.477
       480  -8.7440    105.9584     41.1307   8.8800765176e+01   5.2929663402e+01    0.3199519    0.1803774 -42.67 0.0006805494    1.921    0.479
       481 -10.2897    138.2345     36.4728   7.9244576171e+01   4.6136814169e+01    0.4365515    0.2699642 -20.59 0.0002830304    1.792    0.442
       482  -8.5028     36.9443     40.9895   1.1311237532e+02   6.4347160820e+01    0.1889125    0.1570432 -31.23 0.0005846322    1.059    0.055
       483  -8.5703     95.3172     37.8718   9.0618655751e+01   5.5630677130e+01    0.2471284    0.2000244 -54.17 0.0009329286    1.545    0.353
       484  -8.3715     80.4778     36.7104   9.4837454894e+01   5.8666191396e+01    0.2498088    0.1208089 -39.92 0.0007821399    2.078    0.519
       485  -9.4452     26.1613     35.4861   1.1577824738e+02   6.6452879759e+01    0.3050583    0.2023004 -58.31 0.0008226362    1.728    0.421
       486  -7.6252    133.6307     36.3039   8.0176636056e+01   4.7275841561e+01    0.1475876    0.1110498 -73.08 0.0007033712    1.749    0.428
       487  -7.9975    126.0091     35.7021   8.1682117860e+01   4.9173021863e+01    0.1992147    0.1715482  46.70 0.0002955243    1.107    0.097
       488  -8.5644    111.8359     34.6028   8.4754447893e+01   5.2573662782e+01    0.2688642    0.1692888 -46.17 0.0006450833    1.856    0.461
       489  -8.2615      5.2955     35.3471   1.2529022587e+02   6.8078032459e+01    0.1241547   0.06185031 -36.43 0.0005138582    1.673    0.402
       490  -8.2750    249.1570    248.9385   1.0779403898e+02  -1.0559683231e+01    0.2005841     0.117474 -25.42  0.001325523    1.772    0.436
       491  -9.0538     48.5151     33.3913   1.0533169417e+02   6.4270646648e+01    0.2507771    0.1994249 -43.70 0.0007748441    1.371    0.271
       492  -8.5769     60.5313     32.6685   1.0028180773e+02   6.2656747198e+01    0.2030407    0.1750554 -44.82 0.0003070573    1.401    0.286
       493  -8.7873     72.1774     31.3993   9.5488779129e+01   6.0942865961e+01    0.2411313    0.1587999 -47.32 0.0007150411    1.857    0.462
       494  -8.8348     12.9736     30.2570   1.1996589003e+02   6.8517249340e+01    0.2597757    0.1465934 -61.07  0.001001898    2.005    0.501
       495  -8.4616    101.3188     29.3931   8.5547006371e+01   5.5562747053e+01    0.2240476    0.1558198 -46.44 0.0007620004    1.716    0.417
       496  -8.6899     81.5281     27.5259   9.0702921059e+01   5.9799244907e+01    0.2601781     0.196667 -50.55 0.0009321101    1.729    0.422
       497  -8.7769      3.4800     27.8851   1.2372512716e+02   6.9587930732e+01    0.1847809    0.1685379 -79.39 0.0009643979    1.528    0.346
       498  -8.8009     91.8249     26.2798   8.6996881713e+01   5.7944548997e+01    0.2806097    0.1711826 -42.57 0.0008843105    1.896    0.472
       499  -7.5595    145.6770     26.2994   7.4281743805e+01   4.5566969725e+01    0.1429634    0.1065161 -69.16 0.0007025501    1.628    0.386
       500  -8.1166    104.5685     22.8157   8.2049817521e+01   5.5678806583e+01    0.1816388     0.122515 -36.99 0.0004585011    1.603    0.376
       501  -8.2180     34.4440     23.2661   1.0708798697e+02   6.7673843361e+01    0.1723748    0.1479545  47.69 0.0007919368    1.746    0.427
       502  -8.9463     63.6018     21.3370   9.4191897879e+01   6.3824161128e+01    0.2582882    0.1915353 -40.91 0.0008572199    1.565    0.361
       503  -8.8000     48.4547     21.7367   1.0031270470e+02   6.6100553046e+01    0.2164724    0.1783569 -33.65 0.0006774769    1.319    0.242
       504  -8.4100     19.3816     21.6172   1.1348685249e+02   6.9501987356e+01    0.1416903    0.1346828 -58.45 0.0007565315    1.553    0.356
       505  -8.1152     88.5202     34.0489   9.1174751299e+01   5.7540932173e+01    0.2086859    0.1266915 -32.09  0.001034904    1.609    0.379
       506  -8.8795     74.0198     19.5202   8.9700538613e+01   6.2242427700e+01    0.2302049    0.1661466 -39.05 0.0006555389    1.577    0.366
       507  -8.3455     87.8254     17.5943   8.4505764537e+01   5.9815623242e+01    0.2030811    0.1446199 -26.72 0.0005209382    1.421    0.296
       508  -8.1431     38.7797     18.5668   1.0301163215e+02   6.7867020285e+01    0.1441768    0.1104845  36.38 0.0005949025    1.582    0.368
       509  -7.4444    112.7288     16.6969   7.7617264083e+01   5.4535405946e+01    0.1376874   0.09356115  26.28 0.0002016061    1.534    0.348
       510  -8.1684     30.1556     16.2049   1.0586468301e+02   6.9259881016e+01    0.1463923    0.1290382 -29.33 0.0005895718    1.353    0.261
       511  -8.7108    218.7372    247.5078   1.1264579462e+02  -6.1616397292e+00    0.3105472    0.1260178 -36.30  0.001613271    2.862    0.651
       512  -9.2217    210.9321    246.6918   1.1386773710e+02  -4.9168983481e+00    0.2554357    0.1973229 -59.30 0.0009582577    2.270    0.559
       513  -7.5234    119.6604     11.3376   7.4018224187e+01   5.3467560418e+01    0.1362845    0.1013818 -65.13 0.0007050773    1.760    0.432
       514  -7.8256    191.7457    249.6109   1.1764121521e+02  -2.3852624324e+00    0.1664536   0.08984581  45.38 0.0007037661    1.694    0.410
       515  -9.1062    175.7303    247.6859   1.2022397178e+02   3.3446827521e-01    0.2811177    0.2098868  66.25  0.001240007    1.860    0.462
       516  -8.6407    156.4013    248.5646   1.2381892578e+02   3.2280561984e+00    0.2856297    0.1651618  60.43   0.00135314    2.261    0.558
       517  -8.9802    132.5304    248.2089   1.2809830987e+02   6.9800408681e+00    0.2805795    0.1727269  68.70 0.0006604642    2.122    0.529
       518  -8.1845    113.1579    248.7022   1.3164792672e+02   9.8283045398e+00     0.186255    0.1407252  84.99 0.0008970542    1.480    0.324
       519  -9.1331    103.9507    246.8578   1.3311695150e+02   1.1479417328e+01    0.3866427    0.1918789 -80.24  0.001888337    3.232    0.691
       520  -7.9123     17.1389     14.1991   1.1134496514e+02   7.0910896448e+01    0.1386422    0.1232637 -26.30 0.0004650578    1.337    0.252
       521  -8.8637    243.0826    246.9741   1.0847992335e+02  -9.5377100895e+00    0.2826241    0.1407638 -29.65  0.001696633    2.148    0.535
       522  -9.2557    233.2095    246.8345   1.1009510863e+02  -8.1569622707e+00    0.3122746    0.1868477 -29.61  0.001624087    1.842    0.457
       523 -10.1420    224.1170    244.1716   1.1122188199e+02  -6.5581941129e+00    0.4168149    0.2295871 -43.11  0.001669485    2.501    0.600
       524  -9.0707    147.3921    246.4626   1.2519247243e+02   4.9404736115e+00    0.2978785    0.1635641  60.14  0.001532645    2.321    0.569
       525  -7.9644     13.3343    247.3252   1.4852361187e+02   2.2697652393e+01   0.08383433   0.07394154 -69.54 0.0007051232    1.714    0.416
