#   1 NUMBER                 Running object number                                     
#   2 MAG_AUTO               Kron-like elliptical aperture magnitude                    [mag]
#   3 X_IMAGE                Object position along x                                    [pixel]
#   4 Y_IMAGE                Object position along y                                    [pixel]
#   5 X_WORLD                Barycenter position along world x axis                     [deg]
#   6 Y_WORLD                Barycenter position along world y axis                     [deg]
#   7 A_WORLD                Profile RMS along major axis (world units)                 [deg]
#   8 B_WORLD                Profile RMS along minor axis (world units)                 [deg]
#   9 THETA_WORLD            Position angle (CCW/world-x)                               [deg]
#  10 FWHM_WORLD             FWHM assuming a gaussian core                              [deg]
#  11 ELONGATION             A_IMAGE/B_IMAGE                                           
#  12 ELLIPTICITY            1 - B_IMAGE/A_IMAGE                                       
         1 -14.4213    149.1213     64.9967   8.3931908167e+01   3.8789853026e+01     1.265722    0.9079573  31.92  0.001230247    1.555    0.357
         2 -14.8507    160.1461     50.2873   7.7479324424e+01   3.8333411888e+01     1.095184     1.053063  22.82  0.003541436    1.131    0.116
         3 -15.1474    172.3646     20.5111   6.7319854814e+01   3.9019660012e+01      1.24692    0.8726542 -87.56  0.005374524    1.513    0.339
         4 -14.3329    190.1987     14.8483   6.3524031249e+01   3.5345061714e+01    0.8085261    0.4047842 -77.51  0.003414426    2.804    0.643
         5 -11.2504    115.6214    239.5421   1.2911196256e+02   9.5318164965e+00    0.2586682    0.2076679  23.52 0.0005282639    1.539    0.350
         6 -20.3202     79.8222    174.8982   1.2786559787e+02   2.9044267268e+01     16.46774     7.354112 -63.02   0.06903187    2.198    0.545
         7 -12.6694    194.3022    171.7722   1.0070507944e+02   7.9778791627e+00    0.5502009    0.3607304 -60.32  0.002067541    2.028    0.507
         8 -13.2589    236.2764    173.9122   9.2987978277e+01  -5.1338518519e-01    0.4217767    0.3128675  74.09  0.002076508    2.247    0.555
         9 -12.0289    240.0333    169.9317   9.1494097609e+01  -5.0784140657e-01    0.2255452    0.1596512  -1.61  0.001025447    1.714    0.417
        10 -11.3800    202.8918    173.0223   9.9204640709e+01   6.0089069954e+00     0.352841    0.1918533 -61.16  0.001245718    3.315    0.698
        11 -10.9040    118.6379    236.7849   1.2815508566e+02   9.5459309215e+00    0.2305433    0.1525881  81.66  0.001055339    1.956    0.489
        12 -12.3656    135.2926    235.7208   1.2464358890e+02   6.9097333101e+00    0.4126727    0.2855766 -73.22  0.001285781    1.845    0.458
        13 -12.6588    188.3700    154.1361   9.8121278445e+01   1.2706548428e+01    0.7267046     0.451237  40.52   0.00259037    1.628    0.386
        14 -10.5530    177.9095    156.1418   1.0082120811e+02   1.4538515361e+01    0.2179491    0.2029745  82.45 0.0002724455    1.181    0.154
        15 -10.2772    131.3907    235.4663   1.2540027742e+02   7.6286588777e+00    0.1838666    0.1239833 -56.34 0.0008362088    1.701    0.412
        16 -10.8587     23.0047    156.0970   1.3890265102e+02   4.0301099012e+01    0.1847628    0.1523639 -82.16 0.0004053143    1.029    0.028
        17 -13.1542    164.6638    153.4192   1.0317793183e+02   1.7953590141e+01    0.5309013    0.3419279  49.67  0.001400134    1.564    0.361
        18 -11.0717     18.2456    151.3173   1.3946863608e+02   4.1807529018e+01    0.5120404    0.1274052 -63.88  0.002056626    2.883    0.653
        19 -10.5929      3.2060    154.1042   1.4329269656e+02   4.2373945679e+01    0.1813965    0.1283115 -64.14  0.001113642    1.225    0.183
        20 -12.2390    174.3149    148.9075   9.9988068877e+01   1.6814051219e+01    0.4035093    0.3256648 -54.09  0.001200794    1.305    0.234
        21 -13.0801    207.6150    226.2361   1.0854065364e+02  -4.1530286068e+00    0.3044586    0.2413571 -25.04 0.0008750004    1.316    0.240
        22 -10.2014     10.7481    144.3935   1.4046206897e+02   4.3976690989e+01    0.1320804     0.113258 -16.49 0.0002833019    1.539    0.350
        23 -13.0622    207.5105    221.9749   1.0780528002e+02  -3.4596148553e+00    0.2981505    0.2459695 -35.18  0.001285036    1.332    0.249
        24 -12.1274    129.3500    241.8922   1.2668167686e+02   6.8055316514e+00    0.1937515    0.1889717  74.59 0.0005359096    1.186    0.157
        25 -10.3420     27.5008    228.5362   1.4484302201e+02   2.4143809299e+01    0.1154503   0.08695637  77.41 0.0003713007    1.003    0.003
        26 -13.0249    160.5136    128.0421   9.8200495110e+01   2.4252221507e+01    0.5161262    0.3828457 -58.86   0.00170519    1.496    0.332
        27 -11.3858    153.9000    125.4942   9.9127319709e+01   2.6271283854e+01    0.2390702    0.1529574  46.90 0.0007712043    1.550    0.355
        28 -11.0406    217.5497    218.0055   1.0513734995e+02  -4.5427374086e+00    0.1905299    0.1254538 -36.32 0.0006503321    1.589    0.371
        29 -11.2506    231.3453    113.7505   8.0817636419e+01   1.1134282937e+01    0.2550236    0.2479533 -75.69 0.0007850365    1.061    0.057
        30 -11.3944    167.7245    112.7713   9.2752857523e+01   2.5733495127e+01    0.3654792    0.2628128 -75.85  0.001489941    1.926    0.481
        31 -10.8009     24.8968    214.0361   1.4419458547e+02   2.7383935135e+01    0.1291444     0.098289  80.99 0.0003055696    1.013    0.012
        32 -10.9660    205.4879    110.1832   8.4459378368e+01   1.7472704605e+01    0.3209071    0.2129247  44.63  0.000928026    1.594    0.372
        33 -10.9625     20.9983    210.0498   1.4460927349e+02   2.8627258503e+01    0.1536117    0.1023479 -67.61 0.0003619507    1.450    0.311
        34 -12.3168     30.0526    104.9175   1.2916450567e+02   5.1248799467e+01    0.3497263    0.2235685  -2.19 0.0009584099    2.087    0.521
        35 -13.7400     11.6560    205.7058   1.4602967130e+02   3.0470528140e+01    0.5639113    0.3247061 -59.16  0.003488885    1.844    0.458
        36 -10.5080    158.7783    240.6064   1.2061234310e+02   1.9698180679e+00    0.1865334    0.1711162 -12.84 0.0005656706    1.265    0.210
        37 -11.6251    134.2125    197.1569   1.1886944865e+02   1.4716955466e+01    0.3695371    0.2553109 -52.87 0.0007461642    1.542    0.352
        38 -12.9647     41.0325     94.8857   1.2362132675e+02   5.2373888509e+01    0.4298063    0.3358952   9.63    0.0026584    1.447    0.309
        39 -10.7074    222.9986    198.5437   1.0041241903e+02  -2.3219714803e+00    0.1940742    0.1259486  37.63 0.0003485389    1.494    0.331
        40 -11.8568    110.5301    241.6901   1.3038632672e+02   9.9662765910e+00    0.2801796    0.2482154 -63.52   0.00146176    1.322    0.243
        41 -10.7758     23.5922    191.3307   1.4248875115e+02   3.2360050050e+01    0.2469171     0.135729 -51.77  0.001159402    2.107    0.525
        42  -9.3212    157.0730    245.9755   1.2173837637e+02   1.3639072731e+00    0.3852862     0.238739 -17.00  0.001725694    3.114    0.679
        43 -10.3489     36.7109    246.6033   1.4456197125e+02   1.9556638848e+01    0.1715794   0.09500882  77.71  0.001038054    1.623    0.384
        44 -13.4976    164.6081     41.7024   7.4268973386e+01   3.8405173831e+01    0.4783552    0.4227999  60.08 0.0008750593    1.038    0.036
        45 -11.6048    141.6287    188.6127   1.1567147926e+02   1.5119017378e+01    0.2839852    0.2524029  79.02 0.0009532262    1.196    0.164
        46 -10.7369     15.2785    187.7029   1.4385707019e+02   3.3963305659e+01    0.1481615    0.1065365 -65.53 0.0005713564    1.340    0.253
        47 -11.3852     13.5513     59.9018   1.2467715037e+02   6.1723314533e+01    0.1807535    0.1572607   1.44 0.0004002131    1.293    0.227
        48 -11.0845    116.6212    246.2706   1.2975063438e+02   8.1334125756e+00    0.1386216    0.1199111 -51.01 0.0003840197    1.430    0.301
