#   1 NUMBER                 Running object number                                     
#   2 MAG_AUTO               Kron-like elliptical aperture magnitude                    [mag]
#   3 X_IMAGE                Object position along x                                    [pixel]
#   4 Y_IMAGE                Object position along y                                    [pixel]
#   5 X_WORLD                Barycenter position along world x axis                     [deg]
#   6 Y_WORLD                Barycenter position along world y axis                     [deg]
#   7 A_WORLD                Profile RMS along major axis (world units)                 [deg]
#   8 B_WORLD                Profile RMS along minor axis (world units)                 [deg]
#   9 THETA_WORLD            Position angle (CCW/world-x)                               [deg]
#  10 FWHM_WORLD             FWHM assuming a gaussian core                              [deg]
#  11 ELONGATION             A_IMAGE/B_IMAGE                                           
#  12 ELLIPTICITY            1 - B_IMAGE/A_IMAGE                                       
         1 -12.7789     52.7322     91.1273   1.0538953991e+02   5.1680318649e+01     2.722597    0.7574615 -47.12  0.005988118    3.262    0.693
         2 -12.4356     46.0410     15.7216   8.2202922725e+01   6.7256443863e+01     1.860795     1.037683 -47.96   0.00941862    2.470    0.595
         3 -12.5589     58.9155      4.8189   7.1512171873e+01   6.6717781084e+01    0.7687264    0.4792679  27.30  0.001963178    1.486    0.327
         4 -11.9739     21.6816     56.0934   1.0767521087e+02   6.2385842643e+01      1.99089    0.5643333 -39.58  0.007441624    3.701    0.730
         5 -11.0927      7.0158     56.7929   1.1354921344e+02   6.3176256131e+01     1.195018    0.6241606 -74.53  0.006476212    1.986    0.496
         6 -11.6860     74.6992     47.3498   8.4550381613e+01   5.7852077464e+01     1.291281    0.5953841 -31.31  0.004112421    2.261    0.558
         7 -12.5881     27.9226     24.3433   9.4261793187e+01   6.7999921080e+01     1.776888    0.9043568 -40.77  0.009975594    1.567    0.362
         8 -13.0692     15.0999    101.3324   1.1892305940e+02   5.2744238142e+01     2.599926    0.8240825 -56.89    0.0118287    2.305    0.566
         9 -13.1646     91.2724     57.0663   8.2559920360e+01   5.3187408026e+01     3.207335     1.640708  24.53  0.009295468    3.008    0.668
        10 -12.1632      8.3904     26.2975   1.0428404278e+02   6.9211259150e+01    0.7232015    0.4236197  -7.33  0.003081588    1.909    0.476
        11 -13.1886     52.2918     40.7453   9.0400202048e+01   6.2334177180e+01     2.072031     1.233657  34.80   0.01118988    1.893    0.472
        12 -13.2013     70.9732     31.0338   7.9321831743e+01   6.1203602292e+01     2.594553     1.522032  37.52   0.01338614    1.756    0.430
        13 -12.8631     90.4224     23.0850   6.9379177237e+01   5.8759676924e+01     5.635551     1.309385 -23.22  0.008655493   18.062    0.945
        14 -13.2224    102.2304      7.3497   5.9249705581e+01   5.8036399563e+01     3.244415    0.4022591  55.57   0.00914417    5.114    0.804
        15 -12.7198     17.1932     11.0885   9.3626066553e+01   7.1187763811e+01    0.9487277    0.7441953 -62.45  0.003133345    2.095    0.523
        16 -13.3653      3.7732     14.7889   1.0224991093e+02   7.1569005549e+01     1.040617    0.3399156 -51.49  0.003521857    2.336    0.572
        17 -13.2999     29.0428     70.7071   1.0861169626e+02   5.8652165196e+01     1.911777      1.01882 -43.18   0.00472649    1.635    0.388
        18 -12.6222     55.1655     65.7614   9.7851733405e+01   5.7027400345e+01     1.985507     1.484325 -84.23   0.01049867    2.006    0.502
        19 -12.7790     82.0934     75.9786   9.1790615302e+01   5.0989826611e+01     2.316917    0.7347049 -51.69  0.007570317    3.266    0.694
        20 -12.0812    117.8503     49.4422   7.1917740079e+01   4.9077707865e+01     1.811596    0.9137511 -49.01   0.00695545    2.509    0.601
        21 -12.7000    115.6154     67.9241   7.8998605422e+01   4.6290809164e+01     1.901627     1.536976  75.87  0.008563804    1.633    0.388
        22 -12.9599    100.5212     78.1447   8.6714196094e+01   4.7287658672e+01     3.999827     2.836267  65.51   0.01832982    1.971    0.493
        23 -12.3855    129.2646     21.2396   5.8548536537e+01   5.0314980686e+01     2.390573     1.213099   8.77  0.008378473    3.487    0.713
        24 -11.8232     15.0013     35.3444   1.0431065884e+02   6.7060308153e+01     1.124376    0.4533732 -46.26  0.005895881    1.799    0.444
        25 -10.0373    226.6240      6.8012   4.0386706008e+01   2.7186942591e+01    0.3994966    0.2787234   8.37   0.00163341    2.138    0.532
        26 -11.0076    213.7607      4.9502   4.1071304530e+01   3.0508510182e+01    0.9877693    0.3735018  75.27  0.003681102    2.569    0.611
        27 -10.3605    215.6744     23.2153   4.5680627160e+01   2.8037239621e+01    0.7621822    0.5084798  65.66  0.003935768    1.464    0.317
        28 -10.2530    203.1093     28.8647   4.8720744728e+01   3.0521334791e+01    0.7266216    0.3580617  -9.53  0.002594261    3.394    0.705
        29 -10.1970    203.5398     18.2800   4.5713234275e+01   3.1654211672e+01    0.7387232    0.3975512  25.96  0.002316015    3.302    0.697
        30 -10.3949    210.7701     17.4417   4.4674687314e+01   2.9925014971e+01    0.4716071    0.2687947  51.71  0.001338657    1.854    0.461
        31 -10.2180    221.7425     12.0976   4.2160220062e+01   2.7802339722e+01    0.4604462    0.3115901 -81.63  0.001654001    1.468    0.319
        32 -11.1081    214.4570     11.5068   4.2715260484e+01   2.9656140595e+01     0.490345     0.307634  73.22  0.002523284    1.510    0.338
        33 -11.0678    236.7320     30.4370   4.5296410606e+01   2.2059448730e+01    0.8643844    0.5727416  -6.97  0.004202478    2.112    0.526
        34 -10.5363    135.3450     34.3008   6.2047827614e+01   4.7216329073e+01    0.9546885    0.4999329  15.06  0.003106204    3.788    0.736
        35 -11.2085    179.7323     27.3043   5.1498252342e+01   3.6747868335e+01    0.7568153    0.5367067  43.09  0.003747438    1.482    0.325
        36 -10.2450    175.7857     20.4861   4.9972073817e+01   3.8565223918e+01    0.5526248    0.3982466 -87.48  0.002758736    1.521    0.342
        37 -12.0826      2.1866      2.2606   9.7562280287e+01   7.3752347097e+01    0.2625093    0.1760087 -42.44   0.00188402    1.326    0.246
        38  -9.9485    147.5061     25.5152   5.6383913967e+01   4.5288186901e+01    0.7019709    0.3765047 -20.54   0.00283729    2.048    0.512
        39  -9.0177    173.4011     10.1999   4.7103847860e+01   4.0263504482e+01    0.3558651    0.2400597  26.81  0.001596237    1.802    0.445
        40  -9.9240    167.8288     12.8413   4.8718287532e+01   4.1443933490e+01    0.6783358    0.3275473  67.06  0.002780374    1.915    0.478
        41 -11.3223    164.5343      5.3142   4.6769936416e+01   4.3016089172e+01     1.041967    0.7198185  51.84  0.004343966    1.353    0.261
        42 -11.5375    158.4784     20.1030   5.2558881259e+01   4.3097280485e+01    0.8989398    0.6276071 -44.93  0.002378376    1.542    0.351
        43 -11.0618    149.3786     14.9624   5.2356162593e+01   4.5976891454e+01    0.8331317    0.6084237   2.18  0.002367001    1.578    0.366
        44  -9.9962    230.8129     18.9372   4.3021008130e+01   2.4846482391e+01    0.5322583    0.3732266 -26.96  0.002499797    1.497    0.332
        45  -9.5269    232.2831     10.5675   4.0822413373e+01   2.5435775020e+01    0.3186735    0.2092977  87.00  0.001309057    1.480    0.325
        46  -9.4613    233.9565      7.0895   3.9837909281e+01   2.5414951554e+01    0.2276821    0.2131904  67.22 0.0004933046    1.223    0.182
        47 -10.1862    243.6288     12.3479   4.0293743927e+01   2.2596589072e+01    0.3635177    0.2603697 -20.29 0.0008665188    1.616    0.381
        48  -9.8765    243.9712      5.0427   3.8567083568e+01   2.3314129913e+01    0.2983553    0.1811383 -23.30 0.0008785513    1.841    0.457
        49 -12.2617    111.9003     31.8597   6.6857697516e+01   5.3044552535e+01     0.889069    0.5231045  61.01  0.001183088    1.968    0.492
        50 -10.4927    199.7389      6.4022   4.2846755074e+01   3.3871536028e+01    0.8379917    0.3929729 -32.05  0.003776691    2.089    0.521
        51 -10.1098     78.0413      8.9451   6.6869455290e+01   6.2859750359e+01    0.2720572    0.2264445  -0.84 0.0007828581    1.082    0.076
        52  -9.1945     77.3857      4.7803   6.5085786122e+01   6.3420752303e+01    0.2765311    0.1676956  21.18  0.001458539    1.632    0.387
        53  -9.1506    249.9500      7.6627   3.8719464675e+01   2.1682532827e+01     0.276019    0.1544792 -68.06  0.001424865    1.758    0.431
        54  -8.9149    190.4811      7.7971   4.4256723440e+01   3.6093287075e+01    0.2505215    0.1688998  71.08  0.000598532    1.366    0.268
        55 -10.2502    182.1799      4.7986   4.4348894482e+01   3.8513834804e+01    0.5316515    0.3633711  68.66  0.001736549    1.329    0.248
        56  -9.5046     69.8736      4.1417   6.7233864096e+01   6.4889152529e+01    0.4386893    0.3184486  47.27  0.002656889    1.476    0.323
        57 -12.2464     24.5390      6.2894   8.7509809550e+01   7.1207662223e+01    0.5875106    0.3588362 -23.27  0.002184332    1.318    0.241
        58  -8.6314     82.5071      2.9954   6.2662904589e+01   6.2593412694e+01    0.1901536    0.1170256 -19.51  0.000604726    1.591    0.371
        59  -8.7101    248.3293      1.6015   3.7466219510e+01   2.2691882674e+01    0.2079976    0.1447924  69.18 0.0008770765    1.473    0.321
        60 -12.8401    114.0411     20.8860   6.1938965567e+01   5.3947890918e+01     1.600218    0.9443882  12.06  0.007028067    2.192    0.544
        61  -8.6561    223.7871      1.3648   3.9281715040e+01   2.8423814852e+01    0.1677446    0.1091371  66.59 0.0002089765    1.490    0.329
        62 -10.7266      6.0506    142.5260   1.2590855552e+02   4.3987663512e+01    0.3438863    0.2480326 -84.04 0.0009467649    1.039    0.038
        63  -8.8159    210.6823    250.3241   9.7839321060e+01  -5.6228106803e+00    0.1037336   0.08359402  54.55  0.000668706    1.671    0.402
        64  -9.1075    183.6756    249.8422   1.0244896927e+02  -1.3989643285e+00    0.2378524    0.1112045  46.63  0.001264291    1.871    0.466
        65  -9.1583    161.9766    250.2564   1.0631148267e+02   1.9618980754e+00    0.1731259    0.1252391  40.51  0.001165625    1.072    0.068
        66  -9.7305    151.3941    249.8989   1.0813125107e+02   3.6755404974e+00    0.2220209    0.1535024  58.15 0.0008506983    1.450    0.310
        67  -9.6866    125.2729    249.5326   1.1267924638e+02   7.7759461240e+00    0.2334128    0.1688875  20.33  0.001468885    1.944    0.486
        68  -9.9763     46.6810    144.4795   1.1647886473e+02   3.9808103332e+01    0.3629813    0.2748868 -28.08  0.002104598    1.927    0.481
        69  -9.4437     31.3944    134.4807   1.1898532513e+02   4.3710241222e+01    0.2356855    0.1937746  60.94  0.001406679    1.283    0.220
        70 -10.1998     27.2956    138.6659   1.2050373118e+02   4.3122032087e+01     0.418394    0.2250898 -73.43  0.002307635    1.503    0.335
        71 -10.8904     22.9310    137.1905   1.2140126048e+02   4.3849470356e+01    0.6132154    0.3486537 -49.40  0.003438672    1.925    0.481
        72 -10.2620     35.9464    151.7690   1.1993251435e+02   3.9279251451e+01    0.2852463    0.1804014  73.44 0.0004218497    1.543    0.352
        73 -10.6102     30.8211    151.3693   1.2107644345e+02   3.9882978881e+01    0.2968414    0.2154411 -70.43  0.001000164    1.207    0.171
        74 -10.0487     28.5689    146.6881   1.2109678525e+02   4.1164467899e+01    0.2818842    0.1679088 -66.73 0.0008560971    1.412    0.292
        75 -10.4001     31.7496    141.7448   1.1977858509e+02   4.1994913433e+01    0.3482486    0.2752526  15.49  0.001823875    1.775    0.437
        76 -10.8988     40.4115    146.4628   1.1825373618e+02   4.0031087322e+01    0.4558698    0.3353931 -80.27  0.000691091    1.124    0.110
        77 -10.3239     37.8426    143.3771   1.1849567418e+02   4.1011799260e+01    0.3207882    0.2506324   5.36  0.001439136    1.923    0.480
        78  -9.0042     24.7213    153.6017   1.2269679047e+02   3.9959087963e+01    0.1483444   0.09968911  52.95 0.0008118576    1.495    0.331
        79  -8.0092     46.2781    150.2816   1.1732298960e+02   3.8510855482e+01    0.1167704   0.08907042 -49.49 0.0002857646    1.507    0.336
        80 -10.9664     18.5976    146.9942   1.2344644868e+02   4.1991102388e+01    0.5117676    0.2518353 -89.41   0.00256256    1.880    0.468
        81 -11.0168     23.4948    146.6390   1.2227854388e+02   4.1642718779e+01    0.3982368    0.2542245  86.34  0.002008298    1.370    0.270
        82  -9.7098     66.5387    148.4175   1.1215832724e+02   3.6459992672e+01    0.2813249    0.2348019  45.65  0.001707937    1.301    0.232
        83  -9.9414     70.4249    142.5746   1.1027957178e+02   3.7300307335e+01    0.2713347    0.2181992  68.81 0.0005956712    1.240    0.193
        84  -8.6757     80.0041    140.7909   1.0754670401e+02   3.6353766146e+01    0.1899998    0.1736102  76.10  0.000527378    1.085    0.078
        85  -9.8768    235.6573    249.2970   9.3470580197e+01  -9.1895573289e+00     0.326194    0.1359079  41.44  0.001750079    2.098    0.523
        86 -11.8422     38.6080     92.8756   1.1027177908e+02   5.2771541555e+01     2.737501    0.6382549  37.05  0.009829883    4.504    0.778
        87 -12.6764     14.8151    125.6107   1.2212202596e+02   4.7168343210e+01     1.177418    0.8434353 -67.91  0.002381209    1.160    0.138
        88 -13.5244     39.4357    122.3120   1.1520444041e+02   4.5778883273e+01     2.518129     2.168384   7.53  0.005228821    1.548    0.354
        89  -8.9733     30.7242    247.6975   1.2828307185e+02   2.0679639454e+01    0.1683316    0.1027647 -72.90  0.001245675    1.745    0.427
        90  -9.6003      3.2747    246.8734   1.3237602506e+02   2.3648418662e+01    0.2051627    0.1165469 -69.73  0.001378258    1.994    0.499
        91  -8.5832    217.6597    247.3193   9.6206695427e+01  -6.3356490579e+00     0.104484   0.08452506  53.82 0.0005967082    1.714    0.417
        92  -9.8460    106.5382    247.1553   1.1570785779e+02   1.0948010304e+01    0.2249911    0.1069953  51.88  0.001260704    1.696    0.410
        93  -9.4184     58.7928    246.9846   1.2377069782e+02   1.7495405249e+01    0.1871342   0.08978812  71.46  0.001089047    2.049    0.512
        94  -9.7290     91.4385    245.7171   1.1818768555e+02   1.3354835330e+01    0.1877916    0.1037432 -75.53  0.001133853    2.106    0.525
        95 -10.1529    142.1132    243.6628   1.0904003552e+02   6.0376802821e+00    0.2777025     0.212149  29.95 0.0009863969    1.358    0.263
        96  -8.9198    194.2103    244.5714   9.9872712246e+01  -2.3954899114e+00    0.1722538   0.08912378  32.35 0.0006110345    1.650    0.394
        97  -8.6426    211.3706    238.8548   9.6019255894e+01  -4.3891054781e+00    0.1593712    0.1015424 -15.60 0.0009530649    1.866    0.464
        98 -11.6823     39.5407     50.7975   9.9044902940e+01   6.1892039865e+01    0.7806201    0.4614782  10.98  0.004140315    2.143    0.533
        99 -10.3450     14.6471    237.3824   1.3026782647e+02   2.4140815018e+01    0.2820942    0.1474445 -88.14 0.0009758285    1.593    0.372
       100  -9.1935     54.5033    237.9552   1.2385998245e+02   1.9568737791e+01    0.2409289     0.127135  37.06  0.001462626    2.029    0.507
       101  -9.6807    190.4198    236.1674   9.9331478058e+01  -7.1194720708e-01    0.1412638    0.1175227 -54.33 0.0006280149    1.672    0.402
       102  -9.4675    183.8046    235.6140   1.0044360855e+02   4.3902660180e-01    0.1767536   0.09496995  46.61 0.0007884943    1.663    0.399
       103  -8.9732    219.5340    231.2439   9.3398659599e+01  -4.7470105501e+00    0.1874225    0.1765854  62.64 0.0009298644    1.605    0.377
       104  -8.5190     20.6069    232.2777   1.2907988610e+02   2.4425711938e+01    0.1265812   0.07907799 -78.43 0.0005390203    1.522    0.343
       105  -9.0056    237.0301    135.5069   7.1323845651e+01   6.0040495085e+00    0.2114872    0.1398143  46.42  0.001041945    1.618    0.382
       106  -9.7121     60.8113    134.4302   1.1142677544e+02   4.0486631059e+01    0.2363151    0.1230637  40.14  0.001131564    2.047    0.511
       107  -9.3013     12.8191    231.8809   1.3029747893e+02   2.5288226770e+01    0.2113401   0.09488946  54.45  0.001396624    1.660    0.397
       108  -9.6541     59.5330    120.5951   1.0939376068e+02   4.3930165095e+01    0.3102077    0.2669286  19.11  0.001871114    1.448    0.309
       109 -10.1074     63.4920    114.0255   1.0702659595e+02   4.4989251226e+01    0.5744401    0.1940249  44.95  0.002099181    3.458    0.711
       110  -9.4934     61.1521    109.8705   1.0686885037e+02   4.6273113451e+01    0.2940103    0.2178754 -42.57 0.0007616339    1.377    0.274
       111  -9.1710     61.5397    124.4680   1.0953847743e+02   4.2757462117e+01     0.219039    0.1927454 -79.25 0.0006875879    1.039    0.038
       112 -10.7590     65.6148    129.7330   1.0936796872e+02   4.0979851145e+01    0.4597315    0.2400847 -48.10  0.001724441    1.950    0.487
       113 -10.1065     66.6584    124.4904   1.0814392562e+02   4.2087023034e+01     0.369768    0.3191647 -33.74  0.001855727    1.357    0.263
       114  -9.7642     69.0135    120.0008   1.0664171632e+02   4.2837208510e+01    0.4815046    0.2137228 -56.15  0.001949578    1.957    0.489
       115  -8.2189    103.4635    131.5768   9.9700490457e+01   3.4718290045e+01    0.1436557    0.1372765 -64.70 4.692319e-05    1.055    0.052
       116  -7.7819     95.3342    131.3058   1.0177150583e+02   3.6171600905e+01    0.1425516    0.1132971 -21.46 0.0004354203    1.667    0.400
       117 -10.8793     79.9500    129.0370   1.0540472593e+02   3.9133444208e+01    0.2353251      0.19422 -75.42  0.001316309    1.136    0.120
       118  -8.7182     81.1962    124.6025   1.0419514289e+02   3.9996287283e+01    0.2186782     0.188177 -29.16 0.0007226671    1.372    0.271
       119  -9.7084     73.0205    129.5104   1.0734865108e+02   4.0024243984e+01    0.2578316     0.183289 -65.71  0.000359261    1.270    0.212
       120 -10.3770     56.2283    126.1809   1.1127840634e+02   4.3007339107e+01    0.3926291    0.2398906 -64.87  0.001347728    1.410    0.291
       121  -9.1874     75.3628    124.8600   1.0583644876e+02   4.0794595994e+01    0.2717458    0.2027823  70.52 0.0009574764    1.516    0.340
       122 -10.2317     91.0874    121.4151   1.0082665928e+02   3.9193322652e+01    0.4677387    0.3085088 -51.92  0.001114591    1.412    0.292
       123  -9.2026     91.1507    113.3521   9.9000992032e+01   4.1072954434e+01    0.3861958    0.2508399 -76.75   0.00131934    2.001    0.500
       124  -9.4154     98.3367    113.2032   9.6954867124e+01   3.9886782521e+01     0.384787    0.2957372  49.48  0.001555279    1.391    0.281
       125  -9.0045    106.0697    119.5462   9.6335403780e+01   3.7040731333e+01    0.2564133     0.239264  24.38 -4.81614e-05    1.187    0.158
       126  -9.3835    104.4954    116.5196   9.6048807378e+01   3.8025085773e+01    0.3311428    0.1884659  50.46    0.0014056    1.944    0.486
       127  -8.0731    132.3118    119.2907   8.9406599637e+01   3.1961023853e+01    0.1522567    0.1234021  -2.18 0.0004185371    1.586    0.370
       128  -8.5179    226.9020    231.5445   9.2164624885e+01  -5.9285640918e+00    0.1765999   0.09561777  35.67 0.0004936525    1.519    0.342
       129  -9.2147    108.2431    114.2466   9.4480719355e+01   3.7860340217e+01    0.3702203    0.1289088 -52.48  0.001211598    2.851    0.649
       130  -8.8022    107.5133    110.0264   9.3634057917e+01   3.8961087177e+01    0.2929483    0.2212276 -27.12 0.0009985088    1.555    0.357
       131  -8.6307    104.3714    109.1697   9.4288508891e+01   3.9737410681e+01    0.2165226    0.1835959 -57.32 0.0005041287    1.130    0.115
       132  -8.9452     81.7279    114.6389   1.0195263961e+02   4.2270470666e+01    0.3045473    0.1906235  16.89  0.001323393    2.438    0.590
       133  -8.7062    143.0016    114.3084   8.5462604453e+01   3.0759015696e+01     0.213858    0.1971424  40.32 0.0003172727    1.106    0.096
       134  -9.8419    132.1729    110.6728   8.7232230667e+01   3.3884089042e+01    0.6227802     0.321766  43.59  0.002358868    1.993    0.498
       135  -8.7921    136.1643    106.8815   8.5201773082e+01   3.3848445930e+01    0.2890711    0.2327134  59.49 0.0008356568    1.353    0.261
       136 -10.0483    133.8983    102.4234   8.4562234080e+01   3.5297741139e+01    0.4218921    0.2860822 -34.83  0.001053993    1.524    0.344
       137  -9.4657    136.0143    229.5061   1.0843194204e+02   9.2130348654e+00    0.2333671    0.1510274 -32.18  0.001272612    2.417    0.586
       138  -9.8143    149.1809    107.0117   8.2009484942e+01   3.0925616198e+01    0.5420459    0.2222815 -39.91  0.001758362    2.442    0.591
       139  -8.1559    120.6929    109.7284   8.9986210702e+01   3.6469259260e+01    0.1485216    0.1214457  -3.79 0.0001963995    1.542    0.351
       140  -9.6202    113.4834    106.6118   9.1118789891e+01   3.8595720394e+01    0.2824469    0.2544376 -48.29  0.001183409    1.059    0.055
       141 -10.9674    141.7670    101.8836   8.2418627613e+01   3.3673039580e+01    0.3966961    0.3320302  14.95 0.0007941391    1.384    0.277
       142  -9.3785    171.1951    102.5138   7.5697943161e+01   2.6696870967e+01    0.4044733    0.2665981  28.34  0.001656103    1.901    0.474
       143  -8.5890    105.4720    102.9474   9.2380890477e+01   4.0948498970e+01    0.2303599    0.1409461 -47.47 0.0005495356    1.538    0.350
       144  -9.1200     96.3261    103.1631   9.5042850817e+01   4.2551264697e+01    0.2227511    0.1989584  11.65 0.0007948535    1.279    0.218
       145  -8.7459     50.4670    227.4838   1.2380723888e+02   2.1927535982e+01    0.1116663   0.08333313  70.16 0.0001057735    1.017    0.017
       146  -8.5584     31.9248    102.4344   1.1412177093e+02   5.1163139159e+01    0.1945992    0.1343115 -64.24 0.0003056344    1.163    0.140
       147  -8.6991     40.0419    102.5337   1.1170526255e+02   5.0379302616e+01    0.1649538    0.1307692  29.32 0.0004182696    1.528    0.345
       148  -8.5563      4.5508     82.4550   1.1928608393e+02   5.7683680418e+01    0.2564295    0.1404316 -64.39  0.001080814    1.337    0.252
       149 -10.4039      4.7002     99.8091   1.2173119608e+02   5.3753291560e+01    0.6726343     0.215064 -56.87  0.003196666    2.282    0.562
       150  -9.3450      2.5437     95.5770   1.2180349683e+02   5.4834672222e+01    0.2289498    0.1049748 -60.40 0.0006256449    1.611    0.379
       151 -10.5794      5.9704     86.3589   1.1944481588e+02   5.6728704524e+01    0.8322267    0.2449721 -48.17  0.003664192    2.866    0.651
       152  -9.2000      5.6772     77.7309   1.1814242067e+02   5.8678868426e+01    0.2505188    0.1956956  56.66  0.001731743    1.602    0.376
       153  -9.9840      3.4228     73.7942   1.1822341397e+02   5.9670104098e+01    0.5067497    0.1799455 -42.61  0.002136954    2.630    0.620
       154  -8.7185    152.0421    101.4086   7.9776616372e+01   3.1428437851e+01    0.2180789    0.2056096  58.25 0.0004742673    1.100    0.091
       155  -9.1980    110.9197    100.6379   9.0236160788e+01   4.0429878813e+01    0.2380996    0.1943243 -37.23 0.0003232343    1.209    0.173
       156  -8.4558     58.2931    101.6363   1.0599695162e+02   4.8570531625e+01    0.1574006    0.1317858  10.83 0.0002590962    1.476    0.323
       157  -8.5432    121.6594    100.6993   8.7308196582e+01   3.8266150477e+01    0.1565191     0.122525  -1.67 0.0002791118    1.670    0.401
       158  -8.5240    106.2023     98.8442   9.1076679691e+01   4.1732561254e+01    0.1974839    0.1747296  -3.13   0.00102982    1.280    0.219
       159 -10.1612     65.8547     98.2774   1.0293195922e+02   4.8386492628e+01    0.4926076    0.2374003  35.93  0.001465678    2.324    0.570
       160  -9.7430    150.7642     96.0009   7.8551914668e+01   3.2825338951e+01    0.4270237    0.3039787  65.37  0.001332682    1.684    0.406
       161  -9.3018    160.4778     96.7096   7.6476123492e+01   3.0393209680e+01    0.4577765    0.2878304 -17.89   0.00175592    2.196    0.545
       162 -10.0048    156.2566     95.5579   7.7124564411e+01   3.1623481708e+01    0.5213191    0.4665405  -0.73  0.002564746    1.211    0.174
       163 -11.5771     40.5064     78.4074   1.0644326000e+02   5.5891496595e+01    0.7115061    0.5151028  38.77   0.00295667    1.666    0.400
       164  -8.1240     94.3319     97.2931   9.4090598330e+01   4.4233995619e+01     0.147581    0.1137849 -14.86 0.0003073567    1.634    0.388
       165  -9.3733    226.8325     95.4706   6.3258677912e+01   1.4791091623e+01    0.2396777    0.2237884  81.85 0.0008589574    1.199    0.166
       166  -9.6776    139.8825     95.2932   8.1023399907e+01   3.5470840381e+01    0.4569486     0.276766  50.55  0.001023537    1.720    0.419
       167  -9.0118    188.9255     94.9963   6.9922449740e+01   2.3842705394e+01    0.2338627    0.2238868 -20.86 0.0003807186    1.024    0.024
       168  -8.1225    170.2394     92.9660   7.3229223659e+01   2.8771427957e+01    0.2054343    0.1312711 -37.95 0.0003994416    1.531    0.347
       169  -9.5824    103.4828     92.5489   9.0112703073e+01   4.3639739290e+01    0.2868452    0.2613916  22.31 0.0007377338    1.180    0.152
       170 -10.8493    106.7380     89.0411   8.8163680827e+01   4.3785152779e+01     1.044554     0.372934 -35.64  0.003016395    3.920    0.745
       171  -8.9302    213.4931     89.9217   6.4025746956e+01   1.8817573629e+01    0.2438336    0.1431254 -33.97  0.001039641    1.610    0.379
       172  -8.7959    174.6940     93.2891   7.2363874218e+01   2.7626269579e+01    0.1570076     0.124971 -74.80 0.0006989164    1.572    0.364
       173  -8.6505    187.4707     89.5509   6.8694293634e+01   2.5187469338e+01    0.1556941    0.1504259 -49.87 0.0002382919    1.043    0.041
       174  -9.2374    112.5145     87.9534   8.6191919455e+01   4.2880522097e+01    0.3328007    0.1968943 -30.81 0.0008876012    1.931    0.482
       175 -10.1767    150.7107     59.0929   6.7166532947e+01   3.9692997338e+01    0.4950559    0.3418759  64.10  0.002224428    1.585    0.369
       176 -11.4219    155.0227     44.7617   6.1487155612e+01   4.0836070846e+01    0.9971467    0.8887304  55.21  0.003588485    1.101    0.091
       177 -10.3250    148.1029     34.9617   5.9559711642e+01   4.3952701893e+01    0.9923542    0.3294462  56.98  0.003392919    2.740    0.635
       178 -10.6369    143.6021     58.2218   6.8503835953e+01   4.1588980090e+01    0.2679231    0.2633034   0.94 0.0002934196    1.023    0.023
       179 -10.9859    145.7760     85.5205   7.6678483073e+01   3.6083458628e+01     1.075611    0.8478307  -9.93  0.004799826    1.498    0.332
       180 -10.8316    150.5614     66.4832   6.9602338961e+01   3.8472473244e+01    0.7751433    0.6963007  -6.36  0.003895706    1.159    0.137
       181 -10.7995    160.7704     50.8415   6.2325804501e+01   3.8466515915e+01     1.029928    0.5457408  76.75  0.003569697    2.972    0.664
       182 -10.9407    140.8402     52.1050   6.7076889513e+01   4.3260129365e+01    0.9070864    0.4236338  59.12   0.00310824    2.322    0.569
       183 -12.1379    147.1610     75.1374   7.3149303801e+01   3.7739352374e+01    0.6661188    0.4555305  56.78            0    1.547    0.354
       184 -11.5397    139.9676     72.4973   7.4060489061e+01   3.9943601022e+01     1.081783    0.7622328 -50.70 0.0007808284    1.539    0.350
       185 -11.4759    148.8839     53.3720   6.5676816932e+01   4.1074638533e+01     2.285403    0.8287271  43.74  0.007352427    3.034    0.670
       186 -10.0534    144.8661     48.9573   6.5078687813e+01   4.2761921960e+01    0.3988634    0.2648602  53.91 0.0006181677    1.479    0.324
       187 -11.6945    166.4779     68.3792   6.6716722974e+01   3.4174648216e+01    0.8985403    0.6116683 -21.91   0.00311745    1.626    0.385
       188 -11.1927    164.8760     60.8691   6.4702935577e+01   3.5837138812e+01     0.795217    0.4632725 -35.73 0.0006999355    1.692    0.409
       189 -10.3863    136.0058     41.6914   6.4557477515e+01   4.6024295900e+01      0.43266    0.3339077  74.02  0.001327574    1.527    0.345
       190  -9.2292    202.2324    228.9925   9.6114858663e+01  -1.6905985100e+00    0.1976493    0.1440188  33.28 0.0003468219    1.119    0.106
       191 -10.8709    133.6032     80.4147   7.8171486413e+01   3.9902795098e+01    0.5241374    0.4451227  58.71  0.001079013    1.272    0.214
       192 -10.0497    160.7888     81.7440   7.2028053292e+01   3.3197970542e+01    0.4429238    0.3461652  62.64  0.001444107    1.383    0.277
       193  -9.1660    111.9002    225.2068   1.1244100168e+02   1.3781314735e+01    0.2729466    0.1071236  55.44  0.001162422    2.749    0.636
       194  -9.9828    190.8844     76.7626   6.4412223232e+01   2.6585088609e+01      0.58995    0.3063434  31.93  0.001878226    3.011    0.668
       195  -8.8093    185.6534     78.7242   6.5964356861e+01   2.7557585983e+01    0.2383383    0.1985308  -9.36 0.0006687539    1.334    0.250
       196  -9.6958    214.8055     76.3279   6.0169713738e+01   2.0752712789e+01    0.4072522    0.3113509 -60.48  0.001668694    1.428    0.300
       197  -9.1466      1.5345     84.5102   1.2056011223e+02   5.7380272673e+01    0.1761312    0.1473135 -66.47 0.0005815247    1.121    0.108
       198  -9.2431    248.1758     76.1960   5.5298556453e+01   1.3069512565e+01    0.2021423    0.1500733 -52.89 0.0006883007    1.332    0.249
       199  -8.7759    204.5760     75.4759   6.1621931044e+01   2.3392374291e+01    0.2679611    0.1312469  46.36  0.001020897    2.199    0.545
       200  -8.7139    224.8140     85.1837   6.0928360891e+01   1.6941778501e+01    0.1986355     0.170946   9.06 0.0003383188    1.315    0.239
       201  -8.6084    218.9793     73.9912   5.8887188595e+01   2.0120796425e+01    0.2438103    0.1657062 -58.90 0.0007281558    1.663    0.399
       202  -7.8281    216.3029     71.2906   5.8576408231e+01   2.1194439213e+01    0.1464075    0.1153456  19.19 0.0002414978    1.569    0.363
       203  -9.3114    178.1486     68.8141   6.4497779032e+01   3.1144938817e+01     0.640722    0.2800066  57.99  0.002293515    2.355    0.575
       204 -10.1560    101.0495     68.9001   8.3583668902e+01   4.9065121399e+01    0.4179776    0.3259264 -44.51  0.001209462    1.251    0.201
       205  -9.7613     84.2153     67.7050   8.8487949897e+01   5.2360891172e+01    0.3302699    0.2656163  31.21   0.00114224    1.337    0.252
       206  -8.9142    238.0844     65.9555   5.4071817670e+01   1.6862298713e+01    0.2224973    0.1708325  15.09  0.001119768    1.717    0.418
       207  -8.5138    137.3606     59.3943   7.0390328054e+01   4.2899236455e+01    0.3170588    0.1778961  38.61  0.001140592    1.942    0.485
       208  -8.7560    133.5469     62.8339   7.2496481983e+01   4.3205196919e+01    0.4582534     0.203132  48.56  0.001499759    2.241    0.554
       209  -9.7729    128.7527     60.4177   7.2902932809e+01   4.4744389179e+01    0.5109005    0.2985621  63.38  0.001940991    2.194    0.544
       210  -8.4848     53.4738    224.4702   1.2306032857e+02   2.2111448147e+01    0.1132821   0.08497802  70.07 0.0002770241    1.008    0.008
       211  -8.9123    206.9828     61.0188   5.7205972635e+01   2.5089318204e+01    0.3003049    0.2024182 -33.11 0.0009245608    1.435    0.303
       212  -9.8514    179.2712     44.6830   5.6932367980e+01   3.4594769335e+01    0.5871297     0.302473 -29.95  0.001815544    1.960    0.490
       213 -10.4691    193.7289     54.4143   5.7434899531e+01   2.9445882058e+01     1.350873    0.7032407  39.06  0.005150827    2.430    0.589
       214  -9.4721    201.6507     48.3843   5.4455850988e+01   2.8302827965e+01    0.3652712    0.2485743  42.04  0.000714629    1.646    0.392
       215 -10.4568    191.9894     49.0773   5.6151664966e+01   3.0677202716e+01     1.323441    0.2994725  55.78  0.003855831    3.793    0.736
       216 -10.0017    172.5741     47.5428   5.9004856846e+01   3.5920408573e+01    0.4829023    0.3921189  65.99  0.002190252    1.236    0.191
       217 -10.4023    174.0386     57.3257   6.1785697513e+01   3.4061993312e+01    0.5492632    0.4524364  33.34  0.001747848    1.304    0.233
       218 -10.1789    177.4484     51.7655   5.9436342521e+01   3.4035986371e+01    0.3753484    0.3212727  16.54  0.001107824    1.316    0.240
       219 -11.0533    185.0307     55.9267   5.9354641223e+01   3.1450641463e+01     0.438027    0.3368429  54.98 0.0002955455    1.297    0.229
       220 -11.1258    183.3711     51.8541   5.8416998134e+01   3.2492766926e+01    0.4345003    0.3058319  57.34 0.0005160525    1.402    0.287
       221  -9.1481    212.0392     59.8112   5.6100834584e+01   2.4013497326e+01    0.2567537    0.2215066 -10.75 0.0006231124    1.282    0.220
       222  -9.3971    201.9500     58.5349   5.7297245993e+01   2.6732850125e+01    0.5544691      0.34795  -2.99  0.002198778    2.458    0.593
       223  -9.8457    221.7993     57.1500   5.3978820067e+01   2.2013221972e+01    0.4941163    0.4034315  -5.74  0.001831328    1.444    0.308
       224  -9.6366    243.8921     55.6250   5.0758414836e+01   1.7034540925e+01     0.495492    0.1949101 -38.74  0.001998189    2.165    0.538
       225 -11.4796    142.3787     44.0588   6.3944435428e+01   4.4114234327e+01    0.6368654    0.4769926  28.59  0.001401538    1.439    0.305
       226  -8.9919     41.3765    221.0897   1.2493632683e+02   2.4184462411e+01    0.1997019    0.1329364 -55.14  0.001316687    2.078    0.519
       227  -8.1229     13.1532     56.6837   1.1115062653e+02   6.2843341840e+01    0.2584331    0.1368303  22.63  0.001483661    2.328    0.570
       228  -9.8213    233.6035     55.1343   5.1893846966e+01   1.9482720791e+01    0.2794423    0.2735549 -47.94 0.0009566809    1.094    0.086
       229  -8.9279    211.4006     51.3860   5.3875171514e+01   2.5413581782e+01    0.4593708    0.2558799 -12.30  0.001767812    2.628    0.620
       230  -8.9400    126.9574     50.9789   7.0074599286e+01   4.6752136770e+01    0.2197451    0.2006281  14.30  0.000333434    1.070    0.065
       231  -8.7018     16.0453     50.7811   1.0848848147e+02   6.3895218507e+01    0.1870035    0.1019114 -27.68 0.0007356566    1.944    0.486
       232  -9.9184    223.8083     47.9830   5.1279864220e+01   2.2836189883e+01    0.5561332    0.2690754 -57.44  0.002134714    2.571    0.611
       233  -9.7582    219.8192     42.5924   5.0356769099e+01   2.4552517123e+01    0.3038253    0.2382381 -31.74  0.000538831    1.264    0.209
       234  -9.9851    207.0309     45.5155   5.2864993269e+01   2.7342210776e+01     0.395752    0.3237552 -39.58  0.001424619    1.183    0.155
       235 -10.0412    130.6435     41.6688   6.5814681804e+01   4.7320776534e+01    0.6007078    0.2438326 -26.01  0.002125803    2.742    0.635
       236  -8.2584    248.7000     44.6579   4.7532564056e+01   1.7458902620e+01    0.1305604    0.1049732  17.17 0.0002576799    1.672    0.402
       237 -10.3162    227.0210     29.0195   4.5957487223e+01   2.4551951297e+01    0.5525765    0.3783632 -55.53  0.002181883    1.394    0.283
       238  -8.9134     34.0327    219.2207   1.2608747085e+02   2.5366461044e+01    0.1393014    0.1259415 -24.31 0.0008096306    2.005    0.501
       239  -9.4944     27.0069    212.6783   1.2689160428e+02   2.7367664167e+01    0.1573678    0.1142631  66.56 0.0008455935    1.103    0.093
       240  -9.1799     13.6488    211.7206   1.2914322984e+02   2.8905877723e+01    0.2334362    0.1020724 -89.74  0.001370672    1.950    0.487
       241  -9.3179    244.1831    204.4422   8.4465850739e+01  -5.3234137061e+00    0.2027942    0.1433242  -7.43 0.0002997185    1.313    0.238
       242  -9.3508    234.0100    200.1800   8.5443620072e+01  -3.1183209234e+00    0.2626944     0.160475 -24.85  0.001449416    1.645    0.392
       243 -11.0295    216.8864     36.3887   4.9061587202e+01   2.6101039157e+01     0.926158    0.6773294  36.11  0.004102348    1.675    0.403
       244 -10.6253    211.8622     30.1005   4.7974871356e+01   2.8155008980e+01    0.8094198    0.4901786  33.85  0.003565953    2.285    0.562
       245  -8.7976    230.9909    197.5226   8.5480128374e+01  -2.2534884303e+00    0.1720695    0.1149264  45.29 0.0004529933    1.614    0.380
       246  -8.4336    169.4939    200.5006   9.7683056484e+01   8.2470785588e+00    0.1340501    0.1180254  42.89 0.0008099375    1.060    0.057
       247  -7.8718     93.3314    200.3189   1.1315085891e+02   2.1288732399e+01    0.1141885    0.1016133 -13.56  0.000704819    1.691    0.409
       248  -8.9408    235.7763     39.2869   4.7609749034e+01   2.1148798215e+01     0.227623     0.185496 -38.27 0.0006430369    1.161    0.139
       249  -9.0321    191.1657     39.8309   5.3551025839e+01   3.2180313196e+01    0.2858644    0.2015287  -3.38 0.0006043084    1.829    0.453
       250 -10.6704    193.0096     32.5403   5.1134149072e+01   3.2655633715e+01    0.5197959    0.3927982  -0.72  0.002587915    1.648    0.393
       251 -10.3891    180.9366     37.7527   5.4523773350e+01   3.5111968478e+01    0.5552011    0.4312395 -27.02  0.002824617    1.334    0.250
       252  -9.4688    173.5946     39.1831   5.6190551611e+01   3.6829812501e+01     0.375148    0.2731735  55.42   0.00183321    1.326    0.246
       253  -9.2075    198.0199     37.3919   5.1833744923e+01   3.0738895932e+01    0.2208178    0.2050394   5.79 0.0005082319    1.210    0.174
       254  -9.2154    124.0348     35.6213   6.5193624764e+01   4.9748654854e+01    0.2970539    0.2331708  27.50  0.001064767    1.277    0.217
       255 -10.1267    245.9354     33.4470   4.5108724967e+01   1.9549239331e+01    0.5093028    0.2375317  64.26  0.001623383    2.194    0.544
       256  -9.0076    239.0429     15.1006   4.1333135277e+01   2.3345428894e+01    0.2588263    0.1495976 -45.94 0.0004241387    1.537    0.349
       257 -10.5875    246.6454     18.8270   4.1562472468e+01   2.1168814430e+01    0.8233737     0.240628  69.74   0.00310522    3.360    0.702
       258  -9.2109     27.5688    193.8957   1.2551508730e+02   3.1019426394e+01    0.2210444    0.1421674 -89.68   0.00147332    1.251    0.201
       259  -9.2429    242.4204     24.7301   4.3345077316e+01   2.1435620091e+01     0.377722    0.1548906 -37.33  0.001555248    2.087    0.521
       260  -9.3558    202.6618     34.8576   5.0469226982e+01   2.9881109734e+01    0.2432959    0.1864389  60.15  0.000569394    1.296    0.228
       261  -9.5699     33.0164    191.4930   1.2429114578e+02   3.0937602923e+01    0.2327517    0.1055344 -58.41  0.001137451    2.401    0.583
       262  -9.0929    135.4095     30.4620   6.0636003028e+01   4.7702221131e+01    0.2653223    0.1963338  56.60 6.016385e-06    1.312    0.238
       263  -9.4800    127.1866     39.7881   6.5967549236e+01   4.8416001529e+01    0.3975264    0.2551167  22.71  0.001742283    1.911    0.477
       264  -9.6619    172.7804     31.5346   5.3910142622e+01   3.8038771902e+01    0.4816243    0.2770032  36.29  0.002020357    2.083    0.520
       265  -9.5079     11.4401    192.2137   1.2840931630e+02   3.2935681298e+01    0.1957299    0.1365061  53.35  0.001430562    1.367    0.269
       266 -10.5415    167.6765     24.2593   5.2413457971e+01   4.0245350470e+01    0.6502229     0.250623  49.50  0.001998183    2.492    0.599
       267  -8.7631    215.8265    189.4045   8.6693291342e+01   1.5553906993e+00    0.1922017    0.1113268  30.99 0.0008352319    1.651    0.394
       268  -9.8456    185.1561     23.7305   4.9625514574e+01   3.5759842249e+01     0.523724    0.2413612 -45.73  0.002104723    2.285    0.562
       269  -9.3218    188.8519     19.7603   4.7943761740e+01   3.5254765347e+01    0.3646403     0.241396  63.45  0.001091034    1.418    0.295
       270  -9.4865    156.1665     31.7411   5.6885314537e+01   4.2314717029e+01    0.3205976    0.2757945 -26.27  0.001724921    1.205    0.170
       271  -9.4549      1.4806    187.8405   1.2997670096e+02   3.4693031014e+01    0.2516765    0.0796285 -77.04  0.001280299    2.467    0.595
       272  -8.6841    198.5397     32.0102   5.0214542192e+01   3.1298728274e+01    0.2106412    0.1396146 -29.95 0.0005197243    1.530    0.346
       273  -8.8253    244.9387    187.4908   8.1102770527e+01  -3.2274752233e+00    0.1803042    0.1152237  36.20 0.0004215191    1.490    0.329
       274  -9.0509    153.5461     23.6921   5.4630833358e+01   4.3961125736e+01    0.6875479     0.422346 -65.94  0.002884444    2.289    0.563
       275  -9.6868      6.1938    185.6778   1.2898352566e+02   3.4729260777e+01    0.1552531    0.1361013  51.45 0.0006230266    1.451    0.311
       276  -9.4107     11.5914    184.6119   1.2790238095e+02   3.4470613485e+01    0.1781932    0.1449397 -57.08 0.0005946943    1.634    0.388
       277  -9.1207     32.0025    184.0000   1.2388644853e+02   3.2606308350e+01    0.1464506    0.1099204  85.39 0.0005267389    1.038    0.037
       278  -8.6496     18.1500    182.4120   1.2649229836e+02   3.4321625339e+01    0.1546028   0.08038969  53.15 0.0006882912    1.718    0.418
       279 -10.3299      1.7062    178.6739   1.2940812942e+02   3.6544061501e+01    0.3982717     0.120664 -80.69  0.001900186    2.670    0.625
       280  -9.9099    248.9893     25.6962   4.2972879979e+01   1.9819760633e+01    0.3183098    0.2400812  45.25  0.001459876    1.649    0.394
       281  -9.4109    136.1598     25.5671   5.8684314463e+01   4.8122804402e+01    0.2762728    0.1987618  -3.06 0.0008894644    1.563    0.360
       282  -8.4679    140.7372     23.3684   5.6945850735e+01   4.7244020020e+01    0.2007796    0.1205838  50.45 0.0004797282    1.532    0.347
       283  -8.1404    190.7042    178.7219   8.9455664554e+01   7.9692306375e+00    0.1385813    0.1030153  10.91 0.0001940144    1.532    0.347
       284  -9.2411     79.8336    177.1964   1.1309783763e+02   2.8111612484e+01    0.2620522    0.1664083 -56.49  0.001156354    1.638    0.390
       285  -8.9989      7.4085    174.7991   1.2806426266e+02   3.6877247092e+01    0.2104291    0.1313006 -77.37  0.001129061    1.313    0.238
       286  -9.2830    198.6350     16.4508   4.5773907096e+01   3.3105507591e+01     0.295002    0.1887369  50.16  0.001057289    1.626    0.385
       287  -8.3856     85.3659     16.0082   6.7819222030e+01   6.0640303088e+01    0.2983716    0.1716745  56.76  0.001449492    2.041    0.510
       288  -8.7458     36.7745    179.5410   1.2253804509e+02   3.3043403547e+01    0.1643417   0.08943026  53.40  0.000939898    1.682    0.406
       289  -8.7242    245.6841    171.3197   7.7706376498e+01  -1.0976598293e+00    0.1191703    0.1067105 -60.73 0.0007040148    1.656    0.396
       290  -9.0321    176.9643     14.6321   4.7991398528e+01   3.8890671513e+01      0.29957     0.127596  68.90  0.001181442    2.222    0.550
       291  -9.1593     67.5154     13.0228   7.2407132127e+01   6.4299599023e+01    0.2025091    0.1802123  51.11  0.001304432    1.503    0.335
       292  -9.2920     33.4342    169.7569   1.2233801736e+02   3.5516377499e+01    0.2179589    0.1444901  -9.60  0.001088082    3.510    0.715
       293 -10.1278     18.2029    165.8154   1.2521060375e+02   3.7854816741e+01    0.3564593    0.1838769 -66.01  0.002084844    1.697    0.411
       294  -9.9808     32.8278    165.5699   1.2206962080e+02   3.6499908791e+01    0.1907792    0.1207577  26.47  0.001117249    2.100    0.524
       295  -9.5998     11.0174    164.8931   1.2663495428e+02   3.8682113526e+01    0.2528411    0.1354922  46.61  0.001559192    1.836    0.455
       296  -9.6845      2.7026    160.8965   1.2806219627e+02   4.0213189833e+01    0.2714368    0.1654785 -74.77  0.001062085    1.324    0.245
       297  -9.3013      3.1062    156.9150   1.2769384260e+02   4.1042087131e+01    0.2727694     0.158419  47.20  0.001776483    1.750    0.429
       298  -9.7241     22.8346    158.9153   1.2361980149e+02   3.8947531452e+01    0.2040179    0.1546262  58.46 0.0004414476    1.307    0.235
       299  -9.6876     18.7208    159.3539   1.2455446173e+02   3.9223493407e+01    0.2184585    0.1653212  70.33 0.0009033627    1.191    0.160
       300 -11.4024     13.1834    151.0458   1.2504363842e+02   4.1537014326e+01    0.6854306    0.3393884  89.06  0.003752091    1.798    0.444
       301 -10.4071      3.9452    136.9174   1.2590473960e+02   4.5390593839e+01    0.7147205    0.2320123 -58.29  0.002687714    2.623    0.619
       302  -9.1879      8.0702    151.1640   1.2618275573e+02   4.1919107204e+01    0.3588919    0.1290377 -73.32 0.0006105669    2.111    0.526
       303 -10.3657      5.3403    147.0819   1.2645107762e+02   4.3028415990e+01    0.2970234    0.2236826  37.17  0.001627358    1.623    0.384
