#   1 NUMBER                 Running object number                                     
#   2 MAG_AUTO               Kron-like elliptical aperture magnitude                    [mag]
#   3 X_IMAGE                Object position along x                                    [pixel]
#   4 Y_IMAGE                Object position along y                                    [pixel]
#   5 X_WORLD                Barycenter position along world x axis                     [deg]
#   6 Y_WORLD                Barycenter position along world y axis                     [deg]
#   7 A_WORLD                Profile RMS along major axis (world units)                 [deg]
#   8 B_WORLD                Profile RMS along minor axis (world units)                 [deg]
#   9 THETA_WORLD            Position angle (CCW/world-x)                               [deg]
#  10 FWHM_WORLD             FWHM assuming a gaussian core                              [deg]
#  11 ELONGATION             A_IMAGE/B_IMAGE                                           
#  12 ELLIPTICITY            1 - B_IMAGE/A_IMAGE                                       
         1 -12.4015     59.0514     59.0962   7.7022697328e+01   5.8516567642e+01     1.660287      1.24254  24.34  0.009340048    1.295    0.228
         2 -13.6705    154.8378     48.1101   4.6782224127e+01   4.0118177937e+01      3.56088     1.865346  82.06   0.01300122    2.858    0.650
         3 -13.7881     54.7712     84.5341   8.6654078557e+01   5.3978673408e+01     3.480648     2.331703 -27.11   0.01730446    1.575    0.365
         4 -12.6858    138.6596     54.7933   5.1853685752e+01   4.2970848275e+01     1.359794    0.8073916 -54.90  0.003905375    2.024    0.506
         5 -13.6745    109.8964     64.4688   6.1865929870e+01   4.7967621814e+01     3.879755     1.967124  29.83   0.01278794    2.922    0.658
         6  99.0000     60.0285     34.9619   6.7587863872e+01   6.2306998449e+01     3.392293      2.02599  27.29   0.01784279    1.636    0.389
         7 -14.4095    136.0723     73.4121   5.7921482880e+01   4.0556508907e+01     4.222862     1.194814  44.99  0.006028994    3.834    0.739
         8 -12.2999      4.2098     35.0355   9.4038225293e+01   6.9000981481e+01    0.9908899    0.6816674 -53.04 0.0009073038    1.491    0.329
         9 -12.2573     41.8517     56.4105   8.3198734827e+01   6.1426727691e+01      1.26747     0.461767 -37.10  0.004961631    2.862    0.651
        10 -12.9194     97.3728     44.5688   5.8729289196e+01   5.3766647671e+01     1.647268     1.256832 -87.15   0.00840943    1.998    0.500
        11 -11.4195     29.5417     61.5226   9.0262044568e+01   6.1820547005e+01     1.673695    0.7836031 -39.77  0.007979635    1.903    0.474
        12  -9.8632     38.1917     21.7724   7.1198645895e+01   6.7539442620e+01    0.4332393    0.4017026  44.89  0.002818574    1.588    0.370
        13 -10.2331     44.6411     18.4889   6.6828323418e+01   6.7000018848e+01    0.3704538    0.3046432 -22.61  0.001756838    1.319    0.242
        14  -9.4413    107.6581     25.7025   4.9422723885e+01   5.3902467561e+01    0.2438748    0.2108935 -24.84  0.001516974    1.296    0.228
        15 -11.2344     82.5610     31.0069   5.8170349196e+01   5.8642238006e+01    0.8070734    0.5764166  12.72  0.004488475    1.546    0.353
        16 -12.4618    246.4138      5.5993   2.7184479827e+01   2.5329971653e+01    0.9266979    0.5808077 -88.21  0.006401598    1.368    0.269
        17  -9.5052     75.3335     17.6020   5.5104919494e+01   6.1626958909e+01    0.3215925    0.2134041  -1.58  0.001295394    1.736    0.424
        18 -12.0114     82.0518     55.0623   6.7210076672e+01   5.5241243999e+01    0.9433094    0.5220571 -43.05  0.003996317    1.941    0.485
        19  -9.6057    215.6312    250.0745   7.9142703641e+01  -7.9741625905e+00    0.2458116    0.1947063  43.75  0.001601283    1.814    0.449
        20  -8.9744    206.5196    250.5046   8.0929564779e+01  -6.8864266363e+00    0.1223245   0.09669098   4.09 0.0003956335    1.001    0.001
        21  -9.5235    193.4889    250.4701   8.3445451379e+01  -5.1753423343e+00     0.264639      0.10521  31.56  0.001227121    2.235    0.553
        22  -9.8533    188.0566    249.4854   8.4366568001e+01  -4.2921558383e+00    0.3314331    0.1964989  21.22  0.001584274    1.538    0.350
        23 -10.2572    153.3877    249.8127   9.1501961039e+01   5.4970687144e-01    0.5024843    0.1325521  29.74  0.001574498    4.414    0.773
        24  -9.0615    236.9485    146.5261   5.6303206358e+01   6.0403259553e+00     0.175601     0.132135  39.35 0.0006487738    1.556    0.357
        25  -8.7717     29.3663    144.1754   1.0756212350e+02   4.2177947299e+01    0.2039838    0.1181545 -81.88 0.0009488412    1.746    0.427
        26  -9.2732      1.3112    143.2239   1.1566949729e+02   4.4604442583e+01    0.1870044   0.09929005 -85.41 0.0006790845    1.716    0.417
        27  -8.5008     48.8157    140.6556   1.0108365083e+02   4.1027585702e+01    0.3540283   0.06736289 -57.79  0.001031159    3.781    0.736
        28  -9.1127     15.9227    137.3301   1.1071362619e+02   4.5069531229e+01    0.2886108    0.1657922  89.45  0.001021559    1.852    0.460
        29  -8.8001     26.9538    137.5091   1.0736202313e+02   4.4105307090e+01    0.1853602    0.1384443  19.31  0.000645961    1.559    0.358
        30  -8.0658     24.5363    134.4963   1.0768232343e+02   4.5086779995e+01    0.1366351     0.118439 -71.24  0.000133578    1.017    0.017
        31  -8.7506     61.8286    132.8557   9.5572419280e+01   4.1386488665e+01    0.1980779    0.1690075  77.34 0.0002417042    1.300    0.230
        32  -9.3299     30.6067    133.1925   1.0558150614e+02   4.4871906580e+01    0.2045339       0.1066 -56.69 0.0004757869    1.643    0.391
        33 -10.1020      8.9299    131.3932   1.1211152667e+02   4.7067846197e+01    0.2615958    0.2028198 -68.42 0.0002595053    1.074    0.069
        34  -8.3843     43.6371    132.2899   1.0128140387e+02   4.3769283446e+01    0.1460949    0.1029416  64.76  0.000702603    1.698    0.411
        35  -9.6252     83.3830    129.7281   8.8129157136e+01   3.8958622756e+01    0.2490301    0.2260629  82.54 0.0004066513    1.205    0.170
        36  -9.6453     73.8517    130.1620   9.1207744811e+01   4.0348513221e+01    0.2205178    0.1992849  82.46 0.0004009738    1.202    0.168
        37 -10.8677     24.6916    129.2638   1.0686747858e+02   4.6403172943e+01    0.2914948    0.2669455 -53.89 0.0003936712    1.089    0.082
        38  -9.5704      3.7060    124.9134   1.1294712353e+02   4.9014011017e+01    0.2940799    0.1831013 -72.73  0.001039493    1.337    0.252
        39  -9.5621     10.7339    120.3211   1.1009381408e+02   4.9713576489e+01    0.3238789    0.1817699 -36.54  0.001623617    1.904    0.475
        40 -10.2171     67.3309    123.8380   9.1936877395e+01   4.2900789560e+01    0.2551226    0.2054025  45.88 0.0009087902    1.342    0.255
        41 -10.5544     43.4261    122.2540   9.9529365184e+01   4.6345929679e+01    0.4303386    0.2754185 -68.53 0.0008965677    1.512    0.339
        42  -9.8902     43.6625    115.8104   9.8192661380e+01   4.7937198327e+01     0.485422    0.2634604  29.20  0.002221564    1.984    0.496
        43  -9.6542     47.2751    111.1900   9.5979090069e+01   4.8670017970e+01    0.2757654    0.2149343 -34.04 0.0005924737    1.274    0.215
        44  -9.2683     34.3459    122.3812   1.0258940461e+02   4.7260703523e+01    0.2471264    0.2163211 -64.55  0.001453945    1.038    0.037
        45 -11.0901     76.8443    120.5785   8.8117819474e+01   4.2276598233e+01    0.4689719    0.4024053  69.94  0.001688255    1.351    0.260
        46 -10.1601     94.5189    119.9092   8.2385473122e+01   3.9457148253e+01     0.274339    0.2448506  36.40 0.0001756503    1.151    0.131
        47  -9.1985      2.8660    118.7915   1.1245447123e+02   5.0576640841e+01     0.250545    0.1787212  73.80 0.0007303197    1.550    0.355
        48 -10.4025      3.2875    114.9421   1.1181500985e+02   5.1499609780e+01     0.488507    0.2664389 -47.76 0.0006677364    1.629    0.386
        49 -10.0589     81.5175    115.6914   8.5446257734e+01   4.2715371133e+01     0.266743    0.2346757  40.07 0.0006926028    1.190    0.160
        50 -13.9676     79.3758     99.7286   8.2050664516e+01   4.6826703273e+01     3.389889     1.740053  16.89   0.01145787    3.391    0.705
        51  -8.5930     22.4981    112.5508   1.0491659492e+02   5.0779810796e+01    0.1358333     0.115672 -54.64 0.0001019147    1.023    0.022
        52 -10.3723    164.3738    248.8957   8.9083615203e+01  -8.8150478899e-01    0.2677384    0.1706105  23.99  0.001491481    1.406    0.289
        53 -13.6039    113.7304     98.5519   7.1014473168e+01   4.0591198348e+01     2.277011     1.912901  49.61  0.007891407    1.220    0.180
        54  -9.3257    139.4950    249.0509   9.4327734242e+01   2.7096633737e+00    0.1781126    0.1284047 -49.26 0.0006607102    1.604    0.376
        55  -9.4795    221.4542    239.6726   7.6381831637e+01  -7.1991552116e+00    0.2154143    0.1786141  41.00   0.00142602    1.692    0.409
        56 -10.3699    128.0600    108.5020   6.9779546879e+01   3.5435630868e+01    0.3032699    0.2322046  64.73  0.001295629    1.526    0.345
        57 -10.1168     89.7591    107.9125   8.0831864620e+01   4.3144390662e+01    0.2755242    0.2183309  41.41 0.0004052501    1.306    0.234
        58 -11.3504     72.0130     88.5169   8.1463308262e+01   5.0542576693e+01    0.7213278    0.5062176  45.88  0.003543948    1.592    0.372
        59  -9.1622      3.8603    107.5725   1.1059810823e+02   5.3267387355e+01    0.2685848    0.0895465  29.69  0.001125428    3.240    0.691
        60 -12.6215     83.4964     76.5811   7.3887148241e+01   5.1052420813e+01      1.80029     0.982524 -35.96  0.007796001    1.913    0.477
        61  -9.2313     36.5804    104.6086   9.8390962171e+01   5.1450198327e+01    0.3215491    0.1911878 -24.86  0.001480814    2.028    0.507
        62  -9.0871      8.2084    103.3318   1.0842262244e+02   5.4043955465e+01    0.3296271    0.1506456 -62.93  0.001576927    1.736    0.424
        63  -8.9719    144.9504    102.6134   6.3947997553e+01   3.2991644407e+01    0.3068486    0.2149268 -26.96 0.0007944044    1.676    0.403
        64 -10.4449      1.9771    101.0663   1.1029886482e+02   5.4937822762e+01    0.4613816    0.1827734 -62.79  0.002141631    1.911    0.477
        65 -11.5107     95.8798     58.9030   6.4110879795e+01   5.1864580689e+01    0.9049777    0.6204442  55.28  0.002046485    1.574    0.365
        66 -10.1149     34.1628     99.2454   9.8131467663e+01   5.2985419258e+01    0.2524647    0.2170857 -78.80 0.0002209725    1.280    0.219
        67  -9.1264    245.0000    242.9683   7.2719786579e+01  -1.0465567379e+01    0.1801301   0.05587967 -38.18 0.0008053016    2.962    0.662
        68  -9.4017     11.5769     97.9376   1.0628904393e+02   5.5130972829e+01    0.4263932    0.2009983  25.47  0.001600542    2.369    0.578
        69  -9.8372     41.2083     97.9455   9.5215901906e+01   5.2562553577e+01    0.1952848    0.1749797 -72.68 0.0002875426    1.214    0.177
        70  -8.5130     29.8435    103.2015   1.0055388522e+02   5.2441713177e+01    0.1988851    0.1370958 -40.88 0.0007528615    1.339    0.253
        71  -8.3432     21.9613     97.0000   1.0223211615e+02   5.4607867317e+01    0.1945201   0.07613551  19.27 0.0007960498    2.898    0.655
        72  -8.7012     15.0475    105.1273   1.0627243758e+02   5.3163789675e+01    0.2811062    0.1757021  -7.96  0.001463993    1.952    0.488
        73  -9.2329     19.6929     94.0432   1.0249970878e+02   5.5487376242e+01    0.2885565    0.1638933 -37.96 0.0006151167    1.661    0.398
        74  -8.8648     23.7715     89.9445   1.0006621616e+02   5.6125714766e+01    0.3611987    0.2414358 -22.47  0.001951852    1.580    0.367
        75 -10.0398    134.9706     93.4839   6.3908687556e+01   3.7052654852e+01    0.2321002    0.1483564  46.57 0.0005937219    1.560    0.359
        76  -7.6328    178.6694     92.2942   5.4117074612e+01   2.7414714814e+01    0.1494727     0.110401 -77.56 0.0006961595    1.633    0.388
        77 -10.3391    139.7784     83.1675   5.9849119719e+01   3.7951579861e+01    0.3303226    0.2635203  71.02 0.0007376074    1.380    0.275
        78 -10.1521    192.1814    233.6163   8.1024323581e+01  -2.3355154860e+00    0.2769975    0.1902599 -48.58  0.001563924    1.772    0.436
        79  -8.5147     14.7224     86.0302   1.0279843317e+02   5.7721959558e+01    0.3668194    0.2729163  35.11  0.002184196    1.601    0.376
        80  -9.8905    161.0106     84.0260   5.5426717046e+01   3.2919622390e+01    0.2284837    0.2215198 -89.81  0.001111796    1.023    0.023
        81 -11.9453    175.9286    238.7916   8.5164466688e+01  -8.6080096090e-01    0.7162371    0.4566933  44.60  0.003260232    1.756    0.430
        82  -7.5285      5.4966     81.5045   1.0558377287e+02   5.9333124593e+01    0.1740255    0.1100121 -14.41 0.0007397024    1.716    0.417
        83  -8.7125      9.0023     79.7968   1.0380962966e+02   5.9518093698e+01    0.2487289    0.1457205  22.71  0.001063622    1.932    0.482
        84 -12.2110    167.9472     67.1650   4.9619578275e+01   3.4180094937e+01    0.8561112    0.5565543 -16.09  0.003803296    2.311    0.567
        85 -11.7421    177.7937     67.9316   4.8114186466e+01   3.1780269868e+01    0.6698296    0.3675563  80.08 0.0003061326    2.588    0.614
        86 -10.9370    174.5171     72.2144   4.9772254062e+01   3.1840417036e+01    0.5694177    0.3519487 -59.72  0.002455296    1.816    0.449
        87 -11.2600     87.6759     47.5936   6.2724252827e+01   5.5323685867e+01    0.6352197    0.4313986  44.28  0.002746256    1.377    0.274
        88  -8.4066      1.7668     80.5958   1.0691695168e+02   5.9735337313e+01    0.1501499    0.1139279  25.85 0.0004338471    1.578    0.366
        89 -10.0492     15.9150     75.8113   1.0004965394e+02   5.9953196437e+01    0.5120975     0.234668  29.15  0.002467553    2.415    0.586
        90 -11.7488    171.6865     77.1378   5.1551519860e+01   3.1668427714e+01    0.8023622    0.4382986  65.68 0.0008636637    2.038    0.509
        91  -8.9065      8.4503     71.2589   1.0217426459e+02   6.1453941211e+01    0.1670421    0.1118402 -72.66 0.0009414511    1.633    0.388
        92 -10.1985     18.1323     66.5092   9.6760494782e+01   6.1807010278e+01    0.4420139    0.2878053 -55.17 0.0008438546    1.397    0.284
        93 -10.9391     11.6310     67.4184   9.9869996998e+01   6.2084631711e+01    0.3687238    0.2507523 -42.15  0.000508192    1.196    0.164
        94  -9.1836     44.2601     69.1432   8.6298139178e+01   5.8616513237e+01     0.307902    0.1900931  -6.69  0.001461409    2.034    0.508
        95  -9.7047    219.5695    218.5074   7.3129071381e+01  -3.7012489412e+00    0.2354188    0.1156404  32.60 0.0005896116    2.031    0.508
        96  -8.7079     96.2900    115.3716   8.0710027758e+01   4.0216636017e+01    0.1620253    0.1178944 -19.83 0.0007022946    1.719    0.418
        97  -9.9713     13.0520    113.7672   1.0836399610e+02   5.1182407793e+01    0.4965621    0.1759166 -56.36  0.002109542    2.151    0.535
        98 -11.8804    191.9909     59.0066   4.3704632946e+01   2.9925580597e+01    0.3929037    0.3054735  63.68  0.001963149    1.293    0.226
        99  -9.8186     90.8526    113.0350   8.1807663331e+01   4.1749578215e+01    0.2762022    0.1960484   1.61 0.0008885812    1.951    0.487
       100  -9.4456      5.6899     51.4114   9.8388229458e+01   6.5785519613e+01    0.3517311    0.2142595 -10.18  0.002071977    1.641    0.391
       101  -9.9639      4.7471     56.4459   1.0021222694e+02   6.4820944652e+01    0.4593068    0.2860138  17.10  0.002210692    1.754    0.430
       102  -8.8367      1.5030     52.5029   1.0071950893e+02   6.5806369041e+01    0.1690269   0.08688966 -47.63 0.0005495667    1.499    0.333
       103 -11.3606    175.3483     55.3737   4.5294660974e+01   3.4266205840e+01    0.3707755    0.2975492   5.82  0.001843665    1.802    0.445
       104 -10.1321    179.8807    217.6580   8.0860687773e+01   2.2465573791e+00    0.2459542    0.1782789 -25.77  0.001350497    1.387    0.279
       105 -10.1277    212.6293    216.3468   7.4057771194e+01  -2.3861973866e+00    0.2188049    0.1839069  11.97 0.0004907973    1.133    0.118
       106  -8.3283     32.9130    112.5619   1.0128795698e+02   4.9858072739e+01    0.1805995    0.1370248  17.07 0.0004251312    1.485    0.326
       107 -12.0285     34.2601     71.4414   9.1152073688e+01   5.9280770622e+01    0.6973056    0.5157647  -0.21 0.0005782227    1.391    0.281
       108 -11.3906    184.8893     49.0940   4.2288828003e+01   3.2964989626e+01    0.3630761    0.2042546 -61.32  0.001702742    1.978    0.495
       109  -8.5531    219.5050    209.9847   7.1621950835e+01  -2.3036207237e+00     0.161759    0.1117214 -60.23 0.0008089625    2.441    0.590
       110 -10.4562    186.3762     44.3733   4.0924357288e+01   3.3272419912e+01    0.2502413    0.2035031 -77.96 0.0006155656    1.132    0.116
       111  -9.2198     24.0540     43.8361   8.6966439977e+01   6.5757139022e+01     0.212813    0.2051623 -12.63 0.0006680141    1.351    0.260
       112  -9.9498     25.1631     38.5854   8.4492691646e+01   6.6570323972e+01    0.2656868    0.1951886 -14.72 0.0005671776    1.168    0.144
       113 -10.5672     30.5862     37.3288   8.1369282114e+01   6.6180903584e+01    0.2674347    0.2293899  23.53 0.0008813788    1.336    0.252
       114  -8.8506     30.0999     42.8778   8.3714309230e+01   6.5287394879e+01    0.2619074     0.149169  16.21 0.0007670002    1.791    0.442
       115  -8.7710    114.8144     40.2081   5.2647560319e+01   5.0532338439e+01    0.2165866    0.1969935  36.56 0.0007780479    1.066    0.062
       116 -10.5370    111.5787     35.7174   5.1922106146e+01   5.1840161846e+01    0.6198887    0.4847017  -2.28  0.002892038    1.516    0.340
       117  -9.6138     13.6660     38.8942   9.0405012366e+01   6.7597889487e+01    0.2842822    0.1489753  18.29 0.0005973019    1.919    0.479
       118 -10.1136    164.6466     35.8278   4.1820508712e+01   3.9421866218e+01    0.4722976    0.1616315  60.54  0.001873699    2.547    0.607
       119  -8.4470    202.4094    208.7910   7.4689169357e+01   3.8761619932e-01    0.1912485    0.1122715 -29.61 0.0008379509    1.678    0.404
       120  -8.5157    120.6679     32.0160   4.8618081418e+01   5.0220605273e+01    0.1780405    0.1706776  35.47 0.0005946815    1.096    0.088
       121  -9.8307    155.4951     30.4157   4.1745092970e+01   4.2233015954e+01    0.2802306    0.2232821 -62.13  0.001221975    1.289    0.224
       122  -8.2681     37.1546     15.8551   6.8957456603e+01   6.8453373531e+01    0.1658446    0.1512664   6.83  0.001193494    1.329    0.247
       123  -8.5332     33.3049     19.6753   7.2548508902e+01   6.8499762723e+01    0.1714942    0.1469472  -5.68 0.0005264615    1.191    0.160
       124  -8.8021     41.7231     27.3449   7.2046672956e+01   6.6264855693e+01    0.2161244    0.1604213 -56.19 0.0008295333    2.235    0.553
       125  -9.0191    229.5187    203.4585   6.8603703138e+01  -2.6271745091e+00    0.1279655    0.1058377 -14.20 0.0001507877    1.023    0.022
       126  -9.7521     20.4286    173.7218   1.1349275295e+02   3.5514646327e+01    0.2549889    0.1153482 -78.82 0.0008598721    2.038    0.509
       127  -8.2752     48.7073     15.7144   6.3846623764e+01   6.6680614842e+01    0.2443835    0.1443278  22.80 0.0004995123    1.637    0.389
       128 -10.9715      7.5892    166.8208   1.1616764495e+02   3.8304280335e+01    0.3906467     0.317917  -9.31  0.002439128    1.634    0.388
       129  -9.1739    102.4994     24.8293   5.0353249088e+01   5.5145709593e+01    0.2410021    0.1887272  31.82 0.0005598997    1.251    0.200
       130  -8.1225     99.4086     22.4591   5.0266469973e+01   5.6081623199e+01    0.1287651    0.1124815  42.67 6.988045e-05    1.014    0.014
       131 -10.2251      5.2934    159.0510   1.1607460076e+02   4.0399747233e+01    0.3929684    0.2303062 -48.79  0.001396222    1.782    0.439
       132  -8.8614     84.4894     18.5384   5.2757558429e+01   5.9673716159e+01    0.1918893    0.1566553   5.12 0.0008519063    1.278    0.217
       133  -8.9240     77.8387     22.2900   5.6221588840e+01   6.0620834969e+01    0.2437014    0.1621836  34.41  0.001377995    1.350    0.259
       134  -8.0694     98.7216     26.6849   5.1970343335e+01   5.5766244776e+01    0.1326349   0.09099832  26.80 0.0001988701    1.570    0.363
       135  -9.6854     31.5573    155.7358   1.0845401041e+02   3.9005660041e+01    0.2832576    0.1720985  19.02  0.001391465    1.981    0.495
       136  -8.0137     23.9808    153.4869   1.1033599884e+02   4.0292879777e+01    0.1893525   0.08944619  51.37 0.0007683259    2.393    0.582
       137  -9.0035     91.5130     17.4571   5.0429246841e+01   5.8306163989e+01     0.229508    0.1264217 -23.71 0.0008240454    2.059    0.514
