#   1 NUMBER                 Running object number                                     
#   2 MAG_AUTO               Kron-like elliptical aperture magnitude                    [mag]
#   3 X_IMAGE                Object position along x                                    [pixel]
#   4 Y_IMAGE                Object position along y                                    [pixel]
#   5 X_WORLD                Barycenter position along world x axis                     [deg]
#   6 Y_WORLD                Barycenter position along world y axis                     [deg]
#   7 A_WORLD                Profile RMS along major axis (world units)                 [deg]
#   8 B_WORLD                Profile RMS along minor axis (world units)                 [deg]
#   9 THETA_WORLD            Position angle (CCW/world-x)                               [deg]
#  10 FWHM_WORLD             FWHM assuming a gaussian core                              [deg]
#  11 ELONGATION             A_IMAGE/B_IMAGE                                           
#  12 ELLIPTICITY            1 - B_IMAGE/A_IMAGE                                       
         1 -14.8373    159.4468     41.9479   2.9028152880e+02   6.3180738440e+00   0.06131756   0.04646749 -58.45  0.004183737    1.300    0.231
         2 -14.5235    171.8712      8.7235   2.8993325911e+02   6.6218715530e+00   0.05256924   0.04663387 -38.07  0.003991857    1.141    0.123
         3 -11.6447    189.9724     14.5487   2.8976227152e+02   6.4462125415e+00   0.01056393  0.008934474 -60.46 0.0007115858    1.175    0.149
         4 -12.0430    168.0564    243.9630   2.9143124496e+02   3.9597984998e+00  0.009899002  0.009713363 -36.50 0.0003737151    1.011    0.011
         5 -13.5418    198.7637    246.6019   2.9109699036e+02   3.7450080104e+00   0.03715753   0.01661602  50.07  0.002929637    2.868    0.651
         6 -19.6911     87.1921    234.6339   2.9229761671e+02   4.5519152391e+00    0.4097743    0.3772775  89.93   0.04413187    1.143    0.125
         7 -11.8330    140.7146    199.6663   2.9147067567e+02   4.6301652178e+00   0.01467403   0.01080096  -3.49 0.0005537281    1.636    0.389
         8 -12.2658    136.4941    197.2403   2.9150396026e+02   4.6832489390e+00   0.02526939   0.01473028  61.53  0.002246047    2.392    0.582
         9 -14.5357    167.0176    191.0520   2.9111698768e+02   4.5703944663e+00   0.03765527   0.03253481 -89.24  0.004475103    1.261    0.207
        10 -13.5075    174.8210    193.3769   2.9104218013e+02   4.4968865108e+00    0.0293571   0.01768342 -76.94  0.002101719    2.029    0.507
        11 -13.0438    179.8716    192.4157   2.9097855525e+02   4.4774692048e+00   0.02162735   0.01615758 -82.96  0.001322852    1.542    0.351
        12 -13.8557    176.7627    188.4089   2.9098934413e+02   4.5419402346e+00   0.04116591   0.02163518 -84.13  0.003191176    3.204    0.688
        13 -12.6588    148.1159    188.7390   2.9131871865e+02   4.7105050514e+00    0.0187308   0.01251408   1.87  0.001855296    1.903    0.474
        14 -14.5641    196.7952    172.5123   2.9066236510e+02   4.6028522675e+00   0.06393126   0.03663981  79.86  0.002641723    3.127    0.680
        15 -13.1956    205.5071    180.0137   2.9060920457e+02   4.4647227571e+00   0.02566483   0.01646294  84.41  0.001625356    2.238    0.553
        16 -13.4289    208.8135    177.9915   2.9055895853e+02   4.4678910384e+00   0.02324818   0.02086227 -60.55  0.001811501    1.108    0.097
        17 -13.2296     30.8118    182.4742   2.9262182615e+02   5.4858632580e+00   0.03629645   0.02241358  65.95  0.000348956    2.261    0.558
        18 -12.0385     27.8136    179.8091   2.9263975728e+02   5.5342682182e+00   0.02049183   0.01399575 -21.55  0.001604287    1.832    0.454
        19 -11.6262    124.1562    185.4777   2.9157250467e+02   4.8917800446e+00   0.01876345   0.01038661  51.02  0.001709614    2.126    0.530
        20 -10.5521     13.7019    238.7557   2.9316299583e+02   4.9447692933e+00  0.007848816  0.005939286 -66.40 0.0003712165    1.345    0.256
        21 -13.0243    157.0537    178.4333   2.9115299535e+02   4.7744724624e+00   0.01615076   0.01453216  47.02  0.001043623    1.137    0.121
        22 -10.4220    151.0286    243.9923   2.9162586017e+02   4.0617985922e+00  0.009874431  0.009228271 -39.79 0.0004232708    1.068    0.064
        23 -14.4667    146.3161    170.6704   2.9122783407e+02   4.9277338019e+00   0.03695449   0.02900076  71.75  0.003825699    1.492    0.330
        24 -13.7551    138.2583    172.2271   2.9132956167e+02   4.9584057422e+00   0.03275402   0.02377289  82.56  0.002864674    1.733    0.423
        25 -13.3103    131.2251    171.0236   2.9140255532e+02   5.0144368816e+00   0.03363983   0.01417955  33.26  0.002730546    2.268    0.559
        26 -13.6860    177.4985    169.9816   2.9086718556e+02   4.7479590693e+00   0.02303173   0.02019741  18.53  0.002772301    1.166    0.142
        27 -13.4970    176.8800    177.3010   2.9091944348e+02   4.6680932325e+00   0.02355051   0.01763363 -87.93   0.00254245    1.583    0.368
        28 -11.9138     25.9387    172.6470   2.9261718691e+02   5.6273554796e+00   0.01758016   0.01388808  38.04  0.001113295    1.271    0.213
        29 -11.3815     18.0521    173.5768   2.9271317773e+02   5.6638996431e+00   0.01316947   0.01080308   9.38 0.0008416738    1.308    0.236
        30 -12.2626    168.3219    175.9419   2.9100884333e+02   4.7351273511e+00    0.0121762  0.009816513  16.24 0.0004729966    1.301    0.231
        31 -13.3049    123.4330    166.3478   2.9146282429e+02   5.1146891925e+00   0.03154929   0.01920058  82.99  0.001165218    2.567    0.610
        32 -12.1318    202.0058    165.8246   2.9056153428e+02   4.6478187400e+00   0.01908199   0.01289227  72.38  0.001522921    1.978    0.495
        33 -11.4993     20.4167    166.8144   2.9264453799e+02   5.7270582851e+00    0.0123177   0.00964151  12.75 0.0007836342    1.374    0.272
        34 -11.4028    223.6834    163.7065   2.9030090299e+02   4.5413415997e+00    0.0122294   0.01081633  75.69 0.0004391151    1.230    0.187
        35 -10.8118     14.3603    161.2062   2.9267939409e+02   5.8273815948e+00   0.01836562  0.007479176 -59.83  0.001516926    2.364    0.577
        36 -10.3592     25.9434    228.9003   2.9296260436e+02   4.9842513088e+00  0.007667724  0.006346989 -59.03 0.0003623682    1.194    0.162
        37 -10.6591     11.5444    157.1362   2.9268661073e+02   5.8907391123e+00   0.01352283  0.008835149  -3.28  0.001294246    2.053    0.513
        38 -10.8464     22.9787    156.0932   2.9254926739e+02   5.8342781988e+00  0.009969242  0.009734325 -19.86 0.0005259225    1.027    0.026
        39 -14.0216    134.1634    145.7952   2.9121326942e+02   5.2849645469e+00   0.05774607    0.0183696 -68.93  0.003475032    4.813    0.792
        40 -11.6849    154.5250    152.5015   2.9102182729e+02   5.0858751894e+00   0.01229364  0.005318869  39.60 0.0008682237    2.295    0.564
        41 -13.8871    154.0603    146.1281   2.9098777758e+02   5.1614614125e+00   0.03138042   0.01690516  40.27   0.00296711    1.866    0.464
        42 -13.9839    143.1276    144.2422   2.9110115135e+02   5.2487843824e+00   0.03800318   0.02024712 -79.22  0.003173631    2.672    0.626
        43 -10.8298      7.4480    149.7355   2.9268801020e+02   5.9998183485e+00   0.01496083  0.009392349 -29.36  0.001304016    1.974    0.493
        44 -12.6154    174.3055    148.5164   2.9077108549e+02   5.0123063205e+00   0.01652025   0.01428785  88.80  0.001499981    1.264    0.209
        45 -11.8007     17.4901    153.5886   2.9259670867e+02   5.8957353283e+00   0.01236952   0.01081442 -38.28  0.000592499    1.159    0.138
        46 -12.4851     27.4450    145.5649   2.9243333885e+02   5.9278853387e+00    0.0188114   0.01521092 -15.98  0.001123632    1.390    0.281
        47 -12.8171    198.8755    222.8093   2.9094904406e+02   4.0160062018e+00   0.01810327   0.01210006  22.60  0.001052732    1.558    0.358
        48 -11.5310    139.8064    148.9454   2.9116817657e+02   5.2150440105e+00   0.01101731  0.009553164  24.93 0.0003322338    1.164    0.141
        49 -13.0596    147.5062    147.7784   2.9107291637e+02   5.1820527868e+00   0.01825367   0.01692204 -11.80   0.00114423    1.118    0.105
        50 -13.6559    136.0000    128.5238   2.9108559406e+02   5.4711822276e+00   0.06336178   0.01499875 -66.88  0.002954151    7.880    0.873
        51 -12.0265     22.4787    220.9665   2.9295355082e+02   5.0956711659e+00   0.01430673  0.009156744 -43.47 0.0009043137    1.614    0.380
        52 -11.0520     23.7594    215.3109   2.9290419864e+02   5.1526695709e+00   0.01054016  0.008400629 -48.94 0.0004890917    1.241    0.194
        53 -11.6081      3.5498    138.6423   2.9266442511e+02   6.1499031036e+00   0.01339799  0.009708059 -18.33  0.001155665    1.670    0.401
        54 -12.8391    160.8067    127.9154   2.9079809707e+02   5.3288282290e+00   0.01954412   0.01613853 -78.65  0.002233125    1.300    0.231
        55 -12.2254     22.0231    242.6746   2.9309189093e+02   4.8502255525e+00   0.01445871   0.00931843 -64.59  0.001479183    1.575    0.365
        56 -12.0642     53.5105    116.7756   2.9195742120e+02   6.1007466277e+00   0.01207158  0.009195536  25.42 0.0005777157    1.330    0.248
        57 -11.4874    104.4462    113.2290   2.9135222830e+02   5.8355734653e+00   0.01298315  0.005954264 -56.31  0.001134209    2.069    0.517
        58 -10.8504    151.6406    135.3156   2.9094865225e+02   5.2995050541e+00   0.00710089  0.004895578  61.26 0.0007043381    1.754    0.430
        59 -11.6539      2.8603    112.4906   2.9251136065e+02   6.4528646235e+00   0.01170172  0.008924979 -38.22  0.001295949    1.369    0.269
        60 -10.7461    205.5380    110.1917   2.9017711552e+02   5.2615472724e+00    0.0121107  0.009307841  25.99 0.0006690188    1.316    0.240
        61 -13.4213    196.4568    236.2109   2.9105927967e+02   3.8775327172e+00   0.02200836   0.01120593 -48.44  0.001710877    1.950    0.487
        62 -10.6713     21.2207    107.9775   2.9227314101e+02   6.3946305732e+00  0.008843471  0.008680423 -31.82 0.0004137792    1.012    0.012
        63 -13.2108    112.7548    108.2560   2.9122639114e+02   5.8424312755e+00   0.03194769  0.009842799 -56.58  0.002371017    2.925    0.658
        64 -12.0973     26.6648     98.0929   2.9214981334e+02   6.4749679739e+00   0.02147488     0.017443  -5.13  0.002054541    1.382    0.277
        65 -11.8604     46.4720     92.6539   2.9188925561e+02   6.4184660321e+00   0.02186818   0.01306014   7.36  0.002007374    2.210    0.548
        66 -11.2971     41.8294     92.1033   2.9193906414e+02   6.4525720949e+00   0.01469748   0.01018473  89.09  0.001110883    1.849    0.459
        67 -13.0056     11.4729    206.1130   2.9298829098e+02   5.3312820307e+00   0.02937395   0.01693544  18.89  0.002335551    1.938    0.484
        68 -10.4018    142.9863     80.0227   2.9070575255e+02   5.9828704299e+00  0.008021533  0.007663666 -57.19  0.000534236    1.039    0.038
        69 -14.3265    148.8942     56.4313   2.9049206325e+02   6.2164763796e+00   0.04797794   0.03390628 -44.75  0.001018017    1.432    0.302
        70 -18.3493     74.4636     90.4954   2.9155518902e+02   6.2752514277e+00    0.7321455   0.02305845 -61.72   0.01724778   29.804    0.966
        71 -13.0052    163.3687     33.2370   2.9018263744e+02   6.3937549184e+00   0.02019887   0.01685244 -61.01  0.000851126    1.192    0.161
        72 -11.0401     13.5082     59.9272   2.9206519858e+02   6.9895323531e+00  0.009763571   0.00893987  28.70 0.0004431755    1.098    0.089
        73 -10.9114      7.9753    239.5637   2.9323341604e+02   4.9697532092e+00  0.008766393  0.007385149 -59.17  0.001021071    1.174    0.148
