#   1 NUMBER                 Running object number                                     
#   2 MAG_AUTO               Kron-like elliptical aperture magnitude                    [mag]
#   3 X_IMAGE                Object position along x                                    [pixel]
#   4 Y_IMAGE                Object position along y                                    [pixel]
#   5 X_WORLD                Barycenter position along world x axis                     [deg]
#   6 Y_WORLD                Barycenter position along world y axis                     [deg]
#   7 A_WORLD                Profile RMS along major axis (world units)                 [deg]
#   8 B_WORLD                Profile RMS along minor axis (world units)                 [deg]
#   9 THETA_WORLD            Position angle (CCW/world-x)                               [deg]
#  10 FWHM_WORLD             FWHM assuming a gaussian core                              [deg]
#  11 ELONGATION             A_IMAGE/B_IMAGE                                           
#  12 ELLIPTICITY            1 - B_IMAGE/A_IMAGE                                       
         1 -14.0790    165.6129     43.3124   7.6371453218e+01   3.8663464300e+01     1.204415      1.07177   4.10  0.004168286    1.337    0.252
         2 -14.1243    182.1305     10.3055   6.4818287113e+01   3.8506360269e+01     1.717988     1.013502  67.80  0.006752925    1.444    0.308
         3 -11.8322    125.0929    242.5468   1.2950304419e+02   7.2850392939e+00    0.4230394    0.1648204 -55.12  0.001584727    2.941    0.660
         4 -14.9375    100.6830    243.8876   1.3428822135e+02   1.1041230324e+01    0.8342596    0.6108595 -56.52   0.00519524    1.657    0.397
         5 -19.8504     63.5920    168.5894   1.3264548013e+02   3.2844596026e+01     19.49183     5.120782 -64.42   0.06554934    3.528    0.717
         6  -9.3777    153.1864    200.8017   1.1754622629e+02   1.0225053299e+01    0.2109434    0.1849427  75.85 0.0007035344    1.189    0.159
         7  -9.9225    140.5255    199.3091   1.2001702811e+02   1.2953673229e+01    0.3854929    0.2754024  20.70  0.001834128    1.910    0.476
         8 -12.1450    180.4278    193.5212   1.1043961537e+02   6.3350646173e+00    0.4181514    0.3356019 -81.73  0.001686626    1.639    0.390
         9  -9.9358    112.3522    196.8998   1.2578092406e+02   1.8641488311e+01    0.3535222     0.230536  22.02  0.001573195    2.385    0.581
        10 -12.1488    169.5316    195.4879   1.1310407624e+02   8.0999426285e+00    0.5288998    0.2575575 -59.51  0.001976977    2.927    0.658
        11 -12.6299    169.2851    182.1045   1.1059330730e+02   1.0849138902e+01    0.7136128     0.391651  49.60  0.002110283    1.811    0.448
        12 -12.3992    176.3138    186.8419   1.1001632868e+02   8.4661342487e+00    0.4551526    0.3504252 -74.45   0.00156473    1.676    0.403
        13 -10.0435    152.7862    192.8047   1.1621120293e+02   1.1939968989e+01    0.3010524    0.2472849  86.21  0.001218198    1.393    0.282
        14  -9.8797    138.7400    250.6309   1.2792603809e+02   3.5688486321e+00    0.1758848     0.101973  41.84 0.0009453766    1.467    0.318
        15 -11.2191    163.6774    188.3841   1.1302433908e+02   1.0692477793e+01     0.460035    0.2179359  32.16   0.00166421    2.723    0.633
        16 -10.0038    152.9659    185.9627   1.1490912797e+02   1.3337334918e+01    0.2287263    0.2158499  67.16  0.000743427    1.022    0.021
        17 -10.4926     12.8322    242.4577   1.4947815462e+02   2.3064208976e+01    0.1552384    0.1295914 -58.17   0.00119834    1.892    0.471
        18  -9.3415    151.3136    241.9785   1.2436798712e+02   2.8791379556e+00    0.1555504    0.1161949 -37.14 0.0008177737    1.710    0.415
        19 -10.4109    109.1304    240.1773   1.3227148292e+02   1.0373067792e+01    0.1700611    0.1490529  57.16 0.0004276845    1.156    0.135
        20 -10.8779      3.7790    179.1808   1.4683598340e+02   3.6906467326e+01    0.2423946    0.1696492  84.33 0.0008468687    1.115    0.103
        21 -12.0190    204.5567    176.4234   1.0206689434e+02   4.7984105823e+00    0.4950268    0.4523276 -60.34  0.001948892    1.223    0.182
        22 -12.0191    203.5882    166.0115   1.0005844182e+02   6.9924935791e+00    0.6722676     0.513081 -24.57  0.001923385    1.422    0.297
        23 -10.7107    190.3246    155.8459   1.0055196889e+02   1.1823810170e+01     0.491879    0.4552277 -42.19  0.002642816    1.077    0.072
        24 -10.1518    198.5127    177.4998   1.0350936917e+02   5.8093911908e+00    0.2753947    0.2321071 -71.36  0.001215541    1.456    0.313
        25 -12.2309    193.5599    166.1182   1.0212562195e+02   9.0599758316e+00    0.8724726    0.4178951 -53.76  0.001859891    2.586    0.613
        26 -12.4791    172.4917    188.7789   1.1120551377e+02   8.8466905807e+00    0.4691163    0.3649359  23.41  0.001401847    1.446    0.309
        27 -11.7407    143.4319    174.0318   1.1476813785e+02   1.7830676769e+01    0.5684381    0.4462942   2.62  0.002384057    1.853    0.460
        28 -12.6665    134.5117    169.1356   1.1587541863e+02   2.0709011991e+01     0.709177    0.4493563  61.51  0.002621598    1.805    0.446
        29 -11.3573    126.6772    172.8944   1.1842998572e+02   2.1384334405e+01    0.5039956    0.3259016  65.56  0.001889696    1.827    0.453
        30 -10.0735     28.7022    239.7654   1.4673064194e+02   2.1807489167e+01    0.1407077   0.08773088  71.07 0.0002873329    1.212    0.175
        31  -9.2439    136.9002    179.4908   1.1730292470e+02   1.7918189473e+01    0.2148656    0.1418303  42.68 0.0003214212    1.481    0.325
        32 -10.4395     21.7916    238.5219   1.4779387409e+02   2.2835415566e+01    0.1060564    0.0842417  86.31 0.0002314525    1.242    0.195
        33  -8.7444     13.3449    163.2564   1.4343459896e+02   3.9620080214e+01    0.1090538   0.07969881 -50.31 0.0002888177    1.590    0.371
        34  -9.5605     11.1813    174.3393   1.4493262326e+02   3.7331946609e+01     0.151644    0.1132912 -86.60 0.0004445142    1.012    0.011
        35 -12.9299    135.6595    126.8445   1.0630234535e+02   3.0135650502e+01     2.887696    0.3715341 -49.75    0.0046851   11.155    0.910
        36 -11.6021    132.1264    129.1805   1.0775677126e+02   3.0354330415e+01    0.3233209    0.2918707 -41.11 0.0007841978    1.137    0.120
        37 -13.2645    133.8869    145.6046   1.1111354991e+02   2.6225958157e+01     1.661127    0.4342672 -55.30  0.003905499    5.589    0.821
        38 -12.9051    129.0564    144.1496   1.1198344823e+02   2.7548390199e+01    0.6151791    0.4836335  60.35  0.002290311    1.326    0.246
        39  -9.5536     30.6289    232.5986   1.4590867003e+02   2.2981457913e+01    0.1508214   0.08340023  54.99  0.000744985    1.504    0.335
        40  -9.9203    174.5322    148.7111   1.0233400477e+02   1.6769399005e+01    0.3659352    0.2580995 -69.77  0.001574951    1.826    0.452
        41 -12.4638    144.0297    145.6211   1.0865538116e+02   2.4099756546e+01    0.8667503     0.416719 -59.89  0.002985774    2.676    0.626
        42 -11.2345      4.9972    137.5798   1.4264530924e+02   4.6061283862e+01    0.3075123    0.1978114 -62.53  0.001298919    1.278    0.218
        43  -9.3331    138.7155    243.6769   1.2703083077e+02   4.7651916496e+00    0.1465475    0.1129442 -71.77 0.0003357165    1.518    0.341
        44  -9.9932     22.3647    221.4427   1.4654846807e+02   2.6152773403e+01    0.1101934   0.08441837 -89.11 0.0003665853    1.168    0.144
        45 -11.1823      2.3003    126.0299   1.4197067825e+02   4.8826473802e+01    0.2732471    0.1729544 -69.60   0.00158118    1.187    0.157
        46 -10.6688    160.3394    127.9397   1.0062111889e+02   2.4437629381e+01     0.392336    0.2832903 -55.86  0.001652749    1.441    0.306
        47 -11.2007      7.1663    119.8897   1.3993444090e+02   4.9879078003e+01    0.2068589      0.17127  -3.25 0.0008571529    1.622    0.384
        48  -9.3939    167.9806    112.9576   9.5111319085e+01   2.5847174906e+01    0.2672104    0.1953409 -81.00  0.001136524    1.826    0.452
        49 -11.1432      2.8385    112.8781   1.4014686860e+02   5.1708395797e+01     0.225485    0.1774218 -31.93  0.001514678    1.488    0.328
        50 -13.3542    115.0078    108.9616   1.0717288705e+02   3.8390154517e+01    0.9582672    0.6782303  70.62   0.00333227    1.901    0.474
        51  -9.7954    205.5362    110.2300   8.6766412178e+01   1.7522762272e+01    0.2695349    0.2121131  54.79 0.0006225734    1.309    0.236
        52 -10.4783      8.5651    102.3250   1.3698198700e+02   5.3671128097e+01    0.2410519    0.2115377  59.26  0.001467224    1.395    0.283
        53 -10.0713    110.7609    211.7832   1.2830766155e+02   1.5729568681e+01    0.1754023    0.1341567  80.11 0.0003411489    1.300    0.231
        54 -11.3979    100.8301     98.5854   1.0836924322e+02   4.3351354345e+01    0.4105116    0.3234709  66.46  0.002069038    1.560    0.359
        55 -11.9182    106.1533    204.7839   1.2829298047e+02   1.8002157466e+01    0.3657262    0.3015184 -82.96 0.0009032679    1.174    0.149
        56  -9.8483     98.7533     80.9382   1.0396647958e+02   4.7359480325e+01    0.2280099    0.2003303  37.53 0.0005063399    1.176    0.150
        57 -13.4245    153.9272     57.9750   8.2924029554e+01   3.9380423409e+01     1.348589    0.8832114  49.28  0.003145257    1.461    0.315
        58 -10.4784     15.5498    246.8488   1.4929841917e+02   2.1946646805e+01    0.1510974    0.0762936  86.05 0.0009529928    1.604    0.377
        59 -12.2134    169.7669     35.3699   7.3397818522e+01   3.8687287529e+01     0.389522    0.3727545  13.80 0.0008514104    1.207    0.171
        60  -9.9370     13.6154     60.0448   1.2674606393e+02   6.2089951421e+01     0.160412    0.1479736 -29.49 0.0004182514    1.226    0.184
        61 -12.0310     11.8926    205.7806   1.4730060409e+02   3.0474546184e+01    0.3338854    0.2880625  21.71  0.002495554    1.840    0.457
        62  -9.9718    138.5496     31.7916   7.8130813097e+01   4.6668713111e+01    0.2642016    0.1810993  68.79   0.00102163    1.501    0.334
