#   1 NUMBER                 Running object number                                     
#   2 MAG_AUTO               Kron-like elliptical aperture magnitude                    [mag]
#   3 X_IMAGE                Object position along x                                    [pixel]
#   4 Y_IMAGE                Object position along y                                    [pixel]
#   5 X_WORLD                Barycenter position along world x axis                     [deg]
#   6 Y_WORLD                Barycenter position along world y axis                     [deg]
#   7 A_WORLD                Profile RMS along major axis (world units)                 [deg]
#   8 B_WORLD                Profile RMS along minor axis (world units)                 [deg]
#   9 THETA_WORLD            Position angle (CCW/world-x)                               [deg]
#  10 FWHM_WORLD             FWHM assuming a gaussian core                              [deg]
#  11 ELONGATION             A_IMAGE/B_IMAGE                                           
#  12 ELLIPTICITY            1 - B_IMAGE/A_IMAGE                                       
         1 -16.2239    136.1423    103.8499   8.2638744918e+01   3.4664872063e+01     5.119904     3.374968 -53.14    0.0221567    1.583    0.368
         2 -15.3302    135.5763     77.7157   7.5122231283e+01   4.0188398807e+01     2.925643     1.735615  27.62    0.0110951    2.378    0.579
         3 -15.7361     65.9793     47.4588   8.6365419252e+01   5.9566545830e+01     2.744187      2.09196  35.04   0.01544585    1.431    0.301
         4 -13.1074      2.4589     53.1450   1.1393425889e+02   6.4567781009e+01      1.38549    0.3659849 -69.40  0.005161366    3.898    0.743
         5 -13.7384     10.1088     47.3049   1.0931849114e+02   6.5388808376e+01     1.298084    0.6339065 -62.51  0.005813804    1.739    0.425
         6 -12.5080    249.7057     49.2755   4.7170517074e+01   1.6996246389e+01     1.495794    0.3192945 -31.85  0.004533076    4.309    0.768
         7 -16.4831     33.2616     88.4323   1.1009209585e+02   5.4657531099e+01      3.79336     2.647588 -78.27   0.02183631    1.446    0.309
         8 -14.3489     17.6962     10.9616   9.2543307944e+01   7.1566847919e+01     1.436724    0.9689845 -11.42  0.007692618    1.316    0.240
         9 -13.7073    186.1032     12.3341   4.4820159067e+01   3.7061438046e+01     1.905766    0.5951782  61.92  0.007064981    2.683    0.627
        10 -12.9831    195.5090      4.1915   4.1471317694e+01   3.5495007203e+01      1.62926     0.545783  74.19  0.006080985    2.844    0.648
        11 -13.4210    163.8609      5.6989   4.5696989686e+01   4.3430588871e+01     1.706858     0.972384  86.59  0.007802628    1.938    0.484
        12 -11.6827     55.5552     12.3144   7.5329756022e+01   6.6708504492e+01    0.4619983    0.3391702   8.22  0.002544778    1.228    0.186
        13 -11.1706     64.6655      8.0255   6.9673585957e+01   6.5728289120e+01    0.3890323    0.3304146 -77.63   0.00235074    2.108    0.526
        14 -12.1496     56.7375      4.2353   7.0774587781e+01   6.7494074659e+01    0.6753225    0.4124958  29.69  0.003375141    1.506    0.336
        15  -9.9438    235.3939    197.2169   8.2644956848e+01  -3.1159929264e+00    0.1721615    0.1139028 -39.39 0.0009570154    1.718    0.418
        16 -10.2456    240.9937    249.7885   9.0643443674e+01  -1.0376118271e+01    0.1686576    0.1371503 -27.12  0.001091738    1.596    0.373
        17 -12.2976    186.0563    248.4092   9.9989519461e+01  -2.0868793892e+00    0.5003869    0.2581327  36.69  0.002824307    1.538    0.350
        18 -10.0908    250.0000    189.9991   7.8734336923e+01  -4.4821082928e+00    0.2010546   0.06537448 -33.84 0.0008035777    2.950    0.661
        19 -11.0949     12.6650    188.3105   1.2708652381e+02   3.3556059699e+01    0.2301322    0.1422182  82.27  0.001168047    1.255    0.203
        20 -12.3686      8.9282    186.6176   1.2770532156e+02   3.4247847259e+01    0.4330507    0.2770618 -65.17  0.002907634    1.629    0.386
        21 -12.8320     20.1227    153.8378   1.2286496877e+02   4.0441223454e+01    0.6419908    0.5882013 -77.01  0.004021823    1.278    0.218
        22 -11.4012    108.0066    147.5191   1.0017506350e+02   3.0310556112e+01    0.3982258    0.2881635  38.84   0.00183048    1.439    0.305
        23 -11.9072    104.3575    143.4670   1.0031768317e+02   3.1900091498e+01    0.5387845    0.4471313 -76.85  0.001932784    1.200    0.166
        24 -11.5103    108.9017    141.7813   9.8816648194e+01   3.1486772268e+01    0.6046845    0.4078155 -89.52  0.002642519    2.020    0.505
        25 -14.4888    147.1835    129.8721   8.6552602992e+01   2.6569759455e+01     1.792117     1.320212  56.78  0.007765056    1.443    0.307
        26 -11.1791    239.1227    244.0960   9.0073977446e+01  -9.5058177283e+00     0.400384     0.143808  33.03  0.001957938    2.360    0.576
        27 -11.4617    176.3262     91.3276   6.9707555477e+01   2.7746782263e+01    0.3117802    0.2046942 -20.65  0.001276721    1.877    0.467
        28 -11.2595    182.3029    239.0615   9.9362048265e+01  -2.3968224598e-01    0.2747107    0.2082659  44.59   0.00179485    1.223    0.183
        29 -11.3686    181.1056     87.9002   6.7761791673e+01   2.7213657883e+01    0.2534123    0.2174625 -71.18  0.001098387    1.286    0.222
        30 -10.3736     90.0536     83.7081   9.0062355247e+01   4.8296393203e+01    0.2965049     0.203314 -41.92   0.00127534    1.368    0.269
        31 -10.0964    182.5881    129.7146   7.8456408320e+01   1.8763321225e+01    0.2160965     0.144058 -49.46 0.0006580712    1.581    0.368
        32 -12.4514     97.4665     76.8907   8.5676439820e+01   4.8415558530e+01    0.8080422    0.4130892  39.63  0.003348129    2.080    0.519
        33 -13.6002    104.2399     76.3740   8.3442585218e+01   4.7219523060e+01     1.404615    0.8577456  49.65  0.006226519    1.797    0.443
        34 -12.8748    105.5167     69.6197   8.0877778086e+01   4.8327088989e+01    0.9321656    0.6588117  81.00  0.003931863    2.440    0.590
        35 -12.1805     98.9760     69.4910   8.2833775171e+01   4.9642732607e+01    0.6295217    0.3998781  39.56  0.002299942    1.647    0.393
        36 -11.6908    183.3380     70.4297   6.2331017801e+01   2.9753133869e+01    0.5649939    0.3628188  -3.43   0.00216093    2.539    0.606
        37 -12.2208    177.0492     71.3776   6.3814639466e+01   3.1180121823e+01    0.5203682    0.4111278 -59.68  0.001686072    1.365    0.267
        38 -12.2945    177.6727     65.0654   6.1826502623e+01   3.2089366350e+01    0.8919473    0.4038603  59.94  0.003283473    2.277    0.561
        39 -10.6325    166.5271     72.5251   6.6295963283e+01   3.3630184220e+01     0.267734      0.15487  68.36  0.001023512    2.144    0.534
        40 -13.0826    188.0136    116.8456   7.4109103952e+01   2.0051889857e+01     1.423767    0.6531886  31.42   0.00421057    3.915    0.745
        41 -10.7495    200.4668    238.6603   9.5993953057e+01  -3.0791177574e+00    0.3079323    0.1180233 -41.49  0.001450537    3.175    0.685
        42 -13.4264     82.8293     49.7308   8.1172550937e+01   5.6384052416e+01    0.8635335     0.638804 -28.97  0.003767549    1.267    0.211
        43 -12.3201    204.0824    229.8844   9.3988382154e+01  -2.4955196090e+00    0.4885551    0.2950923  30.98  0.002819556    1.403    0.287
        44 -12.5643     12.8241    229.5295   1.2930910659e+02   2.5432657737e+01    0.5587844    0.2897547  41.98  0.003765514    1.803    0.445
        45 -12.1449    222.8520    218.2415   8.8668814485e+01  -3.9485791689e+00    0.4277631    0.2806008  -8.31  0.002463638    1.676    0.403
        46 -10.0898    201.3469     55.3099   5.4947470053e+01   2.7619471081e+01    0.1518075    0.1135546  28.00 0.0006582729    1.707    0.414
        47 -11.0808    194.0291     55.1759   5.6063947960e+01   2.9491177363e+01    0.2850561      0.20846 -85.44  0.001330489    1.588    0.370
        48 -10.6849    150.9903    212.2448   1.0146463276e+02   9.2147066353e+00    0.3025966    0.1894433  31.96  0.001573472    1.598    0.374
        49 -13.9751    185.6628    110.1861   7.2875101146e+01   2.1888456805e+01     1.632569     1.015279  25.30  0.006320613    2.315    0.568
        50 -12.3203    125.0407     42.2438   6.5832705836e+01   4.8807708966e+01    0.6071156    0.5040177  80.11  0.003156983    1.458    0.314
        51 -13.8074     93.1598    192.7110   1.1082357700e+02   2.2686688602e+01     1.776953     1.144352  89.86  0.009290878    1.754    0.430
        52 -14.7827     70.1866    197.5318   1.1625464276e+02   2.5023803901e+01     2.699847     1.125464  56.71   0.01208336    2.436    0.590
        53 -13.6070     72.5295    182.1532   1.1401648328e+02   2.8005466182e+01     1.362241     0.713213  41.97  0.006873641    1.823    0.451
        54 -10.5674     13.6315    210.8032   1.2822457493e+02   2.8905191310e+01    0.1576608   0.07739073  86.33 0.0008481156    1.683    0.406
        55 -10.7860    218.1895    207.1733   8.7579236784e+01  -1.6677190409e+00    0.1648544     0.149594  39.46 0.0006651879    1.321    0.243
        56 -10.6219      1.5967    205.2692   1.3006728032e+02   3.1110884396e+01    0.2084398   0.07963774 -87.10  0.001140265    2.158    0.537
