#   1 NUMBER                 Running object number                                     
#   2 MAG_AUTO               Kron-like elliptical aperture magnitude                    [mag]
#   3 X_IMAGE                Object position along x                                    [pixel]
#   4 Y_IMAGE                Object position along y                                    [pixel]
#   5 X_WORLD                Barycenter position along world x axis                     [deg]
#   6 Y_WORLD                Barycenter position along world y axis                     [deg]
#   7 A_WORLD                Profile RMS along major axis (world units)                 [deg]
#   8 B_WORLD                Profile RMS along minor axis (world units)                 [deg]
#   9 THETA_WORLD            Position angle (CCW/world-x)                               [deg]
#  10 FWHM_WORLD             FWHM assuming a gaussian core                              [deg]
#  11 ELONGATION             A_IMAGE/B_IMAGE                                           
#  12 ELLIPTICITY            1 - B_IMAGE/A_IMAGE                                       
         1 -12.6483    207.4516     38.2100   4.0503804729e+01   2.9182936210e+01     1.573473     1.050714  38.73   0.00827211    1.995    0.499
         2 -11.9091    223.1953     23.2961   3.5419153891e+01   2.7557120406e+01    0.7190202    0.6026816 -61.36  0.002855299    1.062    0.059
         3 -10.8612      2.0910     33.8159   9.8908222803e+01   6.8416145057e+01    0.9259473          nan -54.12  0.002255073    8.983    0.889
         4 -10.8878      1.8700      7.5131   8.8618841878e+01   7.2896875897e+01     1.119868    0.1327376 -46.35  0.003646028    6.121    0.837
         5 -10.2054    248.3202      4.0173   2.9511496077e+01   2.4554240173e+01    0.3399648    0.3230487 -28.51  0.002683749    1.446    0.309
         6 -10.1211    243.9868      2.9783   2.9588584928e+01   2.5509090779e+01    0.3276998    0.2410377 -74.71  0.001890359    1.113    0.102
         7 -14.2852      6.3778    141.8739   1.1741596259e+02   4.3781148853e+01     11.06452     2.666687 -82.06   0.02750286    7.461    0.866
         8 -13.3271    112.2109    230.1609   1.0256538291e+02   1.1120529303e+01     6.626716     1.901611  28.70   0.01827792    5.995    0.833
         9 -12.3315     16.7571    216.9310   1.2112544776e+02   2.5741461912e+01    0.8315681    0.6461428  53.66  0.005929775    1.211    0.174
        10 -11.0759     49.4549    217.8453   1.1456189954e+02   2.2081693331e+01    0.5941936    0.3082675  32.33  0.002754625    1.974    0.493
        11 -10.2732     40.7920    213.6005   1.1600448279e+02   2.3975115753e+01    0.4002027    0.1867435  43.01  0.002078491    1.913    0.477
        12  -8.2666     58.7932    221.8177   1.1297281094e+02   2.0125084128e+01    0.1796194    0.1231649  63.43  0.001060497    1.347    0.258
        13 -10.3046     43.6156    218.7885   1.1585689705e+02   2.2553801703e+01    0.3710164    0.1836869 -85.15  0.001463512    2.141    0.533
        14  -7.7680    108.2826    204.6629   9.9961022991e+01   1.6891853341e+01    0.1383043    0.1015696  71.04  0.000701064    1.623    0.384
        15  -8.4636     58.7097    196.5501   1.1038852575e+02   2.5657764086e+01    0.2120362    0.1395293  80.62 0.0005622503    1.616    0.381
        16 -13.5765     42.3630    193.0672   1.1376643890e+02   2.8364423326e+01     2.701492     1.316702  67.42   0.01210647    2.488    0.598
        17 -10.8899     85.0756    221.7067   1.0736565049e+02   1.6708131428e+01    0.5674425    0.4151321  71.17  0.001360384    1.426    0.299
        18 -10.3463     61.8328    176.2347   1.0714437302e+02   3.0027021537e+01    0.4497317    0.2950177 -32.07  0.002175863    2.108    0.526
        19 -10.1283     66.8269    170.9838   1.0514689597e+02   3.0652826962e+01    0.3199673    0.2563919 -34.12 0.0006750454    1.476    0.323
        20 -10.1603     33.0284    168.9010   1.1344928669e+02   3.5033469126e+01    0.3896781    0.1876718 -71.00  0.001291159    1.814    0.449
        21  -8.5882     93.6763    168.2993   9.7765524794e+01   2.7454608155e+01    0.1487214    0.1092558  70.25 0.0005465988    1.629    0.386
        22 -11.7321     63.8627    157.5469   1.0390837149e+02   3.4330738924e+01    0.5002174    0.3131318 -41.38  0.001156192    1.786    0.440
        23 -10.5947     77.1037    161.2745   1.0094604869e+02   3.1624007127e+01    0.4671313    0.3730036 -28.07 0.0008616696    1.489    0.328
        24 -10.7933     83.8700    155.2585   9.8077481583e+01   3.2118247391e+01    0.6303384    0.4400299 -22.97  0.001316991    1.936    0.483
        25 -12.3486     69.0864    145.9904   1.0053225872e+02   3.6515457463e+01     1.284114    0.7618685 -88.51  0.005227676    2.479    0.597
        26 -11.8067     57.5264    240.3448   1.1486445809e+02   1.6550207896e+01    0.6975819    0.3979123  44.94 0.0004214573    1.482    0.325
        27 -13.3144      9.2140    207.3976   1.2201133354e+02   2.8453081818e+01     1.185828    0.9290032 -55.53   0.00558807    1.549    0.354
        28  -8.7513     22.4483    146.2542   1.1359246953e+02   4.1513933768e+01    0.1757495    0.1093555 -83.70 0.0003026334    1.493    0.330
        29  -8.6838    134.0000    143.5149   8.2224617890e+01   2.6248163939e+01    0.3554972   0.08660179 -48.15 0.0009454174    4.021    0.751
        30  -8.9083     33.0669    143.6435   1.1034216305e+02   4.1217479626e+01    0.3304873    0.1976753  58.98  0.001637027    1.957    0.489
        31  -9.5301     99.6312    139.7026   9.0628191230e+01   3.3421276620e+01    0.5554643    0.3270308 -20.84  0.001977705    3.004    0.667
        32 -10.6430     86.1931    140.0296   9.4512098155e+01   3.5517733888e+01    0.3150557    0.2704954 -29.51 0.0005197706    1.237    0.191
        33  -8.3380    197.9105    139.5910   6.6744812901e+01   1.4304352271e+01    0.2883411    0.1845787 -55.43   0.00115181    1.894    0.472
        34  -9.8795     76.5467    136.9252   9.6679715700e+01   3.7729530939e+01    0.3869263    0.2779084  72.66  0.001690503    1.818    0.450
        35  -9.3753     32.6286    155.9635   1.1205043040e+02   3.8219032579e+01    0.3116199    0.1098892 -69.17  0.001245978    2.450    0.592
        36  -9.4324    107.5722    130.8092   8.6397871273e+01   3.4175070413e+01    0.5165115    0.2586915  36.40  0.002016844    2.088    0.521
        37 -13.2567     35.4037    249.6114   1.1970281697e+02   1.7334878471e+01     3.576811    0.8330489  28.43   0.01056535    8.120    0.877
        38  -8.7408     96.8777    126.4339   8.8448824937e+01   3.7095347479e+01    0.3050957     0.223878 -21.66  0.001401968    1.640    0.390
        39  -8.3702    134.7964    119.9748   7.6319151998e+01   3.1401523066e+01      0.22095    0.1215696 -44.26 0.0008702883    1.765    0.433
        40  -8.0052    205.5902    110.2184   5.8366517584e+01   1.8266245326e+01    0.2023173    0.1316673 -28.93 0.0005952754    1.558    0.358
        41  -8.0099     25.0869    134.4864   1.1135438831e+02   4.4192678059e+01    0.1789138    0.1331657  21.37  0.001038848    1.610    0.379
        42  -8.1276    106.3832    119.0626   8.3901641797e+01   3.7161349010e+01    0.2127063    0.1880742 -41.38 0.0005577158    1.079    0.074
        43 -11.9486      3.2002    185.1831   1.2180409374e+02   3.3842590544e+01     1.121941    0.4369885 -82.08  0.001038326    2.222    0.550
        44 -11.4407     34.0726    202.8226   1.1651021640e+02   2.7055029870e+01     0.464232    0.3337723 -50.31  0.001044135    1.656    0.396
        45  -7.7930     46.7748     61.6514   8.7845764786e+01   5.9050836432e+01    0.1665857    0.1191812  33.31 0.0003354429    1.575    0.365
        46 -10.0144     13.2615     59.7798   1.0133779174e+02   6.2566734737e+01    0.2872565     0.227397 -74.15  0.000942159    1.535    0.349
        47 -11.7617    198.5622     44.4352   4.3142793697e+01   3.0376913175e+01    0.6301707     0.468298  39.44  0.002228639    1.637    0.389
        48 -11.0759     73.7868    218.6309   1.0946108092e+02   1.8878274583e+01    0.8293492    0.2220231  46.75  0.002954647    3.581    0.721
        49 -10.7642    216.4775     29.9226   3.7563395246e+01   2.8220730921e+01    0.4165422    0.3297808  45.84  0.001219855    1.549    0.354
        50  -9.8268     58.8123    229.8854   1.1370963061e+02   1.8464409625e+01    0.3309964    0.1929786 -82.02  0.001105276    1.801    0.445
        51  -9.3834      7.9871     50.8163   1.0123145540e+02   6.4753275813e+01    0.2097706    0.1021333 -26.11  0.001079869    2.017    0.504
        52  -8.4150    135.9540     42.2539   5.3103862747e+01   4.5412492906e+01    0.2046666     0.182611  81.35 0.0004988876    1.220    0.180
        53  -9.8004     53.2379    231.1646   1.1494548931e+02   1.8880271552e+01    0.2746135    0.2097446 -75.34  0.001821651    1.322    0.243
        54 -14.0192      6.7890    245.4795   1.2452792238e+02   2.1016072219e+01     1.891208     1.325212 -82.85   0.01421736    1.344    0.256
        55  -7.6059    135.7087     34.3065   5.0592572804e+01   4.6490945166e+01    0.1341206    0.1049245 -70.59 0.0003452237    1.577    0.366
        56  -9.8407     76.9190    225.5638   1.0953320742e+02   1.7025633929e+01    0.2635805    0.1983247 -83.49 0.0008889043    1.373    0.272
