#   1 NUMBER                 Running object number                                     
#   2 MAG_AUTO               Kron-like elliptical aperture magnitude                    [mag]
#   3 X_IMAGE                Object position along x                                    [pixel]
#   4 Y_IMAGE                Object position along y                                    [pixel]
#   5 X_WORLD                Barycenter position along world x axis                     [deg]
#   6 Y_WORLD                Barycenter position along world y axis                     [deg]
#   7 A_WORLD                Profile RMS along major axis (world units)                 [deg]
#   8 B_WORLD                Profile RMS along minor axis (world units)                 [deg]
#   9 THETA_WORLD            Position angle (CCW/world-x)                               [deg]
#  10 FWHM_WORLD             FWHM assuming a gaussian core                              [deg]
#  11 ELONGATION             A_IMAGE/B_IMAGE                                           
#  12 ELLIPTICITY            1 - B_IMAGE/A_IMAGE                                       
         1 -15.8048     10.4025    204.9614   1.4690947569e+02   3.0587309337e+01      9.11956     5.731703  88.81   0.02090928    1.236    0.191
         2 -13.3542     66.9764    143.8392   1.2670780191e+02   3.8241470333e+01     3.268294     1.508296 -83.79  0.002569729    6.375    0.843
         3 -14.3681    201.9617     19.3412   6.2880283336e+01   3.2256445645e+01      2.57559     1.547378  34.20   0.01206403    2.668    0.625
         4 -11.9813      2.1326     14.1436   1.1628831670e+02   7.0591979810e+01     0.578158    0.1675229 -46.74  0.002892654    2.915    0.657
         5 -12.8571      2.1193      5.4934   1.1277100977e+02   7.1793741864e+01     1.062676     0.536879 -30.93  0.007216977    1.507    0.336
         6 -14.3089     75.1539    229.0824   1.3654882199e+02   1.7534237669e+01     3.567622     1.145672  34.51 0.0006811168    3.940    0.746
         7 -10.9127    248.4466    249.1037   1.0523055242e+02  -1.4544873106e+01    0.3881386    0.1983901  22.01  0.002085032    1.900    0.474
         8 -10.1667    191.9689    250.1735   1.1600251717e+02  -5.9431784451e+00    0.2209633    0.1293719  20.15  0.001097153    1.997    0.499
         9 -11.8230    125.5530    244.4193   1.2832778740e+02   6.4364106738e+00    0.2962045    0.1886573  40.35  0.001622613    1.393    0.282
        10 -12.1937    139.5374    248.7998   1.2612695183e+02   3.2662171304e+00    0.4180763    0.3689871  69.13  0.002582839    1.172    0.146
        11 -10.8759    125.2293    250.2597   1.2912419837e+02   5.4453272935e+00    0.2376963    0.1373543  41.53  0.001039737    1.474    0.321
        12 -13.3565    101.6671    247.2860   1.3334798989e+02   9.8636111853e+00    0.9464035    0.5649182  46.07  0.005307729    1.401    0.286
        13 -11.9062     90.7760    246.8113   1.3538150314e+02   1.1670264298e+01     0.409047    0.2959815  69.72 0.0008710139    1.213    0.176
        14 -12.5035     87.9735    243.0199   1.3551978310e+02   1.2825875012e+01    0.5564473    0.4024946  21.21 0.0003577425    2.171    0.539
        15 -10.3581     46.7689    248.6914   1.4358230985e+02   1.7576152953e+01    0.3875272    0.1739496  63.03  0.001751405    1.996    0.499
        16 -11.7159     21.5864    244.5758   1.4758297463e+02   2.1405049912e+01    0.6979933    0.1391013  49.17  0.003048634    3.408    0.707
        17 -12.3011     11.8078    238.8050   1.4885421835e+02   2.3580847580e+01    0.7311413    0.3205564  88.63  0.003115807    2.005    0.501
        18 -11.8551     31.2283    249.4078   1.4628518947e+02   1.9368302735e+01    0.9165343    0.2567417  37.40  0.004052962    3.665    0.727
        19 -12.0304     36.6730    243.3186   1.4493961747e+02   1.9876554134e+01    0.6540995     0.411135  64.02  0.002480414    1.237    0.192
        20 -10.2629     14.3536    250.2126   1.4909261550e+02   2.1141660429e+01    0.3491656     0.125034  40.60  0.001917232    2.566    0.610
        21 -11.3540      1.8268    239.3192   1.5050580953e+02   2.4503767332e+01    0.6968485     0.179041 -79.15   0.00319167    3.366    0.703
        22 -10.4433      1.8736    249.8520   1.5103321890e+02   2.2521107660e+01     0.251146    0.1659146 -88.51  0.001040758    1.249    0.199
        23 -11.0250      5.6981    247.9773   1.5034297130e+02   2.2477389723e+01    0.3515609    0.1681437  74.12  0.001131553    1.662    0.398
        24 -10.3775    162.2729    249.5776   1.2173963508e+02  -7.8967533409e-01    0.2674135    0.1042253  44.04  0.001150945    2.135    0.532
        25  -9.4829     78.7327    210.8104   1.3375350632e+02   2.0862097802e+01    0.2286517    0.1538313 -66.88  0.001182025    1.474    0.322
        26 -10.4967    228.2083    204.7144   1.0093469623e+02  -5.0192924664e+00    0.2692724    0.2177884 -50.01 0.0007167914    1.543    0.352
        27 -10.2605    192.5000    193.9958   1.0600551385e+02   3.4658415584e+00    0.5253152     0.288854 -65.66  0.001726026    4.202    0.762
        28 -11.7673     66.2617    193.3061   1.3430464237e+02   2.6601156765e+01    0.4253429     0.254356 -47.81  0.002002566    2.059    0.514
        29  -8.5557    181.5016    192.4562   1.0804429913e+02   5.9341993630e+00    0.1466439    0.1367894  31.34 4.687672e-05    1.009    0.009
        30 -11.8137     71.5101    186.0170   1.3216579192e+02   2.7531119559e+01    0.3077642    0.2459967 -49.65 0.0008691852    1.454    0.312
        31 -11.1106     80.6278    174.3034   1.2830139769e+02   2.8922015335e+01    0.2556337    0.2278187 -72.32  0.000301697    1.101    0.092
        32 -13.3920     68.0555    171.6038   1.3093997796e+02   3.1418550889e+01    0.5255958    0.2894698 -44.54  0.001559855    2.232    0.552
        33 -10.4124    109.7472    173.8939   1.2112207093e+02   2.4123025254e+01    0.5146533    0.1712466  43.15  0.001734889    2.875    0.652
        34 -12.3375     86.9627    165.5367   1.2530440656e+02   3.0018593270e+01      1.25405    0.5910327  55.38  0.002489484    2.583    0.613
        35 -12.0458     83.8740    238.3479   1.3581896405e+02   1.4363242751e+01    0.4182062    0.2422146 -66.04  0.001855994    1.822    0.451
        36  -9.6351     99.9861    149.9213   1.1904464586e+02   3.1581497101e+01    0.2605177    0.2132998 -58.26  0.000681992    1.179    0.152
        37  -9.2018    102.9877    145.6695   1.1737955822e+02   3.2066534151e+01    0.3818509    0.2096985 -28.47   0.00126604    3.498    0.714
        38 -12.2068     88.7843    148.9160   1.2181133200e+02   3.3727764829e+01    0.2970987    0.2563561 -38.57 0.0005199751    1.279    0.218
        39 -12.6937     63.8332    218.9006   1.3773810995e+02   2.1290129167e+01    0.7302728    0.4060113  56.88  0.001485194    1.609    0.379
        40 -12.7782     40.9394    225.8215   1.4282108236e+02   2.2851058901e+01    0.3764803    0.2856291 -66.13 0.0009005987    1.489    0.328
        41  -9.6485    110.7436    135.6408   1.1311603935e+02   3.3014774361e+01    0.3213541    0.2436748 -15.51  0.001451845    1.815    0.449
        42 -10.5510     98.2788    132.6664   1.1585653535e+02   3.6008460049e+01      0.28118    0.2322454 -26.38 0.0003430891    1.398    0.285
        43  -9.8788    230.8253    167.6613   9.2908293095e+01   8.9516440666e-01      0.31485    0.1583962 -57.24   0.00109751    3.491    0.714
        44 -14.5495     48.1978    216.0395   1.4056481954e+02   2.3991963705e+01     1.599174     1.154238 -61.71  0.006186207    1.539    0.350
        45  -9.5354    107.7313    122.9280   1.1096352582e+02   3.6558013972e+01    0.2126351    0.1933305 -32.40 0.0004215656    1.136    0.120
        46 -10.7695    168.0349    113.0509   9.3031441674e+01   2.5536164276e+01    0.3873903     0.298803 -83.05 0.0009409625    1.651    0.394
        47  -9.6114    204.9939    110.8907   8.4834155673e+01   1.7186559812e+01     0.418684    0.1831684  41.29  0.001440932    2.822    0.646
        48 -13.3557     56.6114    226.5871   1.3991711316e+02   2.0670308801e+01     2.012469     1.599671  -7.20   0.01162065    2.545    0.607
        49 -10.2003    242.5001     93.4907   7.4570658400e+01   1.1888065543e+01    0.1400117    0.1257381 -58.84 0.0008105455    1.020    0.019
        50 -10.7988      1.7946     89.9354   1.3628098224e+02   5.6719734333e+01    0.3214006     0.121463 -67.00  0.001304071    2.147    0.534
        51 -10.9475    111.8410     44.3263   8.6685701342e+01   5.0768305836e+01    0.5320653     0.334163  77.81  0.002157398    3.073    0.675
        52 -11.4456    100.2369    238.5799   1.3263972213e+02   1.1746487123e+01    0.2700277    0.2002531  75.45 0.0008067442    1.292    0.226
        53 -11.9670     25.6470    234.6135   1.4624276806e+02   2.2884978243e+01    0.4627796    0.3751101  53.97  0.002402613    1.369    0.270
