#   1 NUMBER                 Running object number                                     
#   2 MAG_AUTO               Kron-like elliptical aperture magnitude                    [mag]
#   3 X_IMAGE                Object position along x                                    [pixel]
#   4 Y_IMAGE                Object position along y                                    [pixel]
#   5 X_WORLD                Barycenter position along world x axis                     [deg]
#   6 Y_WORLD                Barycenter position along world y axis                     [deg]
#   7 A_WORLD                Profile RMS along major axis (world units)                 [deg]
#   8 B_WORLD                Profile RMS along minor axis (world units)                 [deg]
#   9 THETA_WORLD            Position angle (CCW/world-x)                               [deg]
#  10 FWHM_WORLD             FWHM assuming a gaussian core                              [deg]
#  11 ELONGATION             A_IMAGE/B_IMAGE                                           
#  12 ELLIPTICITY            1 - B_IMAGE/A_IMAGE                                       
         1 -14.9434    165.9375     42.6797   7.6460786126e+01   3.8576273073e+01     1.241371     1.097003   0.50  0.003986069    1.342    0.255
         2 -14.9558    183.3513      9.3283   6.4662894935e+01   3.8201381847e+01     1.870084    0.9336112  64.93  0.006178647    1.685    0.406
         3 -10.5925    133.8188    246.1420   1.2864162482e+02   5.2076397450e+00    0.1406566    0.1335234  46.27 0.0002904698    1.223    0.182
         4 -20.1116     68.6478    174.6419   1.3268858329e+02   3.0644673781e+01     18.13372     6.518674 -65.20   0.07145306    2.611    0.617
         5 -11.3617    153.2456    193.7158   1.1666526876e+02   1.1626054326e+01    0.3212696    0.2627576  61.70   0.00072008    1.223    0.182
         6 -10.8716    131.2391    237.2183   1.2798482705e+02   7.2287069333e+00    0.1621363     0.147696  79.76 0.0004884727    1.147    0.128
         7 -11.6565    201.6899    169.3475   1.0152086732e+02   6.6506061609e+00    0.3738934    0.2464497 -64.71  0.001596799    2.192    0.544
         8 -12.4914    204.6706    166.4913   1.0030745025e+02   6.5856498289e+00    0.6273955    0.4537143 -58.83  0.002994576    1.659    0.397
         9 -11.7599    153.3518    186.3301   1.1528541250e+02   1.3138679176e+01    0.2773558     0.247739  72.47 0.0005696122    1.137    0.121
        10 -13.7840    204.6143    176.4015   1.0241616554e+02   4.7102342703e+00      1.37894    0.6898866 -60.07  0.004535871    3.883    0.742
        11 -11.1292    150.7422    180.9344   1.1484450654e+02   1.4804506779e+01    0.2070838    0.1909834 -66.27 0.0005034817    1.120    0.108
        12 -12.2180    141.9647    165.4019   1.1379123254e+02   1.9987700920e+01     0.460588    0.2877428 -68.64 0.0007562555    2.038    0.509
        13 -12.4461    126.6201    172.6244   1.1879282741e+02   2.1396985915e+01    0.5501214     0.340268  61.78   0.00217358    1.858    0.462
        14 -13.3689    143.7156    173.3750   1.1497459517e+02   1.7861277988e+01    0.9280272    0.6979122 -26.11  0.003269111    1.751    0.429
        15 -13.3949    194.0946    167.4361   1.0267086863e+02   8.6033594200e+00    0.8168654     0.460054 -54.82   0.00188932    2.147    0.534
        16 -13.8097    135.6771    169.6496   1.1610641992e+02   2.0299593607e+01    0.8690152    0.4991664  48.82  0.002188163    1.707    0.414
        17 -10.8344     13.4045    234.0002   1.4913429981e+02   2.4612240897e+01    0.1486049   0.09278888 -86.58 0.0008781527    1.273    0.214
        18 -11.3240     10.7189    174.6418   1.4533095982e+02   3.7202277883e+01    0.1931226    0.1373031 -72.32  0.000342089    1.217    0.178
        19 -12.6607    177.3663    170.6690   1.0690391778e+02   1.1467306306e+01    0.4832689    0.2565844 -57.97  0.001838578    2.448    0.592
        20 -11.5752    125.0489    244.1413   1.3005962366e+02   7.0405983125e+00    0.1995828    0.1578459 -66.27 0.0007416616    1.442    0.307
        21 -11.2810    163.5646    169.6822   1.0973291173e+02   1.4574179400e+01     0.260329    0.1807229  64.35 0.0008398918    1.702    0.412
        22 -11.7299    230.2681    166.8484   9.5447122820e+01   1.3913339068e+00    0.4350031    0.1829601 -50.47  0.001544752    3.116    0.679
        23 -10.0370    138.9934    250.2283   1.2818057688e+02   3.6345476237e+00    0.1738169    0.1340733  51.51 0.0006694426    1.057    0.054
        24 -10.5347     24.5217    165.2646   1.4148962761e+02   3.8029454807e+01     0.182688    0.1614061  59.91  0.000755458    1.291    0.225
        25 -10.6377     13.6677    163.5771   1.4368650561e+02   3.9402027258e+01    0.2281354    0.1645633  70.72  0.000460178    1.308    0.235
        26  -9.5486      3.2306    164.2534   1.4596981991e+02   4.0110544166e+01     0.102155   0.06950945 -62.49 0.0002447907    1.394    0.283
        27 -11.0495    188.8952    158.2666   1.0176453716e+02   1.1550185686e+01    0.4711044    0.2879544  25.76  0.001573159    2.249    0.555
        28 -11.1170    188.9902    154.3097   1.0086434500e+02   1.2336597868e+01    0.3074931    0.2645056 -61.43 0.0009594342    1.252    0.201
        29 -10.6436    108.9073    240.7424   1.3272104099e+02   1.0333255626e+01    0.2362559     0.178241 -37.00  0.001373509    2.047    0.512
        30 -12.0056    161.0042    152.9966   1.0673365198e+02   1.8725480279e+01    0.2457543    0.2378509  75.20 0.0009840475    1.016    0.016
        31 -10.8820    104.0012    201.4637   1.2864550206e+02   1.9058696824e+01    0.2423083    0.1592177  57.97 0.0008879541    1.432    0.301
        32 -11.9615    174.2220    148.7148   1.0279206324e+02   1.6750034208e+01    0.4044269    0.3397866 -58.88  0.001180784    1.243    0.196
        33 -11.3031    198.8796    178.1126   1.0393205096e+02   5.5430362246e+00     0.307156    0.2421139 -64.15 0.0007000141    1.569    0.363
        34 -11.1266    110.6950    211.4039   1.2863206528e+02   1.5808045779e+01    0.2536026    0.1868079  80.55   0.00113972    1.401    0.286
        35 -12.9551    106.7482    205.7306   1.2866644747e+02   1.7676321940e+01    0.4765633    0.3519102 -78.45  0.001504735    1.381    0.276
        36 -11.9547     21.8312    239.6726   1.4811096603e+02   2.2611451733e+01    0.2032088    0.1234223 -84.25 0.0007375811    1.365    0.267
        37 -13.9611     11.6442    206.0366   1.4761983366e+02   3.0390194650e+01    0.4725783    0.3608763  39.68  0.002504311    1.651    0.394
        38 -11.3208      5.9585    137.1145   1.4266426612e+02   4.5946829984e+01    0.2771026    0.1749301 -42.86  0.001433855    1.819    0.450
        39 -10.0480     13.7794    137.2181   1.4078303532e+02   4.5343446459e+01    0.1498775    0.1132253 -55.36 0.0003100011    1.290    0.225
        40 -10.2920    153.4763    201.8151   1.1804556888e+02   9.9397651376e+00    0.2435476    0.1418482 -56.67  0.001101448    1.946    0.486
        41 -12.4079    160.4980    127.7754   1.0094444716e+02   2.4342672030e+01    0.4874964    0.3338081 -54.12  0.001686656    1.523    0.343
        42 -10.4454    139.5024    199.9443   1.2073040436e+02   1.2989440767e+01    0.3810141    0.2026478  38.98  0.001449086    1.849    0.459
        43 -10.8335     26.4111    117.2627   1.3467961811e+02   4.8853680138e+01    0.1894414    0.1732744  24.33 0.0006909475    1.360    0.265
        44 -10.7647    167.8127    112.7970   9.5494589269e+01   2.5818132235e+01    0.4156497    0.2701483 -82.80   0.00150614    2.678    0.627
        45 -10.3489    121.8238    198.6777   1.2436502107e+02   1.6534339640e+01    0.2005121    0.1763914 -62.96 0.0003911029    1.211    0.174
        46 -13.9678    180.6243    193.4673   1.1077033638e+02   6.2606215298e+00     1.083915    0.5520632  33.09  0.004387823    2.206    0.547
        47 -12.9634    113.9771    110.2220   1.0822327492e+02   3.8212128660e+01    0.3599356    0.3146416 -85.71  0.000420496    1.289    0.224
        48 -13.5818    117.4878    109.4909   1.0708281575e+02   3.7677314393e+01    0.5474821    0.4162412  73.42  0.002185286    1.676    0.403
        49 -11.1416      7.0918    110.9311   1.3904741820e+02   5.1702436644e+01    0.2186233    0.1291187 -56.64  0.001185308    1.335    0.251
        50 -10.8140    205.3608    110.1140   8.7099509851e+01   1.7457637913e+01    0.3257851    0.2308702  48.62 0.0009922074    1.464    0.317
        51 -11.2883      7.1002    101.9158   1.3769640588e+02   5.3675793333e+01    0.2243831    0.2097462 -45.18 0.0009549449    1.240    0.193
        52 -14.4972    165.8781    187.4906   1.1276709682e+02   1.0387873245e+01     1.089278    0.7337823 -80.04  0.004628596    2.361    0.577
        53 -13.5869    170.2402    182.8471   1.1092202541e+02   1.0449138171e+01    0.5733624    0.3994236  38.25  0.001849946    1.411    0.291
        54 -12.8742    172.9664    188.9745   1.1152818542e+02   8.6650232492e+00    0.4756901    0.3892588 -61.39  0.001468116    1.372    0.271
        55 -12.7631    176.0181    186.0361   1.1030702453e+02   8.6343578186e+00    0.4561104    0.3208665 -72.52  0.001306419    2.014    0.503
        56 -10.9375    111.7364    196.8378   1.2628230554e+02   1.8730903824e+01    0.5261698    0.3272358  17.11  0.002069492    3.271    0.694
        57 -10.8356     98.6160     80.8546   1.0445311985e+02   4.7296177484e+01    0.2511472    0.2028401  48.32 0.0007027376    1.342    0.255
        58 -14.5059    154.2845     57.2753   8.3012907828e+01   3.9313107792e+01     1.297742     1.123237  50.14  0.001081681    1.104    0.094
        59  -9.9586    160.2785    246.4451   1.2363272399e+02   6.0908233517e-01    0.1927072    0.1155491 -50.25 0.0009141171    2.013    0.503
        60 -13.0860    170.1175     34.6635   7.3450655176e+01   3.8594834070e+01    0.4169207    0.3835591   3.67 0.0009301674    1.282    0.220
        61 -11.0753     13.5373     59.8004   1.2717227201e+02   6.1971022186e+01    0.1812556    0.1704787 -53.66 0.0004208368    1.293    0.226
        62 -10.9537    138.3161     31.5681   7.8484083815e+01   4.6679333371e+01    0.2905017    0.2116338  79.20  0.001078466    1.601    0.375
