#   1 NUMBER                 Running object number                                     
#   2 MAG_AUTO               Kron-like elliptical aperture magnitude                    [mag]
#   3 X_IMAGE                Object position along x                                    [pixel]
#   4 Y_IMAGE                Object position along y                                    [pixel]
#   5 X_WORLD                Barycenter position along world x axis                     [deg]
#   6 Y_WORLD                Barycenter position along world y axis                     [deg]
#   7 A_WORLD                Profile RMS along major axis (world units)                 [deg]
#   8 B_WORLD                Profile RMS along minor axis (world units)                 [deg]
#   9 THETA_WORLD            Position angle (CCW/world-x)                               [deg]
#  10 FWHM_WORLD             FWHM assuming a gaussian core                              [deg]
#  11 ELONGATION             A_IMAGE/B_IMAGE                                           
#  12 ELLIPTICITY            1 - B_IMAGE/A_IMAGE                                       
         1 -10.5157    163.8454     21.9863   4.9796100912e+01   4.1621873939e+01    0.4008943    0.3217537  38.35  0.001264165    1.315    0.239
         2  -9.1500    142.1243     21.2124   5.3313610663e+01   4.7228371340e+01    0.2316949    0.1768667  34.09 0.0007384171    1.343    0.255
         3 -10.1590     86.8500     16.6199   6.4917434534e+01   6.0419300574e+01    0.3925974    0.2202478 -40.81   0.00105502    2.126    0.530
         4  -9.8352    155.2876     16.4652   4.9386625343e+01   4.4413096271e+01    0.3847702    0.2431191   2.53  0.001516816    2.129    0.530
         5 -10.4618    111.2353     18.7047   5.9075802396e+01   5.4932927648e+01    0.4300574    0.3110562  15.77   0.00168467    1.466    0.318
         6 -10.4488     21.8664     15.6047   9.1075924219e+01   7.0388467914e+01    0.6455572    0.4019317 -23.47  0.003691386    1.340    0.254
         7 -10.6505     16.7532      4.1087   8.8152087142e+01   7.2625712072e+01    0.7640013    0.3842435  41.71  0.004025618    3.319    0.699
         8 -10.1870      7.1244      3.4614   9.3270617957e+01   7.3554560384e+01    0.2602525    0.1859671  13.49   0.00108557    1.484    0.326
         9 -10.5244     11.4496      6.5985   9.2362423578e+01   7.2727366669e+01    0.3314358    0.2517681 -16.92  0.001710161    1.074    0.069
        10 -10.3484     10.3628     15.2110   9.6934434590e+01   7.1424849594e+01    0.3714401     0.182757 -38.60  0.001067544    1.535    0.349
        11  -9.6906      8.2064     12.0396   9.6716212350e+01   7.2110767209e+01    0.2894534    0.1246008 -47.91  0.001603936    1.936    0.483
        12 -10.7385     19.2030     10.8207   9.0203777089e+01   7.1391345597e+01    0.2744903    0.1722245  14.12 0.0003196941    1.613    0.380
        13 -10.4392     15.9917      8.2746   9.0681902109e+01   7.2077465011e+01    0.2256898    0.1605774   0.09 0.0004172328    1.285    0.222
        14 -10.3617     58.1779     13.7837   7.3613236346e+01   6.5973855947e+01     0.400272    0.2780646  32.88  0.001578783    1.387    0.279
        15 -10.3284    180.7289     13.5723   4.4819519037e+01   3.8206600276e+01     0.364056    0.3148479  47.87  0.001086562    1.220    0.180
        16 -10.7260    185.1158     11.4638   4.3665889507e+01   3.7308503025e+01    0.5130191    0.3765567  16.49  0.001983453    1.810    0.448
        17  -9.9481     34.7282     14.3005   8.4095259390e+01   6.9205465663e+01    0.2661702    0.1933237  -5.67 0.0008198532    1.183    0.154
        18 -10.4725    121.4279     12.0521   5.4122697146e+01   5.3249878419e+01    0.5501683    0.2647223  49.91  0.002480957    1.810    0.447
        19 -10.6236    102.2190     15.0966   5.9896276065e+01   5.7347762144e+01    0.4766083      0.29606 -18.70  0.002442886    1.671    0.402
        20  -9.1853     93.4707     10.6368   6.0349945753e+01   5.9702655493e+01    0.2126391    0.1695411 -39.18  0.001169593    1.492    0.330
        21  -8.9190     46.5692      9.8607   7.6477189195e+01   6.8249647107e+01    0.2509488    0.1717202  41.60  0.001533506    1.713    0.416
        22  -9.5727     41.2962      8.9935   7.8378405394e+01   6.9102830429e+01    0.3215784    0.2778069  -4.49  0.001068473    1.224    0.183
        23  -9.3502     37.8671      4.6328   7.7675468268e+01   7.0126068893e+01    0.3251284    0.2184305  56.50   0.00151854    3.052    0.672
        24  -9.0374    237.9904      9.0130   3.7875598417e+01   2.4744411546e+01    0.2191823    0.1213119 -60.03  0.001131025    1.671    0.402
        25  -8.0184      4.6677      9.7647   9.7673779318e+01   7.2732580100e+01    0.1105006    0.0627019 -21.69 0.0001601578    1.533    0.348
        26  -8.6883    227.0664      8.2013   3.8576565299e+01   2.7352395491e+01    0.1650619    0.1427055  25.50 0.0005531962    1.558    0.358
        27  -9.4781     78.7514      6.5495   6.2836329577e+01   6.3114307577e+01    0.2872003    0.1791184  24.21  0.001556256    1.548    0.354
        28  -9.8114    210.0108      9.7034   4.0493177071e+01   3.1275762318e+01    0.3533078    0.2274056 -53.45  0.001138785    1.474    0.322
        29  -9.1428     67.3108     12.9488   6.9750045168e+01   6.4538714998e+01    0.2731571    0.1326183  32.66 0.0009741042    2.065    0.516
        30  -8.6615    108.0047      6.3063   5.4820738336e+01   5.6918553186e+01    0.1923287    0.1552973  47.77 0.0007498532    1.111    0.100
        31  -8.5471    127.2790      5.5745   5.0489947786e+01   5.2444411060e+01    0.1897531    0.1088291  52.12 0.0004340725    1.509    0.337
        32  -9.3495     91.0454      3.7095   5.7947866684e+01   6.0879740652e+01    0.3586538     0.193197  59.74  0.001771975    1.899    0.474
        33  -9.1780     30.5289      2.9697   8.0316698343e+01   7.1278917910e+01    0.2761399   0.09639704 -34.80 0.0009728867    2.541    0.606
        34  -9.0183     22.1999      3.2738   8.4765622955e+01   7.2192919843e+01    0.1716628    0.1194458  13.69 0.0006597032    1.357    0.263
        35  -9.0873    212.8777      5.8639   3.9248546293e+01   3.0979645579e+01    0.2251504    0.1322905 -63.98 0.0008701695    1.686    0.407
        36  -9.7121    190.2495      2.2770   4.0512502395e+01   3.6916807812e+01    0.3719255    0.1897308 -75.87  0.001605648    2.345    0.574
        37  -9.2868     51.1139      2.8527   7.0919821979e+01   6.8400367097e+01    0.4693918    0.1143524  38.66  0.001728963    4.019    0.751
        38  -9.4825    242.0221      1.5799   3.5900437724e+01   2.4637456581e+01    0.1755289    0.1345369 -86.79 0.0005314648    1.167    0.143
        39  -9.0938    137.6662      1.5376   4.7186753988e+01   5.0240141113e+01    0.2190607     0.149794  77.37 0.0007769654    1.471    0.320
        40  -9.0488    103.9682      1.9557   5.3948907651e+01   5.8209554996e+01    0.2025018    0.1561188 -63.53  0.001132508    1.783    0.439
        41  -8.5053     42.3972      1.9405   7.4157763682e+01   6.9820685663e+01      0.16484   0.09808127 -24.03  0.000480627    1.504    0.335
        42 -10.4418     71.7729    107.0163   1.0072043026e+02   4.5785968525e+01    0.4380296    0.2436957 -54.36  0.002005028    1.593    0.372
        43  -9.2122     34.9958    107.4482   1.1210905950e+02   5.0004698225e+01    0.2608764    0.1382647 -53.72 0.0006788066    1.598    0.374
        44  -9.6868      7.5258    107.8146   1.2034928901e+02   5.2027791560e+01     0.253642    0.1986133   3.65  0.001152954    1.729    0.422
        45  -8.7764    118.9850    107.4734   8.7027341342e+01   3.7445431438e+01    0.2221292    0.1540688  44.38 0.0004166302    1.493    0.330
        46  -9.1533    127.8705    109.8381   8.5257607620e+01   3.5072857991e+01    0.2355609    0.2110315  -8.66 0.0004592543    1.247    0.198
        47  -8.5501     45.5345    106.4566   1.0869224257e+02   4.9190200255e+01    0.1348424    0.1139473 -62.96 7.294167e-05    1.008    0.008
        48  -8.7261     41.4834    106.1050   1.0987704264e+02   4.9695769600e+01    0.2072081    0.1115854 -63.05   0.00048902    1.547    0.353
        49 -10.6743     80.3030    103.5791   9.7296878786e+01   4.5330328822e+01    0.4242971     0.337593  12.27  0.001758521    1.547    0.353
        50 -10.6105     58.4306    101.7249   1.0368121400e+02   4.8832763747e+01    0.5693974     0.225008 -50.57  0.002311577    2.178    0.541
        51 -10.2124      8.8365    102.6154   1.1928370279e+02   5.3159251892e+01    0.3717851    0.1865073 -79.00  0.001955468    1.734    0.423
        52  -9.8853    108.4889    103.0334   8.8782132756e+01   4.0532901840e+01    0.4233384    0.2258189  35.96  0.001136533    2.089    0.521
        53  -8.4770     89.9706    102.4403   9.4072881992e+01   4.4028079759e+01    0.1984131    0.1476595  36.46 1.860525e-05    1.456    0.313
        54  -9.9954     40.7375    101.6754   1.0926982308e+02   5.0828961388e+01    0.3523985    0.2190178 -18.08  0.001195901    2.393    0.582
        55  -9.8142     52.7115    100.6726   1.0526586950e+02   4.9772427225e+01    0.3387445    0.2240889 -29.13 0.0007415926    1.849    0.459
        56  -9.6540     52.6725     97.6916   1.0462947269e+02   5.0484402944e+01    0.2952698    0.2464958  11.17 0.0009600166    1.439    0.305
        57 -10.3996     16.7723     96.4962   1.1593864073e+02   5.4070944328e+01    0.4275133    0.2446067  69.10  0.002181392    2.346    0.574
        58 -10.2430     69.0139     96.1097   9.8994570675e+01   4.8757147492e+01    0.2696449    0.2325797  54.06 0.0007494648    1.320    0.243
        59  -9.4389    147.9352     96.2742   7.6367904270e+01   3.3522466195e+01    0.2216484    0.2082908  39.80 0.0004312659    1.084    0.077
        60  -8.6769     97.1428     96.1429   9.0237662336e+01   4.4220429317e+01    0.1995289    0.1757035  73.87 0.0004689998    1.314    0.239
        61  -9.4900     79.3909     95.3865   9.5509583455e+01   4.7386687705e+01    0.3187471    0.2362663 -47.80  0.001381924    1.226    0.184
        62 -10.1554    137.8726     93.3428   7.8040843901e+01   3.6443172318e+01     0.392711    0.2457405 -40.95  0.001660139    1.567    0.362
        63  -9.3256    139.5101     88.9313   7.6325525374e+01   3.6975497947e+01    0.2415185    0.1536075 -38.83 0.0006648739    1.552    0.356
        64  -9.9506    132.5598     93.5676   7.9485490453e+01   3.7590792134e+01     0.289496      0.26623  -4.21  0.000560049    1.157    0.136
        65  -9.5460     37.6824     93.9366   1.0871734711e+02   5.2959517297e+01    0.2110239    0.1667371 -27.35            0    1.416    0.294
        66  -9.5273      2.4976     90.5201   1.1955627641e+02   5.6310887439e+01    0.2184375    0.1437275 -63.02 0.0009168207    1.152    0.132
        67  -9.8636    153.2485     92.9385   7.4128919534e+01   3.2951391008e+01    0.2339463     0.210428 -63.14 0.0004826811    1.177    0.150
        68  -9.0209     88.9519     92.7127   9.1796337138e+01   4.6437743688e+01    0.2018894    0.1992895  44.62 0.0009827553    1.100    0.091
        69  -9.7700     52.0042     91.3130   1.0339807986e+02   5.2061393831e+01    0.3359767    0.1658579 -54.20  0.001239101    1.693    0.409
        70  -9.3969     15.6071     89.9600   1.1523497967e+02   5.5669775190e+01    0.2300799    0.1727256 -43.26  0.001126961    1.300    0.231
        71  -9.4658     43.8134     91.4329   1.0615563085e+02   5.2934944566e+01    0.2231244    0.1271172  32.94  0.001128344    2.022    0.505
        72  -8.6363     33.4799     91.0308   1.0951717270e+02   5.4029767161e+01    0.2005569    0.1079143 -62.65 0.0004489674    1.533    0.348
        73 -10.9932    121.1308     87.8575   8.0884328931e+01   4.1287506699e+01    0.4825999    0.4309509 -80.83 0.0002899391    1.291    0.225
        74 -11.2760    110.6478     88.3959   8.4020558336e+01   4.3350207342e+01    0.5802326    0.4478023  80.47  0.002674924    1.805    0.446
        75 -10.1919    131.7916     86.8992   7.7713224297e+01   3.9147063499e+01    0.3629874    0.3035792  -6.71 0.0006959008    1.375    0.273
        76 -11.1245    135.0452     82.9158   7.5654580637e+01   3.9213088493e+01    0.3568443    0.3082161 -41.32  0.001790514    1.140    0.123
        77  -9.1251     47.5823     88.9976   1.0433998552e+02   5.3099811015e+01    0.2065277    0.1141482 -58.77  6.31514e-05    1.548    0.354
        78  -9.5071     22.0211     88.9628   1.1293689138e+02   5.5449936081e+01    0.2367227    0.1506236 -44.02 0.0009333323    1.461    0.316
        79  -8.6383     85.5635     87.1916   9.1312892573e+01   4.8252008296e+01    0.2046349     0.128251 -39.65 0.0004520996    1.541    0.351
        80  -9.9490    174.3124     84.3237   6.6954650386e+01   2.9497917430e+01    0.3519891    0.2503411  -2.36   0.00142969    2.003    0.501
        81  -9.0981     66.2577     84.7815   9.6968270463e+01   5.1751433322e+01    0.2497373    0.2028348 -86.79  0.001029079    1.547    0.354
        82  -9.4178     55.1352     80.6670   9.9674543205e+01   5.4133479067e+01    0.2159792    0.1734377   6.32  0.001059851    1.450    0.310
        83 -10.3137     46.0225     84.0264   1.0369465137e+02   5.4417419658e+01    0.2754135    0.2116297 -51.99 0.0003430749    1.094    0.086
        84  -9.8613     50.8705     81.0425   1.0126203454e+02   5.4556084934e+01    0.2699327    0.2190885  22.28 0.0006578543    1.418    0.295
        85  -9.2459     49.3525     77.1977   1.0079281642e+02   5.5596273837e+01     0.262909    0.1969401 -66.94 0.0009890468    1.387    0.279
        86  -9.9489     26.9302     84.5048   1.1040610384e+02   5.6101012036e+01      0.23743    0.1538769 -63.36 0.0004056108    1.270    0.213
        87 -10.3867     75.8823     83.0922   9.3284369756e+01   5.0721749129e+01    0.3051018       0.2664 -71.98 0.0008780489    1.285    0.222
        88  -8.5781     81.5332     84.4875   9.1832937893e+01   4.9518036942e+01    0.2055118     0.127494 -42.14 2.514872e-05    1.500    0.333
        89  -9.2790     80.9636     80.9891   9.0997735469e+01   5.0381463971e+01    0.3069512    0.2332847 -28.47  0.001132369    1.350    0.259
        90  -8.7443     70.5089     83.8858   9.5296397708e+01   5.1349245059e+01    0.2198193    0.1259607 -49.57  0.001015747    1.550    0.355
        91  -8.3305     57.2649     84.3184   9.9897028790e+01   5.3042223873e+01    0.1394116   0.09308379 -33.64 0.0002759233    1.552    0.356
        92  -8.5874     33.9519     84.2257   1.0792261445e+02   5.5566316164e+01    0.1447002    0.1084228  23.39 0.0004435533    1.601    0.375
        93 -10.0065    158.3147     83.1503   7.0082178922e+01   3.3644739543e+01    0.2482932    0.2015497 -14.50  0.000483623    1.397    0.284
        94 -10.9800    143.8390     81.7807   7.3090422364e+01   3.7387380466e+01       0.4179    0.4011887  60.59  0.001768289    1.074    0.069
        95 -10.2166    100.8899     82.8592   8.5255831129e+01   4.6451110885e+01    0.2625055    0.2175565  35.90 0.0009949465    1.268    0.212
        96 -11.8700    104.8488     78.3759   8.2671625746e+01   4.6623896613e+01    0.6048985    0.4961197 -12.04  0.001563586    1.347    0.258
        97 -10.1353    110.5037     71.9429   7.8927907821e+01   4.6775276221e+01    0.2631436    0.2209841  -1.80 0.0003746521    1.306    0.234
        98  -8.6524      1.6173     83.1766   1.1875671736e+02   5.8027002270e+01    0.1558754    0.1322976 -74.10 0.0007768657    1.140    0.123
        99 -11.5388    124.4977     85.5437   7.9259741442e+01   4.1042216900e+01    0.6135651    0.4290739 -48.98  0.001905031    1.449    0.310
       100 -10.6694      6.6332     80.3365   1.1660553060e+02   5.8412855013e+01    0.2573022    0.2103132  56.42 0.0002684498    1.516    0.340
       101  -9.0655      4.7052     75.6672   1.1646824925e+02   5.9565696263e+01    0.3482527    0.1517173 -79.83  0.001338473    2.490    0.598
       102 -10.5614    152.3822     79.6647   7.0400037315e+01   3.5746388029e+01    0.5037799    0.2215659  43.87   0.00161706    2.412    0.585
       103  -9.2097     22.2161     80.0745   1.1113894338e+02   5.7479559454e+01    0.2471858    0.1296312 -50.71 0.0007729928    1.525    0.344
       104 -10.3706     21.0483     75.2774   1.1054993273e+02   5.8651293045e+01    0.4040889    0.1914816 -64.77 0.0008813237    1.765    0.433
       105  -8.5386     43.8172     79.0871   1.0325188586e+02   5.5777490233e+01    0.1857035    0.1306984 -38.98 0.0006301904    1.314    0.239
       106  -8.6705     15.5107     79.0467   1.1329154809e+02   5.8178300845e+01    0.1842286   0.09814129 -64.60 0.0003895992    1.483    0.326
       107  -9.5184     28.2003     78.0450   1.0858086796e+02   5.7474330626e+01     0.187186    0.1636977 -44.29 0.0003055245    1.110    0.099
       108 -10.9135     77.1248     75.2289   9.0540038849e+01   5.2244699504e+01    0.5351202    0.2853158  26.56 0.0009265792    2.339    0.572
       109  -9.5768     84.1833     73.8002   8.7739742637e+01   5.1387765416e+01    0.3935006    0.2551325  40.50  0.001896278    1.665    0.400
       110 -11.5127    158.0262     73.0269   6.7091085250e+01   3.5587077352e+01      0.64367     0.374936 -37.90   0.00225937    1.694    0.410
       111 -11.2804    162.7440     67.7298   6.4445422128e+01   3.5344115703e+01    0.6551436    0.3772991  48.21  0.002720715    1.740    0.425
       112 -11.7778    151.9052     65.6216   6.6150154298e+01   3.8407879434e+01    0.7231807    0.3990574 -35.84  0.002953782    1.805    0.446
       113 -12.0629    143.0678     69.4753   6.9436254222e+01   3.9883335510e+01    0.7153655     0.505119  67.15  0.002402206    1.659    0.397
       114  -9.7549     63.6993     70.5864   9.3775570902e+01   5.5234106617e+01    0.4135329    0.2093548  41.38  0.001553651    2.288    0.563
       115  -9.5631     54.3399     74.3309   9.8224086992e+01   5.5643198978e+01    0.3112362    0.1952537 -25.22  0.001219884    1.881    0.468
       116  -9.6312     57.6639     71.6152   9.6247314558e+01   5.5819219996e+01     0.298981    0.2267294 -17.51  0.001155854    1.437    0.304
       117  -9.3213     10.2945     73.6398   1.1410326539e+02   5.9716301762e+01    0.2877671    0.1703554  61.94  0.001121046    2.495    0.599
       118  -9.8158     97.5013     73.4984   8.3366698447e+01   4.9051864489e+01    0.2498011    0.1974438  28.33  0.001213311    1.345    0.257
       119 -10.3028     97.1322     69.3376   8.2121207611e+01   4.9961275099e+01     0.326956       0.2264 -38.40 0.0005437238    1.370    0.270
       120  -9.6176     45.1404     72.5372   1.0106585184e+02   5.7100250868e+01    0.2920345    0.2169772  85.61  0.001083099    1.971    0.493
       121  -9.0501    177.3490     72.3276   6.2859389049e+01   3.0883389621e+01    0.1626374     0.120489  20.19 2.244607e-05    1.758    0.431
       122  -8.8768     75.2650     71.0211   8.9863199886e+01   5.3430761448e+01     0.190645    0.1642627 -38.31  0.000205189    1.053    0.050
       123  -8.7435     38.9029     71.4703   1.0308132119e+02   5.7981553762e+01    0.1637887    0.1287777  14.97 0.0004160537    1.479    0.324
       124  -8.8446     56.9268     89.5020   1.0132055837e+02   5.1892758801e+01    0.1891512    0.1378628  30.16  0.001025454    1.569    0.363
       125  -9.0789     27.7089     68.8313   1.0660024865e+02   5.9575562183e+01     0.243698    0.1427391 -24.91  0.001280854    1.986    0.496
       126 -10.1249     88.5615     66.3147   8.3859279928e+01   5.2152468833e+01    0.3440334    0.2805758 -68.45  0.001035611    1.575    0.365
       127 -10.2890     89.3555     60.2558   8.1519336215e+01   5.3186537400e+01     0.536993    0.3466771 -37.54  0.002601449    1.460    0.315
       128  -9.8902    105.0157     66.9822   7.8909630587e+01   4.8869032412e+01    0.2600656    0.2236916  37.33  0.001380792    1.192    0.161
       129  -8.3768    112.6792     63.3050   7.5403128970e+01   4.7963183071e+01    0.2417464    0.1440337  51.67   0.00036208    1.796    0.443
       130 -10.2864    108.7620     62.8535   7.6387629625e+01   4.8876620091e+01    0.5407702    0.2746278 -35.15  0.002086702    1.964    0.491
       131 -10.0558    111.8387     56.0347   7.3110432365e+01   4.9446947296e+01    0.3698744    0.2398808 -18.30  0.001120587    1.816    0.449
       132  -8.8867     70.5914     67.2359   9.0281278103e+01   5.4941198403e+01    0.2027777    0.1169383 -37.85 0.0009414093    1.623    0.384
       133  -8.2114     14.6644     67.7564   1.1127893878e+02   6.0759468700e+01     0.121023   0.07323233 -37.11 0.0001805104    1.551    0.355
       134  -9.1768    201.4960     64.9572   5.6468987243e+01   2.6061444301e+01     0.225154    0.1433058 -34.01 0.0004171114    1.532    0.347
       135 -10.4071    172.3006     63.1186   6.1105113380e+01   3.3709193689e+01    0.4393575    0.2888351 -18.64  0.001835982    1.834    0.455
       136 -10.5481     44.4594     63.6313   9.8793141483e+01   5.9103734809e+01    0.3492196    0.3157977   8.84  0.002279219    1.239    0.193
       137 -11.4600      3.0627     61.6918   1.1442165328e+02   6.2728414145e+01    0.5046749    0.1705075 -47.65  0.002176509    2.179    0.541
       138  -9.3592     26.0039     56.1372   1.0391174853e+02   6.2448571211e+01    0.1988951    0.1648812   0.34   0.00058312    1.347    0.258
       139 -10.0291     32.5455     63.1681   1.0326735446e+02   6.0392373699e+01    0.4121154    0.2866461 -82.86  0.001969315    2.014    0.503
       140  -9.2965     30.0454     56.6403   1.0241449659e+02   6.2000399070e+01    0.2382145    0.1414317 -46.00  0.000553706    1.342    0.255
       141  -9.3098     29.3370     52.8767   1.0158735444e+02   6.2843862927e+01    0.2108217    0.1571045 -50.60 0.0004450856    1.162    0.139
       142 -11.2349    152.4382     73.3860   6.8461850332e+01   3.6897372473e+01    0.4789172    0.4068341  55.47  0.001853197    1.191    0.161
       143  -9.3976     66.8538     62.3110   9.0005399747e+01   5.6508296845e+01    0.3937285    0.1786401 -52.04   0.00112356    2.247    0.555
       144  -9.7663     69.6912     56.0665   8.6836392061e+01   5.7317538137e+01    0.4521522    0.2022647 -34.43  0.001838255    2.324    0.570
       145  -9.9530    162.3480     60.9725   6.2437841883e+01   3.6581272993e+01    0.3546869    0.2450743  -5.84  0.001509751    1.970    0.492
       146 -10.4054    159.2421     57.6126   6.2025098461e+01   3.7912048476e+01    0.5059369    0.3195232  -9.88  0.001513215    2.245    0.555
       147 -10.2235    162.8193     52.5555   5.9703666765e+01   3.7801443209e+01    0.4420074    0.2724575 -31.69  0.001946841    1.656    0.396
       148 -10.5596    131.8471     62.1286   6.9812619974e+01   4.3861908307e+01    0.5966677    0.2241165  54.76  0.001984383    2.860    0.650
       149  -9.3438     50.3204     59.8729   9.5385116818e+01   5.9217682333e+01    0.1832713    0.1749185  -2.53 0.0003260786    1.189    0.159
       150  -9.1809    184.0081     58.2152   5.7488035844e+01   3.1520246004e+01    0.3152069    0.2536556  -9.74  0.001555302    1.463    0.317
       151 -10.0438    212.4350     49.9114   5.0765065759e+01   2.5642607649e+01     0.729462    0.1884102  57.98  0.002348853    3.541    0.718
       152 -10.8549    203.8246     51.4662   5.2400014721e+01   2.7543783234e+01    0.5362567    0.4388913  69.84  0.002475872    1.225    0.184
       153 -10.2774    150.8976     57.8373   6.3880520743e+01   3.9968405546e+01    0.3006047    0.2744898  57.25 0.0003268717    1.090    0.082
       154 -10.6088    147.9834     54.9529   6.3584299722e+01   4.1160116522e+01     0.328207    0.2759775  20.85 0.0004539209    1.305    0.234
       155  -9.5539    144.9792     52.9656   6.3598929296e+01   4.2221070226e+01    0.2212014     0.220171 -22.84 0.0003677953    1.032    0.031
       156 -10.1990     96.1817     56.1921   7.7877447974e+01   5.2646090415e+01    0.4616209    0.3212389   2.70  0.001609092    1.861    0.463
       157 -10.3449     59.5799     57.1095   9.0943491275e+01   5.8586636221e+01    0.4726217    0.3037987  30.76   0.00204979    1.704    0.413
       158  -8.9398    125.8824     57.1005   6.9642247383e+01   4.6119899856e+01    0.2107415    0.1991085 -65.83 0.0003264234    1.179    0.152
       159  -8.4312     34.3542     57.6745   1.0098273429e+02   6.1390508233e+01    0.2131764    0.1101627 -59.55 0.0009623392    1.866    0.464
       160  -9.1004     35.6548     52.9694   9.9013247546e+01   6.2236674824e+01    0.3118681    0.1733948 -50.58  0.001665535    1.507    0.336
       161  -9.4777    104.9902     56.0523   7.5120177615e+01   5.0895199143e+01    0.2570478    0.1985714  42.60 0.0002899439    1.313    0.238
       162  -8.8051     90.3298     48.0059   7.6733132581e+01   5.5216331558e+01    0.3196898    0.1902593  49.80  0.001483116    1.876    0.467
       163  -8.9254     78.3146     56.0588   8.3765230593e+01   5.5926635577e+01    0.2280002    0.1790223  -6.64 0.0008519598    1.337    0.252
       164 -10.7782     82.6627     47.7078   7.9177914801e+01   5.6687442665e+01    0.6464569    0.4429035 -23.89  0.002241658    1.446    0.308
       165  -8.3711    222.2818     55.6062   5.0933259173e+01   2.2434831925e+01    0.1569073   0.09602255 -58.96 0.0004471571    1.755    0.430
       166  -9.4250     86.4879     54.7015   8.0486225526e+01   5.4747227507e+01    0.2348563     0.212084  36.24 0.0006322422    1.202    0.168
       167 -10.1472    174.0055     52.8044   5.7659545377e+01   3.4907138481e+01    0.3806576    0.2027778 -31.90  0.001563045    1.904    0.475
       168 -10.0267    134.3303     54.4163   6.6586163283e+01   4.4579888257e+01    0.3277277    0.2479572  46.71  0.001355619    1.295    0.228
       169 -10.6265    179.1698     51.9586   5.6483420707e+01   3.3713728232e+01    0.5014985    0.2545911 -45.21  0.001417391    2.021    0.505
       170  -8.5926    122.0294     53.4710   6.9392490676e+01   4.7615675410e+01    0.2178896    0.1429505  47.41 1.501783e-05    1.502    0.334
       171  -9.5673    126.1004     50.4989   6.7284400792e+01   4.7160331460e+01    0.3512069    0.2752982 -24.25  0.001113697    1.300    0.231
       172  -9.0871    121.8801     48.8652   6.7796626099e+01   4.8399046281e+01    0.3361187    0.2418896  76.52  0.001536337    1.912    0.477
       173  -9.1774     43.3324     48.6952   9.4444147701e+01   6.2279094087e+01    0.3122314    0.1926018 -44.95  0.001224773    1.380    0.275
       174 -11.3109     17.9261     51.1527   1.0585389692e+02   6.4100699642e+01    0.4217759     0.250155  -3.24  0.001361634    2.059    0.514
       175 -10.1697     48.2826     49.5412   9.2727611413e+01   6.1534270037e+01    0.5836043    0.4048477   8.53  0.003301057    1.623    0.384
       176 -11.9584     59.2255     47.9845   8.7839737389e+01   6.0397113195e+01    0.6324624    0.3551655  24.25  0.001919764    2.044    0.511
       177  -9.0083    101.6725     48.2943   7.3282233783e+01   5.2912540758e+01    0.2706323    0.2177137 -72.16  0.001362557    1.786    0.440
       178  -9.6192     97.0225     47.7804   7.4515959599e+01   5.3944621232e+01    0.4015795    0.2204941 -30.51 0.0009768941    1.828    0.453
       179 -10.5045    200.5038     56.1778   5.4198209735e+01   2.7670889071e+01    0.5262169    0.3335329  26.05  0.001772197    2.425    0.588
       180  -9.3197     34.7113     47.4143   9.7596452929e+01   6.3444538137e+01    0.2192454    0.1927328  86.08 0.0005194776    1.666    0.400
       181  -9.8343     10.3001     47.9044   1.0820625478e+02   6.5263787835e+01    0.1975185     0.174176 -30.56 0.0004806943    1.190    0.160
       182  -9.4279    206.2377     53.9942   5.2738006031e+01   2.6571895744e+01    0.3141231    0.2312299 -17.33 0.0008249303    1.591    0.372
       183  -9.1860    175.1706     44.8147   5.5023095969e+01   3.5784768431e+01     0.198608     0.166757  35.72 0.0002822108    1.298    0.229
       184 -10.9031    167.4192     43.1598   5.5879413359e+01   3.8010383542e+01    0.3643892    0.3139308  30.47 0.0007366629    1.262    0.208
       185 -10.1524    106.6676     51.2557   7.2888613420e+01   5.1372226074e+01    0.2536551    0.2447872  18.96 0.0002870227    1.085    0.078
       186 -10.6396    143.0296     42.0137   6.0334053505e+01   4.4355240281e+01    0.5239791    0.4203871 -37.56  0.002711141    1.288    0.223
       187  -9.5912    108.5238     43.7084   6.9551900362e+01   5.2198012432e+01    0.3361853    0.2318655  38.89  0.001147567    1.423    0.297
       188  -8.6911    112.0056     49.4813   7.0704633821e+01   5.0517261010e+01    0.1944683    0.1336752  79.54 0.0005105075    2.439    0.590
       189  -8.9356    187.5978     43.2460   5.2523365942e+01   3.2819480581e+01    0.1950615     0.143482 -16.79 0.0008005035    1.583    0.368
       190  -9.1572     74.5209     42.8681   8.0158030457e+01   5.8939445492e+01    0.3046091    0.1946763 -37.86  0.001567668    1.480    0.324
       191  -8.0173     70.2462     43.2822   8.1875680621e+01   5.9575660059e+01    0.1307597   0.09409965  -9.68 0.0002053521    1.459    0.315
       192 -10.5961     32.2680     38.0801   9.5372340170e+01   6.5480741786e+01    0.7018371    0.1815935 -43.22  0.002721694    3.059    0.673
       193  -8.9737     27.8233     36.4610   9.6772512169e+01   6.6208167264e+01    0.1935595    0.1396856 -46.15  0.001059249    1.247    0.198
       194  -8.7459      8.6996     43.0738   1.0756783602e+02   6.6341992728e+01    0.1640888    0.1141866 -49.42 0.0003048537    1.097    0.088
       195  -9.8345    204.7808     41.5218   4.9545448066e+01   2.8713626695e+01    0.3662328    0.2652161 -84.42  0.001838842    1.487    0.328
       196  -8.9364     98.5981     41.3574   7.1574818858e+01   5.4662083983e+01    0.2646742    0.1806214 -32.08  0.001330624    1.438    0.304
       197  -9.1812     63.6012     41.2566   8.3576884447e+01   6.0969866489e+01    0.2084051    0.1862271 -36.99 0.0007827285    1.243    0.195
       198  -9.9160     56.3221     41.4082   8.6482839146e+01   6.2003564362e+01    0.2811305    0.2403298  62.50   0.00168301    1.768    0.434
       199  -9.0595     45.3299     41.6745   9.1077839635e+01   6.3381579802e+01    0.2832082    0.2042757 -30.32  0.001698257    1.171    0.146
       200  -9.5422     45.8837     39.1716   8.9889589816e+01   6.3771867231e+01    0.2751546     0.159606  39.62  0.001236323    2.096    0.523
       201  -9.6116     48.3085     36.6647   8.7884199165e+01   6.3914490782e+01    0.2279021    0.1697907 -20.10 0.0007344353    1.180    0.153
       202  -9.0335    196.9948     41.0027   5.0483556483e+01   3.0740177140e+01    0.2307747    0.1714471  30.65  0.001129018    1.697    0.411
       203  -9.2722     17.3828     41.1370   1.0309811037e+02   6.6165489928e+01    0.1970552    0.1434578 -21.80 0.0006585874    1.293    0.226
       204 -10.7063    156.7450     38.3787   5.6329429563e+01   4.1404478658e+01    0.5626578    0.3522159  49.04  0.002587522    1.547    0.353
       205  -9.3818    162.1625     37.5994   5.5070288833e+01   4.0124424333e+01    0.3039568     0.222863  46.69 0.0007979503    1.356    0.263
       206  -9.3403    149.5817     39.0476   5.7956969876e+01   4.3130223547e+01    0.3894293    0.1625867 -34.77  0.001475714    2.377    0.579
       207 -10.6759    127.2860     36.9267   6.2123243042e+01   4.8907919013e+01    0.4358774    0.3466006 -39.77  0.001827692    1.336    0.252
       208  -8.8940    122.2846     38.5868   6.3956931103e+01   4.9855258153e+01    0.2107122    0.1387266  53.00 0.0003408228    1.477    0.323
       209  -7.9680     92.6687     40.7462   7.3178854302e+01   5.5953298783e+01    0.1414614    0.1006802  15.27 0.0002778584    1.558    0.358
       210  -9.8317     81.3164     26.3008   7.0931574907e+01   6.0274261057e+01    0.3859432    0.2853639 -49.57  0.002092678    1.788    0.441
       211 -10.2720     81.8412     36.9582   7.5225111411e+01   5.8612795410e+01    0.3669408    0.2727049 -25.57  0.001115453    1.265    0.209
       212 -10.4447     78.3077     31.6702   7.4249880061e+01   6.0063716694e+01    0.4303373    0.2507533 -21.20  0.001127212    1.783    0.439
       213  -9.3559     75.1071     37.9291   7.7972377941e+01   5.9659094116e+01    0.1972191    0.1737853 -12.88 0.0003516594    1.056    0.053
       214  -9.3944     70.3020     37.4134   7.9507802504e+01   6.0555086180e+01    0.3440248     0.229379  46.29  0.001821534    1.750    0.429
       215  -9.4217    247.4661     35.9128   4.3247928751e+01   1.9370521381e+01    0.4306332    0.2224841 -74.29  0.001894478    2.465    0.594
       216  -8.6763    110.4921     37.0214   6.6461004320e+01   5.2766031552e+01    0.2149448    0.1382685 -25.75  0.001024913    1.582    0.368
       217  -8.4106    102.2019     36.7645   6.8707295426e+01   5.4602823945e+01    0.1942265    0.1518904  10.56 0.0004572339    1.323    0.244
       218  -9.2591     62.2236     36.3057   8.2113625295e+01   6.2021635945e+01    0.2969684    0.1863455  20.56  0.001125859    1.748    0.428
       219  -9.1381    191.2073     34.8243   4.9557406109e+01   3.3032974355e+01    0.2969639    0.1975034  58.42 0.0009578143    1.462    0.316
       220  -8.4386    194.4558     32.4848   4.8441522811e+01   3.2508274110e+01    0.1904177     0.140577 -17.90 0.0005585182    1.573    0.364
       221  -9.3709    169.8965     34.7875   5.2834146226e+01   3.8508236496e+01    0.2250085    0.1948812  40.29 0.0006355908    1.208    0.172
       222  -8.5180    106.8102     35.5454   6.6911226144e+01   5.3787046729e+01    0.1798668    0.1372424  63.19 0.0009211397    1.531    0.347
       223  -8.1774     90.6952     35.7445   7.1812973763e+01   5.7110686547e+01    0.1377297   0.09834171  14.97 0.0001637165    1.511    0.338
       224 -10.8880    236.3523     31.7527   4.3357896477e+01   2.2413839899e+01    0.4992293    0.3926333  68.24  0.002938365    1.328    0.247
       225 -10.4988    238.5795     22.9903   4.1066536430e+01   2.2994081252e+01    0.3861229    0.2745594  69.02  0.001153381    1.436    0.303
       226  -9.2295    184.7725     33.3129   5.0050904433e+01   3.4872755487e+01    0.2445917    0.2106992 -32.44 0.0007182534    1.214    0.177
       227  -8.8639    150.1389     34.1164   5.6190448544e+01   4.3649622582e+01    0.2156851    0.1878068  28.50 0.0002870389    1.196    0.164
       228  -9.4262    114.4832     33.1070   6.3893051358e+01   5.2415135741e+01     0.256212    0.2203376 -69.97  0.001145455    1.483    0.326
       229  -8.5110     86.4915     34.5121   7.2670088891e+01   5.8113006445e+01    0.1387415    0.1216377   3.33 0.0008104645    1.015    0.015
       230  -8.7237    161.9670     33.0360   5.3641946923e+01   4.0772745414e+01    0.2332723    0.1670161  27.16 0.0006788206    1.673    0.402
       231  -9.5102    142.6565     32.4337   5.7114181804e+01   4.5748729790e+01    0.3486513    0.2399795  24.31  0.001639392    1.726    0.421
       232  -9.0406    120.3539     32.0243   6.1992337888e+01   5.1206501408e+01    0.2356623    0.2299119  41.80 0.0006057966    1.096    0.088
       233 -10.1032    125.4838     30.0856   6.0034967853e+01   5.0247294412e+01    0.4332567     0.202838  42.06 0.0006861092    2.154    0.536
       234  -8.5980    101.0000     29.9337   6.6337066343e+01   5.5817768585e+01    0.2737288    0.1036292 -29.53  0.000501791    2.675    0.626
       235  -9.2653     51.7520     32.2978   8.4655516991e+01   6.4203967941e+01    0.3436873    0.1619621 -43.71   0.00163844    2.050    0.512
       236  -9.4764    237.4024     26.8004   4.2074532581e+01   2.2796199010e+01    0.2377317    0.2249245 -17.65  0.001067895    1.293    0.227
       237  -8.6390    204.6454     31.6808   4.6889586392e+01   3.0045533048e+01    0.2574483    0.1193298  57.13  0.001080958    2.099    0.524
       238 -10.1724    201.1304     29.2761   4.6676361986e+01   3.1227614049e+01    0.3642206    0.2318215  65.92 0.0003641758    1.507    0.336
       239  -8.9596     20.7246     30.9130   9.8014110361e+01   6.7855446422e+01    0.1932326    0.1386386  -9.30 0.0009707927    1.362    0.266
       240  -8.7323    229.5597     29.0183   4.3381969058e+01   2.4337781645e+01    0.1906316    0.1248611 -33.12 0.0003552697    1.504    0.335
       241 -10.1657    181.6992     27.4951   4.8785812441e+01   3.6386729554e+01    0.6136557    0.3074776  32.20  0.002208972    3.308    0.698
       242  -8.4185    117.6979     23.3293   5.9320485097e+01   5.2912440376e+01    0.2216701    0.1332746  67.04  0.001009107    1.897    0.473
       243  -9.2087    119.7159     19.4170   5.7336816971e+01   5.2886397948e+01    0.3919166    0.2220334  28.00  0.001425654    2.073    0.518
       244  -8.7691    116.5560     28.5533   6.1615033515e+01   5.2537800967e+01    0.2361169    0.1997689   2.82  7.82208e-05    1.194    0.163
       245  -9.6615    120.9555     26.2347   5.9656164943e+01   5.1800804905e+01    0.4959344    0.1836619  56.67  0.001514339    2.519    0.603
       246  -9.3561    107.9437     29.2772   6.4137903879e+01   5.4393949679e+01    0.5014853     0.167259  58.49  0.001655907    3.552    0.718
       247  -8.5490     70.3858     29.3435   7.6085254602e+01   6.1802374112e+01    0.1782014    0.1152212 -38.46 0.0009412822    1.584    0.369
       248  -8.9910     68.9982     25.4603   7.4897069090e+01   6.2605084167e+01    0.1930269      0.15939  14.86  0.001187085    1.105    0.095
       249  -8.2686     65.2503     29.6227   7.8127842983e+01   6.2612731207e+01    0.1211659     0.099362 -52.03 0.0006954804    1.646    0.392
       250 -10.3118     47.9479     27.9250   8.4391074761e+01   6.5433807187e+01    0.3092857     0.195692 -14.25  0.001303357    1.621    0.383
       251 -10.1254     16.6440     27.3297   9.8630022448e+01   6.8834644800e+01     0.309142    0.1623236 -33.89 0.0009647648    1.565    0.361
       252  -9.4596    215.5054     27.8853   4.4600111860e+01   2.7842235083e+01     0.215281    0.1829502  46.07 0.0006227248    1.365    0.268
       253  -9.4605    222.0135     26.4963   4.3539531173e+01   2.6440967205e+01    0.2115277     0.189589 -13.76 0.0003670991    1.344    0.256
       254  -8.6665     74.5023     27.5474   7.3820989272e+01   6.1348487386e+01    0.1335697    0.1145853   1.69 2.099244e-05    1.005    0.005
       255  -8.3175     31.2680     26.6732   9.1338936545e+01   6.7622993591e+01    0.1606259    0.1306745 -32.08  0.000488939    1.165    0.142
       256  -9.3259     29.6476     23.0902   9.0575971556e+01   6.8394981666e+01    0.2367245     0.135564 -33.35 0.0006207933    1.431    0.301
       257  -8.7983     57.7743     30.9805   8.1637657103e+01   6.3559596760e+01    0.1914827    0.1477176 -59.22 0.0009695822    1.979    0.495
       258  -8.8649    197.2893     25.9891   4.6254765842e+01   3.2597118714e+01    0.1911061     0.175757 -61.16  0.000545545    1.067    0.063
       259  -9.1909    227.8828     23.9810   4.2316830628e+01   2.5353475536e+01    0.3775277    0.1792262 -77.73  0.001488599    2.893    0.654
       260 -10.0480    179.3199     22.9566   4.7778551680e+01   3.7534735318e+01    0.3229004     0.246934 -50.13  0.000995369    1.331    0.248
       261  -8.4842     35.2962     24.6589   8.8601079086e+01   6.7523605092e+01    0.1063135   0.09571652 -59.68 0.0007032063    1.661    0.398
       262  -9.5713    104.8101    248.6302   1.1398410475e+02   1.0179068366e+01    0.3955368    0.2232671  25.07  0.001986268    2.778    0.640
       263  -8.6010     62.7779     23.3909   7.6319591823e+01   6.3933486956e+01    0.1719129    0.1091018  26.53 0.0005035624    1.562    0.360
       264  -9.9115     53.7344     20.4428   7.8581642282e+01   6.5759220126e+01    0.3589992    0.2456601  -6.33  0.002098584    1.409    0.290
       265 -10.1635      1.7953     22.1763   1.0422086791e+02   7.0748055926e+01    0.2341255    0.1544017 -46.89  0.001018439    1.182    0.154
       266  -9.7227      8.1169     22.1849   1.0095189550e+02   7.0369067356e+01    0.2893482    0.1844641  -5.68  0.001154284    1.609    0.379
       267  -9.4245    131.5971     20.6692   5.5212185578e+01   4.9893844839e+01    0.4077732    0.2697239 -74.83  0.001839878    2.247    0.555
       268 -12.9231     76.4626    218.8484   1.1639991015e+02   1.9619202850e+01     1.782936    0.6156117  46.23  0.005128988    2.371    0.578
       269  -9.1504     89.1364     20.8935   6.6084285022e+01   5.9447623986e+01    0.2470418    0.1806979 -14.17 0.0003969028    1.340    0.254
       270 -10.9085     69.2683    217.8011   1.1769796293e+02   2.0810783851e+01    0.3929503    0.2330662 -77.29  0.001365342    1.682    0.405
       271  -9.4762    222.6688     20.1226   4.1880611418e+01   2.7050520572e+01    0.2491128    0.1789699  66.39 0.0007376517    1.390    0.281
       272 -10.3285    149.7917     18.1586   5.0873214683e+01   4.5630270725e+01    0.2801006    0.2479011 -29.49 0.0004304657    1.214    0.176
       273  -9.9336     38.0617     17.9851   8.4293488000e+01   6.8251566332e+01    0.3268893    0.1719461  18.83 0.0003438561    2.150    0.535
       274  -9.9011     28.8156     18.3249   8.8851885186e+01   6.9256874771e+01    0.2391394    0.1688362 -29.43 0.0007279644    1.150    0.131
       275 -10.2089    134.2686    205.8438   1.0303971563e+02   1.3056151521e+01    0.2945966    0.2107342  27.25  0.001587523    1.560    0.359
       276  -9.1347    124.0186    206.0016   1.0520579525e+02   1.4775619927e+01    0.1847555    0.1645906  50.61            0    1.057    0.054
       277  -9.2725      1.3736    185.3491   1.2842746458e+02   3.4979227105e+01    0.3169502     0.079225 -76.62  0.001386866    3.087    0.676
       278 -10.6579      4.8952    168.3584   1.2665410380e+02   3.8343985915e+01    0.3925712    0.1543646  46.81  0.002103328    2.352    0.575
       279 -10.6709     18.0197    158.1975   1.2298841095e+02   3.9521450341e+01    0.3765463    0.1611567  69.88  0.001528797    2.697    0.629
       280 -10.0174      5.4680    150.4366   1.2519108800e+02   4.2302206818e+01    0.1966543    0.1488662 -73.93  0.000622717    1.179    0.152
       281 -10.8619      2.1993    153.4772   1.2616690221e+02   4.1856187707e+01    0.2869003    0.1789247 -77.73  0.000805848    1.244    0.196
       282  -8.4701     36.6480    147.6868   1.1745956963e+02   4.0201909770e+01    0.1262803   0.08803872 -44.36 0.0007045739    1.728    0.421
       283  -9.7629     21.7802    142.0004   1.2050820542e+02   4.2943966876e+01    0.1854178    0.1613766  71.15 0.0003141491    1.197    0.164
       284  -8.7114     35.8075    142.3647   1.1701972971e+02   4.1550065711e+01    0.1549817    0.1255293   9.76 0.0005088606    1.717    0.418
       285 -10.6385      6.6788    140.2597   1.2403672501e+02   4.4539241953e+01    0.4467917    0.2160299 -36.48  0.001551007    3.424    0.708
       286 -13.1106    234.0361    128.3916   6.7189966579e+01   7.8949248299e+00     1.127644    0.8635852 -45.13  0.005982286    1.323    0.244
       287 -12.4689    219.5130    118.9201   6.7444791909e+01   1.2567273441e+01     2.893619     1.293173 -22.82  0.009220986    3.520    0.716
       288  -9.7781     33.0305    127.9220   1.1585151482e+02   4.5274166668e+01    0.3335457     0.158095 -66.29  0.001045005    1.706    0.414
       289  -9.9870     30.9844    124.2532   1.1590145760e+02   4.6343918206e+01    0.3398121    0.2239899  -5.31 0.0002204566    2.407    0.585
       290  -9.8451     37.3132    126.5500   1.1447950815e+02   4.5190116461e+01    0.2250836    0.1391137 -81.25 0.0006796487    1.511    0.338
       291 -10.0635     48.8735    125.1358   1.1102907548e+02   4.4311213382e+01    0.2823413    0.2062716 -47.13  0.001231601    1.406    0.289
       292  -9.2343     74.7625    122.2619   1.0311351564e+02   4.1681017805e+01    0.3518943    0.1982861  50.78  0.001570464    2.026    0.506
       293  -8.8667     13.2674    123.1520   1.2060252124e+02   4.8049994833e+01    0.1590319    0.1362895 -62.72 0.0004773257    1.202    0.168
       294  -8.5714      2.0021    123.2671   1.2360079808e+02   4.8774097241e+01    0.1191794    0.1051304  34.25 0.0007306234    1.459    0.315
       295  -8.9059     90.1093    121.8045   9.8639386604e+01   3.9413468745e+01    0.2128008    0.1865669  86.27 0.0003041113    1.197    0.164
       296  -9.9173     69.5759    118.0171   1.0375177280e+02   4.3446044849e+01     0.350029    0.2350411 -79.31 0.0008454639    1.665    0.400
       297  -9.7941     98.2827    117.5069   9.5344303175e+01   3.9047251795e+01    0.2580485    0.2512389 -45.75 0.0007066129    1.067    0.063
       298  -9.8846     58.0541    117.6613   1.0706066119e+02   4.5043174727e+01    0.2602239    0.2101744   4.36  0.001348989    1.620    0.383
       299 -10.3778     26.1902    116.4429   1.1613904849e+02   4.8633071520e+01    0.3353109     0.281812 -43.10   0.00151548    1.322    0.244
       300  -8.8023     20.6040    118.3286   1.1798563144e+02   4.8638023872e+01    0.1799458   0.09089436 -62.48 0.0009369871    1.562    0.360
       301 -10.1700     11.6512    114.8919   1.2005733133e+02   5.0104291526e+01     0.263567    0.1837493 -46.32 0.0008703655    1.502    0.334
       302  -9.9138     38.8349    114.2621   1.1211774144e+02   4.8000965977e+01    0.2508107    0.1562848  33.73  0.001232256    1.852    0.460
       303  -9.6688      2.2021    113.4375   1.2251750168e+02   5.1038469022e+01    0.3428419    0.2063368  84.48  0.001930697    1.579    0.366
       304  -8.6980     90.3868    111.8284   9.6272159342e+01   4.1749684589e+01    0.2233299     0.176861 -71.63 0.0005320235    1.326    0.246
       305  -9.3350     49.9177    112.0756   1.0842345948e+02   4.7356862841e+01    0.2049488    0.1677059 -89.53 0.0005215092    1.249    0.199
       306 -10.1131     16.7534    104.2535   1.1713587624e+02   5.2253297662e+01    0.2625079     0.173446 -59.57  0.000812051    1.230    0.187
       307 -10.1743     14.4657    109.4913   1.1855383367e+02   5.1180820338e+01    0.3621573    0.1987011  73.76  0.001839384    2.235    0.553
       308 -10.7607     17.4509    108.4642   1.1753657670e+02   5.1211245102e+01    0.6869903    0.1741643  41.91  0.002566859    4.558    0.781
       309  -9.0637     29.1570    138.3659   1.1822990044e+02   4.3142489523e+01    0.2005945    0.1255252  23.06  0.001089002    2.071    0.517
       310  -9.7315     27.4421    108.6539   1.1459320433e+02   5.0385502022e+01     0.360011    0.1753989 -76.56  0.001705392    1.958    0.489
       311 -12.8359    228.3889    135.5703   6.9828396512e+01   7.8086179198e+00     1.046626    0.7037581  44.32  0.005202925    1.579    0.367
