#   1 NUMBER                 Running object number                                     
#   2 MAG_AUTO               Kron-like elliptical aperture magnitude                    [mag]
#   3 X_IMAGE                Object position along x                                    [pixel]
#   4 Y_IMAGE                Object position along y                                    [pixel]
#   5 X_WORLD                Barycenter position along world x axis                     [deg]
#   6 Y_WORLD                Barycenter position along world y axis                     [deg]
#   7 A_WORLD                Profile RMS along major axis (world units)                 [deg]
#   8 B_WORLD                Profile RMS along minor axis (world units)                 [deg]
#   9 THETA_WORLD            Position angle (CCW/world-x)                               [deg]
#  10 FWHM_WORLD             FWHM assuming a gaussian core                              [deg]
#  11 ELONGATION             A_IMAGE/B_IMAGE                                           
#  12 ELLIPTICITY            1 - B_IMAGE/A_IMAGE                                       
         1 -11.2791    194.7410     11.4393   4.2543853351e+01   3.4879149520e+01     2.483428      1.05205 -75.90  0.008010596    4.223    0.763
         2 -13.0149    243.9124    116.1936   6.2740832548e+01   7.9458116790e+00     3.946376    0.9948451 -33.19   0.01179287    3.909    0.744
         3 -12.8084    229.6043     43.7319   4.7015311010e+01   2.2393676242e+01     1.690428     1.207594 -39.03  0.009104955    1.301    0.231
         4 -12.3710    242.4779     88.5382   5.6380413243e+01   1.2747741395e+01     4.308232    0.5557725 -42.31  0.009860284    6.617    0.849
         5 -11.8583    182.7100     78.1604   6.3506443577e+01   2.8527035026e+01     2.100255    0.7291552 -46.71   0.00641039    3.258    0.693
         6 -11.1189    221.5859     37.6990   4.6425072552e+01   2.5110947814e+01      1.06327    0.4049805 -51.91  0.003761899    2.906    0.656
         7 -12.0070    162.1584     52.0811   5.9684393446e+01   3.8042458791e+01     2.458727     1.307455 -77.52  0.006423078    5.774    0.827
         8  -9.2427    224.0959     16.9829   4.0967625967e+01   2.7075530670e+01    0.3209799    0.1594322 -46.08 0.0008660948    1.825    0.452
         9  -8.8152    174.2940     16.7381   4.6617013509e+01   3.9517509480e+01    0.3976196    0.2180613 -58.42  0.001106205    2.173    0.540
        10  -9.9483    178.8765     13.6843   4.5090584196e+01   3.8667848779e+01    0.4390239    0.3271373 -47.52  0.001474027    1.371    0.271
        11  -9.3747    134.0993     13.6576   5.2159749718e+01   5.0020302660e+01    0.2355078    0.2207859  -9.91 0.0003094606    1.144    0.126
        12  -9.0782    120.3310      9.2144   5.3261198820e+01   5.3782741764e+01    0.2917115     0.242201  -0.27  0.001026055    1.264    0.209
        13 -10.5151    226.9769      1.9287   3.7097906707e+01   2.8032921804e+01     1.313226    0.1884256  71.87  0.003791234    5.641    0.823
        14  -9.0122    214.9753      4.4952   3.8718272687e+01   3.0613781001e+01    0.3216962    0.1918536  74.37  0.001206246    1.544    0.352
        15  -7.9524    227.1981      8.8623   3.8723131142e+01   2.7250113208e+01      0.24338    0.1046602 -43.26  0.000738913    2.041    0.510
        16  -8.9270    207.8240      5.9801   3.9748027087e+01   3.2197575793e+01    0.3715793   0.09518533  57.24   0.00129624    3.549    0.718
        17  -9.4586    173.0760      3.4145   4.2775910114e+01   4.1149155594e+01    0.5427395    0.2458476 -57.73  0.002159412    2.822    0.646
        18  -8.4579    105.8617      6.3107   5.5324078511e+01   5.7404092287e+01    0.2092182     0.172161 -26.02  0.000428114    1.332    0.249
        19  -8.3241      3.3232      3.6758   9.5604037539e+01   7.3801396121e+01    0.0895473   0.08497764 -48.38 0.0007047566    1.684    0.406
        20  -8.8423    217.0476      8.0292   3.9410428781e+01   2.9747987438e+01    0.3399447    0.1789512 -53.79  0.001016503    1.816    0.449
        21 -10.0520    183.3500    185.7982   8.9363705921e+01   7.8033914027e+00    0.2409157    0.2373811  10.39  0.000469572    1.130    0.115
        22  -8.0027    135.6818    186.0160   9.9603183477e+01   1.6700189067e+01    0.1782823    0.1719925 -69.97 0.0002778998    1.111    0.100
        23  -8.6802    241.7899    184.2598   7.7931797216e+01  -2.4318915604e+00    0.2854683    0.1906497 -48.42   0.00091628    2.035    0.509
        24  -8.9677     68.5598    181.5854   1.1402087358e+02   2.8514791843e+01    0.2068797    0.1809326  83.32  0.001322768    1.066    0.062
        25  -9.0556    237.9382    175.5132   7.6844397614e+01  -4.7921060884e-01    0.2405945    0.2134011  58.81 0.0009388754    1.560    0.359
        26  -8.6552    204.0751    169.8738   8.1995863180e+01   6.6511823683e+00    0.2046736     0.188017  12.03 0.0003078363    1.030    0.029
        27 -10.2853      2.3499    167.6670   1.2713979532e+02   3.8696331637e+01    0.4667846    0.1359859 -82.69  0.001989315    2.995    0.666
        28 -10.1024     56.5574    165.7109   1.1483940131e+02   3.3701577729e+01    0.4404554     0.248957 -43.87  0.002099674    2.394    0.582
        29 -10.0159     50.4140    161.6994   1.1580271624e+02   3.5382859356e+01    0.3784639    0.2176158  86.57   0.00184691    1.838    0.456
        30  -8.5878     68.9906    166.0205   1.1193259457e+02   3.2002224563e+01    0.1902388    0.1657327  86.79  0.001166339    1.019    0.019
        31  -7.8003    158.9062    157.6240   8.8971266642e+01   1.8074846624e+01    0.2145754    0.1355066  54.39 0.0007573306    1.723    0.420
        32  -7.4634    206.4930    154.5057   7.8210554059e+01   8.8988591547e+00    0.1432346    0.1371624  -9.46 -0.0001806343    1.079    0.073
        33  -7.5268    155.5435    153.5444   8.8866803558e+01   1.9618549265e+01    0.1492384    0.1449936  62.75 7.711788e-05    1.044    0.042
        34 -10.5403    243.0411    144.6214   6.9366430605e+01   3.4651840310e+00    0.3740239    0.2488136 -47.12  0.001443097    1.671    0.401
        35  -9.4878     69.3337    144.6765   1.0867603664e+02   3.7013825635e+01    0.4132198     0.272072  81.94   0.00157479    1.757    0.431
        36  -9.6491     66.3765    144.2267   1.0937583927e+02   3.7523688695e+01    0.5128398    0.2562742 -76.20  0.001317949    2.250    0.555
        37  -8.5898    192.5724    144.1250   7.8653486035e+01   1.3709353216e+01    0.2512843    0.2052351  55.75 0.0004899506    1.349    0.258
        38  -7.6351    158.4951    142.4942   8.5728106272e+01   2.1340486162e+01    0.1524131    0.1493209   9.82 0.0008105214    1.025    0.024
        39  -8.3493    148.9501    248.0000   1.0583679986e+02   3.5172081744e+00     0.206552   0.05539982  40.64 0.0008044947    2.957    0.662
        40 -10.0742    115.3740    246.1730   1.1181235381e+02   9.0049741878e+00    0.2034339    0.1740139  53.01 0.0003153337    1.107    0.097
        41  -7.6840    194.0059    240.7184   9.6543264481e+01  -2.5906357772e+00    0.1550874   0.08834549  37.29 0.0005027232    1.427    0.299
        42  -9.3335    201.9679    125.9358   7.2428131864e+01   1.5123749644e+01    0.4012063    0.2912681  86.65  0.001482559    2.189    0.543
        43  -7.9299    240.4511    234.5013   8.7307645933e+01  -8.8218703487e+00    0.1179544   0.09038765  12.61 4.552437e-05    1.013    0.013
        44  -7.8738    134.9391    123.8883   8.7015563588e+01   3.0430950597e+01    0.2518758    0.1910182 -84.59  0.001085871    1.753    0.429
        45  -8.0742    205.7409    121.8090   7.0685507756e+01   1.5058336831e+01    0.2027498    0.1772752 -70.36 0.0005785392    1.345    0.256
        46 -10.9307    187.4564    115.8975   7.2820592558e+01   2.0319057854e+01    0.8234677    0.3815532 -31.42  0.002904629    2.437    0.590
        47 -10.6791    141.7981     40.0715   5.9934410725e+01   4.4935988656e+01    0.4614466    0.3161197  73.70  0.002135514    1.697    0.411
        48 -10.7375    187.6395    104.3168   6.9755478665e+01   2.2508552939e+01     1.030983     0.362444 -34.82  0.003225885    2.977    0.664
        49  -8.2081    118.1564    232.1941   1.0974472142e+02   1.0926682555e+01    0.1684276    0.1237099  64.31 0.0002530507    1.303    0.233
        50  -8.4073    150.0378    118.2566   8.1834544913e+01   2.8395239176e+01    0.2202763    0.2064632   4.95 0.0005647717    1.137    0.121
        51  -9.8013    206.3326    115.5748   6.9022560639e+01   1.6076862943e+01    0.2700528    0.2564967 -25.07 0.0002530291    1.005    0.005
        52  -9.2789    167.8626    113.4466   7.6405363896e+01   2.5346631599e+01    0.3101508    0.2643029 -62.07 0.0005887587    1.276    0.216
        53  -7.3653    113.0560    113.8046   9.0302169841e+01   3.7177762958e+01    0.1881638    0.1209349  43.41  0.000359504    1.616    0.381
        54  -8.2132    211.1894    111.8504   6.7190735449e+01   1.5665434375e+01    0.2054872    0.1742609  14.48 0.0004284327    1.319    0.242
        55  -9.8845    205.5646    109.8628   6.7722971320e+01   1.7299543738e+01    0.4317534    0.3165016  12.25  0.001947015    1.809    0.447
        56  -7.1466    216.6404    106.7201   6.4932609803e+01   1.5360191615e+01    0.1516312    0.1147878  15.11 0.0007013476    1.667    0.400
        57  -8.9359    141.0802    103.8365   8.0202526889e+01   3.3504305731e+01    0.3169045    0.2151406 -14.74  0.001250717    2.153    0.535
        58 -11.3648    243.3438     35.4776   4.3547915421e+01   2.0345246100e+01    0.5145234    0.3166893  60.06  0.001322283    1.747    0.428
        59 -10.0803    197.6982     97.8867   6.6082479146e+01   2.1324869029e+01    0.4509749    0.3717462  87.36  0.002210719    1.454    0.312
        60  -8.1240    171.5673     97.2664   7.1200380255e+01   2.7710025548e+01    0.3555728    0.2175823 -68.13  0.001249683    2.706    0.630
        61  -8.9586    152.5611     96.4708   7.5305920296e+01   3.2400192804e+01    0.3306309    0.2756792   7.12 0.0009540071    1.429    0.300
        62  -8.4714    137.5180     94.1193   7.8357547332e+01   3.6361926438e+01    0.2813627    0.2185136  70.31 0.0005789982    1.558    0.358
        63  -7.9036     95.1557     94.1470   9.0287032900e+01   4.5029252965e+01    0.1844065    0.1686475 -87.59            0    1.227    0.185
        64  -8.2928    227.5807    222.2146   8.7489817929e+01  -5.4003574300e+00    0.1859087     0.139754  31.99 0.0004355881    1.237    0.192
        65  -8.1886    163.0594     89.2853   7.0811044826e+01   3.1316115710e+01    0.2359266    0.2152889  14.78 0.0003923622    1.184    0.155
        66  -9.2571    166.6436     86.9617   6.9346861961e+01   3.0888152118e+01    0.3491504    0.2836511 -40.34  0.001042164    1.209    0.173
        67  -9.4117    146.6631     85.4670   7.3513688223e+01   3.5997626393e+01    0.2992812    0.2809517  -5.22 0.0006245727    1.107    0.096
        68  -7.2693    138.3124     85.6142   7.5636830324e+01   3.7921626605e+01    0.1659654    0.1240085 -74.49 0.0007018112    1.819    0.450
        69 -10.3383    210.0786     57.7107   5.3181989790e+01   2.5069388350e+01    0.4805268    0.3135545  33.53   0.00181597    2.065    0.516
        70  -9.3283    207.0582     67.3180   5.6228583114e+01   2.4316630127e+01    0.4848582    0.2980315 -32.06  0.001681021    1.605    0.377
        71 -10.4232    203.3736     61.8217   5.5309491285e+01   2.6090176934e+01    0.3248794    0.3093602  42.48 0.0008855995    1.143    0.125
        72 -11.0051    215.7693     75.1390   5.6951564939e+01   2.0955222026e+01     1.377771     0.660301 -66.03  0.003795796    5.198    0.808
        73 -10.6835    213.8041     67.9523   5.5359527615e+01   2.2579098250e+01      1.01001    0.4242499 -57.84  0.001372114    4.218    0.763
        74  -8.4155    202.5697     80.5994   6.0562944460e+01   2.3215702634e+01    0.2614243    0.2212718 -60.81 0.0005100382    1.213    0.176
        75 -10.8626    163.8231     76.9234   6.7003217506e+01   3.3447735869e+01    0.3941033    0.3103248 -22.40  0.000771425    1.372    0.271
        76 -10.2764    110.9317     73.6945   7.9373343939e+01   4.6339769037e+01    0.2557594    0.2205764 -36.09 0.0002508896    1.117    0.105
        77  -8.1741    152.0954     72.1357   6.8152470004e+01   3.7208168980e+01    0.2439042    0.2105402  12.37  0.001204134    1.300    0.230
        78  -8.7280    137.8164     70.0684   7.0913830428e+01   4.1029252842e+01    0.3048088    0.2031695 -49.12 0.0004878075    1.608    0.378
        79  -7.0967    122.2877     71.6752   7.5500125394e+01   4.4293496217e+01    0.1512798    0.1216897 -73.40 0.0001956093    1.607    0.378
        80 -10.0046    191.8358     69.6520   5.9404379213e+01   2.7703453950e+01    0.3013446    0.2853834  87.87 0.0004337951    1.062    0.058
        81  -7.3517    224.3454     69.2797   5.4161680465e+01   1.9869214996e+01    0.1415551    0.1116118  24.13 0.0004935242    1.635    0.388
        82  -8.1262    150.2622     67.6468   6.7164399688e+01   3.8459165831e+01    0.1576785    0.1185943 -64.52  0.000590461    1.617    0.382
        83  -9.7283    243.8979     62.7164   4.9971031311e+01   1.6424268383e+01    0.4370608    0.1794397 -25.76  0.001601899    2.968    0.663
        84 -11.8215    185.1270     58.5946   5.7403812804e+01   3.1176686889e+01    0.5340678    0.3824684  11.81  0.001740093    1.988    0.497
        85  -9.2283    144.4494     59.4261   6.5855050174e+01   4.1298699859e+01    0.2946007     0.256626 -65.10 0.0005944451    1.283    0.221
        86  -7.6875     72.6291     58.2148   8.6532932929e+01   5.6441533037e+01    0.1877646    0.1175669 -35.06 0.0003505202    1.483    0.326
        87  -7.8497    196.9919     55.8119   5.4643239372e+01   2.8606147517e+01    0.2399432    0.1618696 -79.09  0.001005148    1.857    0.462
        88  -8.7318    191.6779     53.7556   5.4908093663e+01   3.0257176717e+01    0.5868214    0.2313487 -52.60  0.001840839    3.508    0.715
        89  -8.8581    188.3459     46.8771   5.3460167406e+01   3.2114832897e+01    0.4097625    0.2312356 -43.98  0.001646666    1.752    0.429
        90  -9.8867    185.5185     40.5116   5.2047837468e+01   3.3728687873e+01    0.6227847    0.2821104 -38.81  0.002501248    2.126    0.530
        91  -8.0836    138.0114     55.6841   6.6126334170e+01   4.3486569405e+01     0.211138    0.1917879  46.86  0.000414278    1.085    0.078
        92  -8.0139    144.9546    220.4136   1.0296839016e+02   8.5952320012e+00    0.2789237    0.1544109  58.38 0.0008917039    2.148    0.534
        93  -7.9604    104.6505     50.4672   7.3195255508e+01   5.1929883471e+01    0.2864322    0.1115713 -47.44 0.0009441803    3.336    0.700
        94  -8.7011    211.0286     48.1845   5.0496017701e+01   2.6235019533e+01    0.3402057    0.1663343 -43.57  0.001369225    1.920    0.479
        95  -8.1303    125.1427     47.8514   6.6590998114e+01   4.7803077290e+01    0.2040658    0.1682311  17.33 0.0003967089    1.285    0.222
        96  -8.3082    197.4885     44.0748   5.1273937679e+01   3.0191029395e+01    0.2495406    0.1640636 -58.91 0.0007747115    1.629    0.386
        97  -8.0795    223.0567    128.9763   6.9229351141e+01   1.0042917197e+01    0.2191862    0.1667237   7.89 0.0003329632    1.551    0.355
        98  -9.9582    118.8274     32.6469   6.2607073984e+01   5.1479123646e+01     0.286542    0.2159434  27.79  0.001481705    1.350    0.259
        99 -11.5244    120.9045     37.0409   6.3731950123e+01   5.0395387219e+01     1.119743    0.2823568  47.71  0.003441502    3.602    0.722
       100 -10.8052    131.2126     38.2861   6.1686576112e+01   4.7777264198e+01    0.5572839    0.3237274  51.40  0.002508322    1.622    0.384
       101  -7.4909    155.3670     33.7205   5.5060867618e+01   4.2372988367e+01    0.1506461    0.1099626 -74.27 0.0007012185    1.683    0.406
       102 -11.0942    136.9025     32.7470   5.8435102279e+01   4.7135566138e+01    0.7597611    0.2255612  55.47  0.002544698    2.945    0.660
       103  -9.9218    147.8936     30.1303   5.5279539283e+01   4.4725009125e+01    0.2690594    0.2559268  79.29  0.001062111    1.073    0.068
       104 -10.2771    144.2763     26.9726   5.4900127348e+01   4.6021964082e+01    0.3729372    0.2552302  46.38  0.001848906    1.393    0.282
       105  -9.7341    248.0588     24.0583   4.0475249518e+01   2.0737722450e+01    0.3950695    0.1800288 -52.18  0.001306066    1.988    0.497
       106 -10.1835    134.6598     24.7817   5.6066634375e+01   4.8672636912e+01    0.4935555    0.3084357 -87.89  0.002074902    2.480    0.597
       107  -9.9427    180.5019     23.5210   4.7779786588e+01   3.7166032034e+01    0.7023884    0.4118457  83.29  0.003157531    1.881    0.468
       108  -9.5498    162.4486     22.2945   5.0117715284e+01   4.1945405988e+01     0.252481    0.2331909  74.14 0.0004528505    1.022    0.022
       109  -8.7575    226.1457    204.8529   8.4667821000e+01  -2.8160046939e+00    0.2678603    0.2219344  70.58  0.001554939    2.072    0.517
       110 -10.3268    124.0023    206.0080   1.0521011100e+02   1.4777145807e+01    0.1881408    0.1638724  55.28            0    1.002    0.002
       111  -7.7340    238.2865    203.6180   8.2267943550e+01  -4.5951514888e+00     0.110821    0.1014461 -59.88 0.0007013234    1.737    0.424
       112  -9.0494    166.6060     16.0060   4.7489660012e+01   4.1566877689e+01    0.2777732    0.1692714  53.00 0.0006572901    1.544    0.352
       113 -13.1011     14.4602    190.4774   1.2620640812e+02   3.2746894240e+01     1.130173    0.8706439  81.29  0.003203927    1.060    0.056
       114 -11.1499     27.2373    182.3920   1.2304183505e+02   3.3238331527e+01    0.3834961    0.3486337  21.25  0.001115395    1.582    0.368
       115 -12.7471     34.8204    176.1407   1.2088750879e+02   3.3831705513e+01     1.023901    0.9892911 -80.36  0.005190072    1.363    0.266
       116  -9.2583    213.9033    198.9053   8.5831018732e+01   1.1130656522e-01    0.3251578    0.2516475  67.99 0.0004324054    2.115    0.527
       117 -10.4019    245.3283    197.3290   7.9857324893e+01  -4.8454400303e+00    0.2323147    0.1918303  17.26 0.0002278479    1.135    0.119
       118  -7.3406    138.3848    198.7372   1.0108769487e+02   1.3693424704e+01    0.1419876   0.09652893  63.93 0.0006979572    1.688    0.408
       119  -9.0692    215.1570    194.7171   8.4807556307e+01   5.3462241905e-01    0.2181779    0.1877574  -3.28  0.000295241    1.079    0.073
       120  -7.9155    225.4657    190.4643   8.2074685415e+01  -5.9835252210e-01    0.1325215    0.1139671   6.59 0.0001194309    1.021    0.020
       121  -8.6287    214.5324    118.5044   6.8236057760e+01   1.3724540398e+01    0.1499931    0.1393351 -22.05 0.0008097331    1.015    0.015
       122  -9.0558    215.7779    189.9346   8.3773799653e+01   1.1678770082e+00    0.2242037    0.1744013  29.36 0.0004779629    1.183    0.155
