#   1 NUMBER                 Running object number                                     
#   2 MAG_AUTO               Kron-like elliptical aperture magnitude                    [mag]
#   3 X_IMAGE                Object position along x                                    [pixel]
#   4 Y_IMAGE                Object position along y                                    [pixel]
#   5 X_WORLD                Barycenter position along world x axis                     [deg]
#   6 Y_WORLD                Barycenter position along world y axis                     [deg]
#   7 A_WORLD                Profile RMS along major axis (world units)                 [deg]
#   8 B_WORLD                Profile RMS along minor axis (world units)                 [deg]
#   9 THETA_WORLD            Position angle (CCW/world-x)                               [deg]
#  10 FWHM_WORLD             FWHM assuming a gaussian core                              [deg]
#  11 ELONGATION             A_IMAGE/B_IMAGE                                           
#  12 ELLIPTICITY            1 - B_IMAGE/A_IMAGE                                       
         1 -13.1285      5.0337     63.0313   9.1057985107e+01   6.0901500457e+01    0.8336821    0.5851886 -85.70  0.005800908    1.467    0.318
         2 -13.3254     38.0094     49.5671   7.6457036575e+01   6.1259287422e+01     1.108306    0.6783148 -42.95   0.00662932    1.332    0.249
         3 -10.1526    126.2925      2.9439   3.0970382731e+01   5.3179193401e+01    0.2685237     0.171561 -32.35  0.001317687    1.675    0.403
         4 -10.9418    129.0513     18.5195   3.6379593589e+01   5.0864376853e+01    0.3547962    0.2082036 -13.36 0.0006165201    1.924    0.480
         5 -12.2645    128.5113     11.0989   3.3661727191e+01   5.1832888171e+01    0.4481473    0.3523787 -71.95  0.002372108    1.690    0.408
         6 -11.4362     22.9295     23.8391   7.4046232068e+01   6.7406852213e+01    0.5108298    0.1940531 -40.39  0.002472816    2.076    0.518
         7 -11.9494     21.4993     14.8662   7.1270074376e+01   6.9063080768e+01    0.5900885    0.2998694 -15.96  0.003161552    2.522    0.604
         8 -10.3298     15.0766     13.6382   7.3687556367e+01   6.9770359123e+01    0.1742342    0.1364621 -31.10 0.0008881906    1.084    0.078
         9 -12.0544      4.1122     16.2458   7.9648330942e+01   7.0029357789e+01    0.3333199    0.2332294  39.59  0.001621832    2.135    0.532
        10 -12.1537    159.5707     23.1508   3.1781726888e+01   4.2736377057e+01    0.4147933    0.3045563  10.94 0.0003896528    1.617    0.382
        11 -11.1435     58.7139     20.7137   5.8348043433e+01   6.4002994638e+01    0.4991561    0.3037797   4.50  0.002549115    2.121    0.528
        12 -11.4180     48.6202     15.4478   5.9986822337e+01   6.6141652731e+01    0.4920052    0.3199399   9.62  0.002947421    1.691    0.409
        13 -10.7219     29.8054     18.4936   6.9084346843e+01   6.7725049034e+01     0.335622    0.1726564 -37.73  0.001519458    1.530    0.346
        14 -10.6344     34.4100     15.9026   6.6054601591e+01   6.7695968957e+01    0.3581426    0.1898811 -33.14  0.001358062    1.551    0.355
        15 -10.2057     43.8597      8.2952   5.8695360389e+01   6.7783135721e+01    0.2272046     0.189921  -2.19   0.00108304    1.148    0.129
        16 -11.7311     40.9805     16.8430   6.3694236300e+01   6.6838125926e+01    0.4697279    0.3560003 -45.15  0.002143542    1.443    0.307
        17 -11.0895     39.9586     10.9224   6.1531396934e+01   6.7863993466e+01    0.2482484    0.2343268   3.93 0.0005531824    1.423    0.297
        18 -10.0196     83.9154     13.5458   4.6487270575e+01   6.0959341170e+01    0.1882271    0.1537971 -13.22 0.0003345503    1.109    0.098
        19 -10.2657     74.3921      2.0961   4.4343748760e+01   6.4015440774e+01    0.2435249    0.2025552  60.45  0.001546219    1.662    0.398
        20 -10.2357     70.5950     13.2733   5.0788623616e+01   6.3284247626e+01    0.2288207    0.1797975 -10.34 0.0009515424    1.090    0.083
        21 -11.6020     76.1083     10.8058   4.7801565231e+01   6.2685292291e+01    0.6892498    0.2413123  44.80   0.00292584    2.836    0.647
        22 -10.9579     73.8801      6.7533   4.6694346273e+01   6.3565692198e+01    0.2763667    0.1922704 -26.75  0.001010603    1.363    0.266
        23  -9.5921    118.4817     12.4817   3.6493789493e+01   5.4002895025e+01    0.5395499    0.2614689  14.53  0.001835179    3.833    0.739
        24 -10.6779    118.2348      7.8359   3.4692715001e+01   5.4559985411e+01    0.2368667    0.1969367  -5.31  0.000755106    1.191    0.160
        25 -11.4305    119.9989      3.9911   3.2746366169e+01   5.4543681028e+01    0.3481501    0.2279371  64.93  0.001202893    1.617    0.382
        26 -11.3054     59.9665     12.8718   5.4446308338e+01   6.4974511487e+01    0.3546011    0.3095244 -45.15  0.002367904    1.526    0.345
        27 -11.4687    164.3627      9.6345   2.6390566697e+01   4.3013713043e+01    0.6172394    0.1745577 -24.43  0.002017967    3.629    0.724
        28  -9.9383     96.0644     12.2874   4.2284948170e+01   5.8800535795e+01    0.1739849    0.1576288  28.81 0.0005166809    1.138    0.121
        29 -10.2463    175.6501     11.1084   2.5118775193e+01   3.9897747847e+01    0.2547892    0.1927692  79.13 0.0008459847    1.317    0.241
        30 -11.1355      8.2148      9.1738   7.5136840161e+01   7.0992597134e+01    0.3682385    0.2304398   2.25  0.002570562    1.784    0.439
        31 -11.0752    148.6709      1.9063   2.6336012287e+01   4.7797297976e+01     0.254473    0.1890789  57.66 0.0004336858    1.214    0.176
        32 -11.3246    146.2290      7.6237   2.8815274781e+01   4.7864379087e+01    0.4327413    0.3190332   8.79  0.001516721    1.513    0.339
        33  -9.6825    150.5566      5.5340   2.7296009996e+01   4.6977696571e+01    0.1998869     0.118914  52.31 2.359111e-05    1.503    0.335
        34 -11.0376    240.9071      9.1327   1.6869957510e+01   2.3190797267e+01    0.2178358    0.1614828 -65.28 0.0005144831    1.257    0.205
        35 -12.7095    215.0190      6.2652   1.8694137187e+01   3.0042592386e+01    0.6966771    0.5592795 -85.88  0.003490066    1.174    0.148
        36 -11.0524    190.4528      6.5214   2.1645439144e+01   3.6459323300e+01    0.4490469    0.3632747 -70.04  0.002445712    1.270    0.212
        37  -9.9417    100.4934      6.9976   3.8786155723e+01   5.8501549108e+01    0.2440807    0.1696978   9.08   0.00132573    1.465    0.318
        38 -10.4659     97.8442      4.4947   3.8419182625e+01   5.9311774104e+01    0.3254679    0.2038701   3.84  0.001260377    1.736    0.424
        39 -12.0695    234.3604      5.4739   1.6559565162e+01   2.5212009694e+01    0.3521811    0.2615258  25.49 0.0009910509    1.835    0.455
        40 -10.0742    156.3597      6.0477   2.6485900182e+01   4.5445634610e+01    0.2378366    0.1727519  51.53 0.0004155778    1.255    0.203
        41 -10.6940     68.2703      4.1743   4.7401362045e+01   6.4811760421e+01    0.2837422    0.1417487 -33.78  0.001465319    1.945    0.486
        42 -12.4027    238.0016     17.5549   1.9266626720e+01   2.2935827133e+01    0.3353893    0.2654676 -72.52 0.0004085813    1.197    0.165
        43 -11.2560     19.3875      3.5523   6.7405902770e+01   7.1042998009e+01    0.4889614    0.2664142  -0.00  0.002893434    2.258    0.557
        44 -11.5711     11.1044      2.8466   7.1097667237e+01   7.1814054492e+01    0.2622229    0.1661793 -18.22 0.0006457833    1.406    0.289
        45 -10.3098     25.1446      8.2451   6.6836507369e+01   6.9807985638e+01    0.2617219    0.1764123  46.45  0.001642157    2.527    0.604
        46  -9.5597    109.5098      5.4999   3.5826942770e+01   5.6742467695e+01    0.1341283    0.1190288  21.82 6.229964e-05    1.018    0.017
        47 -10.3065    178.9988      3.7884   2.2323056246e+01   3.9757564579e+01     0.228328    0.2090347 -40.00 0.0005628672    1.167    0.143
        48 -11.6454     28.7724      2.5487   6.2552065727e+01   7.0304660818e+01    0.4034093    0.2203141  18.45   0.00205807    2.039    0.509
        49 -10.7465    243.0971      2.8173   1.5124222108e+01   2.3350333283e+01    0.2164959    0.1584903 -62.66 0.0006552528    1.246    0.198
        50  -9.3658     49.4277      3.2389   5.4007389245e+01   6.7750832516e+01    0.1216135   0.07515895   7.84 0.0006895386    1.735    0.424
        51 -10.6630    194.6946      1.6584   1.9681272644e+01   3.5825538914e+01     0.312824    0.1683574  81.16  0.001369224    1.895    0.472
        52  -9.8421    244.5619    178.1925   5.6947907975e+01  -2.0596299724e+00    0.1856139    0.1153088 -13.97 0.0009550832    1.779    0.438
        53 -10.4620    247.6619    250.0782   6.8757661144e+01  -1.0601409321e+01    0.1909263    0.1215656  40.44  0.001321076    1.352    0.260
        54 -11.7868     88.8661    249.3675   9.4314413268e+01   1.4315307646e+01    0.3173037    0.1842974  49.83  0.000975694    1.356    0.262
        55 -10.2505     72.3926    250.1264   9.6900906942e+01   1.6445080029e+01    0.1688791    0.1251628  45.94 0.0009712469    1.540    0.351
        56 -12.6825     19.1007    237.0775   1.0403453775e+02   2.4870005977e+01    0.4607919    0.2556119  66.17    0.0035802    1.229    0.186
        57 -11.6053      5.2283    235.3016   1.0592938057e+02   2.6558424023e+01    0.3022114    0.1901754  61.67  0.002567073    1.218    0.179
        58 -12.1152     28.0597    246.3905   1.0319658757e+02   2.2405501162e+01    0.5146868    0.2333759  78.52  0.003501951    1.821    0.451
        59 -12.9558      6.6501    244.9235   1.0611100916e+02   2.4869150608e+01    0.6043618    0.3822958  70.07  0.003984627    1.043    0.042
        60 -11.7225     22.5072    248.6428   1.0408198810e+02   2.2650932736e+01    0.2869742    0.1552483  70.45  0.001263925    1.259    0.206
        61 -12.3039     16.2424    246.4192   1.0485428254e+02   2.3661741535e+01     0.494072    0.2020463  64.68  0.001956338    1.732    0.423
        62 -10.5984     46.5445    177.5173   9.5488484931e+01   3.2770311426e+01    0.2462073    0.1836959  82.89  0.001175091    1.025    0.025
        63 -10.6628     18.2971    172.9642   1.0043375188e+02   3.6656385788e+01    0.2276588    0.1316472  65.96  0.001171783    1.457    0.314
        64 -12.1912     51.8336    162.1956   9.2891985127e+01   3.5321218133e+01    0.7659864    0.4362552  51.94  0.004504532    1.669    0.401
        65  -9.2880     74.3294    171.2942   8.9311858426e+01   3.0501442764e+01    0.1088581   0.09736867 -39.70 0.0004081879    1.630    0.387
        66 -10.4434      4.9977    168.5174   1.0257060873e+02   3.8721082845e+01    0.1369768   0.09339894  47.67  0.001029273    1.581    0.367
        67 -12.2561     36.8096    165.6822   9.6287233821e+01   3.6285640066e+01    0.5417464    0.3089879  77.19  0.002689454    1.593    0.372
        68 -11.2161     35.2921    161.4060   9.6188774730e+01   3.7336672085e+01    0.2654577    0.1862261  40.00 0.0003512597    1.672    0.402
        69  -9.4288    111.7673    164.0272   8.0420105591e+01   2.6178739026e+01    0.1712855    0.1077735 -61.31 0.0006199774    1.605    0.377
        70 -12.4195     21.4425    157.2688   9.8594165826e+01   3.9564076137e+01    0.4638065    0.3643793  38.73 0.0009747223    1.625    0.384
        71  -9.6032    216.3015    154.9770   5.7211070073e+01   6.8832735241e+00    0.1912136    0.1759257  -9.20 0.0003294498    1.090    0.082
        72 -10.9883      9.6320    152.2077   1.0053392971e+02   4.1641882001e+01     0.361497     0.155814  58.80  0.002058326    2.242    0.554
        73  -9.3339    222.6976    152.2853   5.5453127746e+01   5.9812255131e+00     0.130523    0.1138456 -84.80 0.0002651065    1.558    0.358
        74 -10.2065    177.2119    150.2634   6.3876087710e+01   1.6042793348e+01    0.2741533    0.2303532  80.96  0.001117544    1.394    0.282
        75 -10.7036    207.0165    146.5236   5.7125833974e+01   1.0254892639e+01    0.2172001    0.1989953 -17.22 0.0006803109    1.111    0.100
        76 -10.2630    220.1711    143.8368   5.4056701372e+01   7.8714445039e+00    0.2023134    0.1635062  12.05  0.000573226    1.306    0.234
        77  -9.7442      3.0173    143.6517   1.0120171324e+02   4.3928608853e+01    0.1428491    0.1099479  85.38 0.0004215524    1.107    0.097
        78 -10.2455      9.2086    145.5607   1.0008890832e+02   4.3055646651e+01    0.2589575    0.1055973 -51.88  0.001317206    3.051    0.672
        79 -12.2979      9.1700    136.4330   9.9319020675e+01   4.4975592284e+01    0.2440497    0.1486985 -76.68 0.0002772413    1.236    0.191
        80 -10.6499      2.6752    136.6099   1.0071375432e+02   4.5419797093e+01    0.3522173   0.08735665 -68.68   0.00164661    2.746    0.636
        81 -10.9070     17.5077    137.0102   9.7570530754e+01   4.4184950361e+01    0.2040513    0.1497614  64.92 9.738185e-05    1.328    0.247
        82  -9.6525     21.0000    134.9225   9.6593524377e+01   4.4336508340e+01    0.1657858    0.1061255  84.08  0.000641553    1.352    0.261
        83  -9.3219    143.7548    137.0294   6.8289296722e+01   2.5760298958e+01    0.1852795    0.1244959 -50.45 0.0004204137    1.521    0.343
        84 -10.0380     54.4684    137.4987   8.9287796800e+01   4.0364657500e+01    0.1255291    0.1023941 -83.30 -0.0002797901    1.014    0.013
        85  -9.9497    249.1245    133.8300   4.6738489908e+01   3.3732764234e+00    0.1975951    0.1892378 -36.47 0.0004238033    1.194    0.162
        86 -11.2558     54.2555    132.2564   8.8602940656e+01   4.1554736472e+01    0.3251708    0.2170531  49.64 0.0009810291    1.575    0.365
        87  -9.5593     47.9654    133.4672   9.0256462303e+01   4.2004800950e+01    0.1646402    0.1175121  43.28  0.001022306    1.566    0.362
        88  -9.9557     79.8512    132.4765   8.2491930656e+01   3.8144937421e+01    0.1805208    0.1285691  44.34 0.0008420617    1.499    0.333
        89 -11.4618     36.7388    130.3873   9.2486261894e+01   4.3867677319e+01    0.3263167    0.2692471 -35.96  0.002218149    1.659    0.397
        90 -11.0345     74.0983    128.8951   8.3282600975e+01   3.9766904086e+01    0.2972394    0.2434509 -89.68 0.0009012315    1.124    0.111
        91 -11.4215     23.8867    125.8382   9.4945891392e+01   4.6057096196e+01    0.2638431    0.1880482  46.36  0.001289331    1.584    0.369
        92 -10.7336     15.9062    125.4966   9.6760177497e+01   4.6789392371e+01    0.3027395    0.1486323  38.01  0.001797555    2.299    0.565
        93 -11.3926     11.0501    122.7143   9.7589308693e+01   4.7759528838e+01    0.2679909    0.1848833  82.77  0.001195011    1.264    0.209
        94  -9.1217     51.6231    125.7303   8.8284972176e+01   4.3317183267e+01    0.1176482   0.09034233 -38.18 0.0006994595    1.685    0.406
        95  -9.6990    220.1333    123.8449   4.9428083645e+01   1.1200807803e+01    0.2038202     0.170361   7.51 0.0004898938    1.284    0.221
        96  -9.6929    243.5912    122.5093   4.5034167424e+01   6.2575744583e+00     0.142466    0.1298701 -10.27 0.0001493072    1.018    0.017
        97 -10.0637     20.1773    121.7829   9.5351831881e+01   4.7252140970e+01    0.1558433    0.1100238 -59.78 0.0006041622    1.347    0.258
        98  -9.9041      3.1602    122.5989   9.9383136156e+01   4.8340616136e+01    0.1156026    0.1041658 -31.74 0.0004116851    1.591    0.372
        99 -10.5535     73.0697    117.4190   8.1503697930e+01   4.2498678732e+01    0.3559467    0.1915309 -76.13  0.001016483    2.198    0.545
       100  -9.7375      1.3440    118.7104   9.9431726581e+01   4.9286099507e+01    0.1499054   0.07334336 -69.77 0.0004361904    1.504    0.335
       101  -9.7361     32.7953    117.7461   9.1785201989e+01   4.7040576233e+01    0.1738295    0.1178503  84.79  0.001071261    1.418    0.295
       102 -10.5101     23.6452    117.7327   9.4033756668e+01   4.7850614251e+01    0.1855975    0.1446782 -63.72 0.0003643028    1.214    0.176
       103  -9.9179     85.9242    115.6798   7.7847005187e+01   4.1021253530e+01    0.1867337    0.1686599  89.41 0.0006485455    1.072    0.067
       104 -11.3596     15.8844    115.3116   9.5631327850e+01   4.8998390811e+01    0.2455753    0.1795247 -49.44 0.0004888215    1.522    0.343
       105  -9.9766    214.0799    115.1708   4.8424572743e+01   1.4068535515e+01    0.2313811    0.1982141  16.60 0.0004750163    1.243    0.196
       106 -10.8988    249.3833    112.2419   4.1662680819e+01   6.6080693217e+00    0.2575012    0.2337628 -43.24 0.0005640069    1.160    0.138
       107 -11.4503     36.8746    109.9192   8.9623317351e+01   4.8395953752e+01    0.3848652    0.2175421  80.94  0.001978694    2.196    0.545
       108 -11.7615     55.0544    109.5158   8.4777992708e+01   4.6568550337e+01    0.2750961    0.2197972 -61.52 0.0004257567    1.111    0.100
       109 -11.9391     14.7339    108.7137   9.5124263594e+01   5.0518865600e+01    0.4189776    0.3085177  -6.49  0.002838978    2.117    0.528
       110 -10.7868      1.9397    106.0187   9.8003065614e+01   5.1953923205e+01     0.361929    0.1246974 -63.12  0.001826099    2.063    0.515
       111 -10.0352      5.3430    106.3336   9.7193271363e+01   5.1674646886e+01      0.20708   0.09164713 -59.18  0.001090442    1.801    0.445
       112 -11.5074     19.7091    100.7535   9.2789374380e+01   5.1887011165e+01    0.2672865    0.2013754 -23.11  0.001804905    1.846    0.458
       113 -11.0898     23.6248    106.0515   9.2503254451e+01   5.0418616423e+01    0.3287435    0.2307382  80.99  0.001707014    1.426    0.299
       114 -10.4607     26.3110    102.7463   9.1323345404e+01   5.0926707957e+01    0.3104391    0.1679593 -88.88  0.001242522    2.021    0.505
       115 -10.5522     94.5185    112.3059   7.4908881853e+01   4.0415231076e+01    0.2808155      0.26204 -42.05  0.001672917    1.180    0.152
       116 -10.9899    120.1116    101.3481   6.5659993772e+01   3.8196083448e+01    0.7865673    0.2791718 -36.51   0.00217282    4.582    0.782
       117  -9.2901     87.7167    104.6507   7.5025085403e+01   4.3222890657e+01    0.1387857    0.1031814 -31.08 0.0002929848    1.651    0.394
       118 -10.8253     51.9405    103.7896   8.4585586672e+01   4.8210565256e+01      0.19364    0.1549801 -47.66  0.001045843    1.284    0.221
       119  -9.6941     38.3779    103.2346   8.8167248777e+01   4.9741445007e+01    0.1804487   0.09857187 -74.60 0.0009539556    1.661    0.398
       120 -11.5525    144.2758     97.4397   5.8595162422e+01   3.3907863888e+01    0.5535408    0.5248278 -39.98  0.002968861    1.058    0.055
       121 -11.7322     63.3344     98.4321   8.0390737391e+01   4.8061664751e+01    0.4710482    0.2817046  24.96  0.002391388    2.236    0.553
       122 -10.1749     50.9573     98.9780   8.3960802003e+01   4.9397817241e+01    0.1871819    0.1571313 -64.18 0.0004236057    1.037    0.036
       123 -10.7526      9.9804     98.6274   9.5074816083e+01   5.3035869153e+01    0.2124518    0.1246589 -84.95 0.0007325987    1.494    0.331
       124 -10.5889      5.1679     98.0556   9.6264531076e+01   5.3463834779e+01    0.1803899    0.1582119  28.12  0.000809864    1.545    0.353
       125  -9.5480    205.7568     97.0474   4.5334627700e+01   1.9217753460e+01    0.2051463     0.128576 -36.10 0.0006216621    1.571    0.363
       126 -12.5973    166.3488     83.6223   4.9609871251e+01   3.1421595030e+01    0.9158023    0.7581439  32.46  0.003602903    1.299    0.230
       127 -11.4996     14.6408     96.1673   9.3501799196e+01   5.3254427156e+01    0.3340666    0.1520858 -58.50  0.001881123    1.697    0.411
       128 -10.8243     65.7074     93.3537   7.8631230749e+01   4.8893431525e+01    0.3736708    0.1925551  33.53  0.001151209    2.292    0.564
       129 -11.2174     57.8534     90.2455   8.0221506994e+01   5.0555173794e+01    0.3432989    0.2932873 -30.45  0.002180975    1.326    0.246
       130  -9.7892     31.0846     92.9828   8.8460715817e+01   5.2676596724e+01    0.1895529     0.113341 -46.64 0.0007962629    1.630    0.386
       131  -9.2371     46.6685     92.2726   8.3881114151e+01   5.1351771997e+01    0.1207004   0.08879548  78.91 0.0003921383    1.592    0.372
       132 -10.8222     37.9379     90.0806   8.5980538836e+01   5.2700870841e+01    0.3726141    0.1686888 -47.29  0.001177988    2.076    0.518
       133 -10.1445     25.5165     90.7882   8.9668153564e+01   5.3619491797e+01    0.2167796    0.1603295 -68.60 0.0006682391    1.057    0.054
       134 -11.4911     21.9525     87.5819   9.0154695379e+01   5.4594825493e+01    0.3886092    0.1778427 -56.37  0.001519235    1.689    0.408
       135 -11.6915     10.6583     90.6247   9.3808609192e+01   5.4720232694e+01    0.2033468    0.1957332 -81.85 0.0004957471    1.296    0.228
       136 -10.4084    152.7770     90.5211   5.4662231973e+01   3.3351967823e+01    0.4501174    0.1489675  48.20  0.001404205    3.009    0.668
       137 -10.6691     96.2688     89.0097   6.8870767460e+01   4.5271684329e+01    0.3311938    0.2077951  41.65  0.001593807    1.731    0.422
       138 -10.0757     83.1266     88.3976   7.2448367623e+01   4.7534496067e+01    0.2257562    0.1697145 -44.88  0.000568437    1.241    0.194
       139 -11.1707     78.1835     87.7065   7.3704747868e+01   4.8425492914e+01    0.3094437    0.2830672 -44.57  0.001085683    1.085    0.078
       140 -10.1037     65.2232     87.3852   7.7419758446e+01   5.0276677066e+01    0.2481102     0.156481  53.58  0.001124713    1.959    0.490
       141 -11.2894     67.3345     84.0304   7.5996749896e+01   5.0737559152e+01    0.3212187    0.2120137 -25.85  0.001104051    2.018    0.504
       142  -9.8237    120.9938     86.6191   6.1474538497e+01   4.1138379115e+01    0.2026856    0.1908769  48.32 0.0004464192    1.106    0.096
       143 -10.2796    115.9542     84.4455   6.2202099198e+01   4.2602782770e+01    0.3760384    0.2383126 -34.84   0.00168939    1.668    0.400
       144 -10.2618     14.9063     84.0106   9.1608525744e+01   5.5868467952e+01     0.171413    0.1309249 -64.79 0.0004587055    1.041    0.039
       145 -11.6927     30.8233     80.5276   8.6263582328e+01   5.5423454116e+01    0.4016206    0.2205496 -53.46  0.002307882    1.461    0.316
       146 -11.7715      4.8843     83.9100   9.4472042366e+01   5.6509702410e+01    0.4180897    0.2289726 -44.60  0.001555361    1.836    0.455
       147  -9.8570     62.8557     82.4995   7.6969782039e+01   5.1647903822e+01    0.1736951    0.1319591  33.83  0.001016007    1.540    0.351
       148 -10.0947     42.0281     82.0184   8.3167695504e+01   5.4078787524e+01    0.1856947    0.1510005 -64.71 0.0003327883    1.055    0.052
       149  -9.6699    183.3952     80.7878   4.5204871716e+01   2.7683517398e+01    0.2173292    0.1515552 -20.29 0.0004484351    1.663    0.399
       150  -9.6397    146.5338     80.9811   5.3392741531e+01   3.6677184647e+01    0.2310864    0.1504988 -40.10 0.0004513878    1.516    0.340
       151 -12.4483    226.6559    244.9803   7.1361222313e+01  -6.8991414725e+00    0.6353318     0.352237  18.91  0.003644568    2.102    0.524
       152 -11.4797     12.8785     57.8105   8.7411120078e+01   6.1533919654e+01    0.4100305     0.243838  52.40  0.001469768    2.428    0.588
       153 -14.1107     16.5764     67.3964   8.8145762980e+01   5.9301974290e+01    0.5266241    0.3744513 -69.96   0.00108356    1.198    0.165
       154 -12.6900     13.6903     76.9447   9.0800292599e+01   5.7464326401e+01    0.3969725    0.3004029  55.34 0.0003615012    1.632    0.387
       155 -12.3015      7.8925     73.6251   9.2002016110e+01   5.8523275052e+01    0.5362666    0.3536238  -9.24  0.003565212    2.140    0.533
       156 -11.9030     12.8546     50.4430   8.5778042850e+01   6.3037161835e+01     0.384961     0.269545 -58.45  0.001774332    1.103    0.093
       157 -11.7025      8.4454     42.3266   8.5449775083e+01   6.4912939526e+01    0.5433812    0.3539026  69.79  0.003275173    2.590    0.614
       158 -10.0639    114.5987     79.7559   6.1218317135e+01   4.3838265029e+01    0.3417061    0.1718413  41.82  0.001390388    2.125    0.529
       159 -10.7577     47.6958     87.9581   8.2713079212e+01   5.2198585632e+01     0.199789    0.1766484  67.91 0.0003289707    1.290    0.225
       160 -10.7497     60.4987     78.3034   7.6665190315e+01   5.2851074565e+01    0.2923919    0.2002744 -45.49  0.001104182    1.301    0.231
       161  -9.5297    184.3921     76.7266   4.3839585603e+01   2.8148266117e+01    0.2079771    0.1522144 -24.75  0.000901098    1.469    0.319
       162 -12.5563    157.9041     87.7225   5.2681960067e+01   3.2686999254e+01     1.459941    0.5506713 -52.71   0.00402715    4.151    0.759
       163 -12.8544     44.8540     74.8980   8.0722808483e+01   5.5339848680e+01    0.2945508    0.2473698  76.40 0.0007229907    1.433    0.302
       164 -11.5724      6.2442     50.8971   8.8237377593e+01   6.3323571672e+01    0.5057341    0.3312745 -59.90   0.00232292    1.132    0.116
       165 -10.6219     91.0960     74.7532   6.6434090531e+01   4.9171960109e+01    0.2519583    0.2020356   7.39 0.0009241076    1.539    0.350
       166 -10.8998     76.1273     74.3399   7.0822835693e+01   5.1601552127e+01     0.315149    0.2247277  12.25 0.0005135978    1.893    0.472
       167  -9.7859     48.3252     55.9436   7.4663393908e+01   5.8934805473e+01     0.358316    0.1401512 -51.94  0.001098196    2.090    0.521
       168 -10.7500     54.1445     74.1518   7.7616253156e+01   5.4496994839e+01    0.3244246    0.1644913  46.56  0.001259885    2.521    0.603
       169 -10.2499     47.3986     60.5579   7.6278113915e+01   5.8095336633e+01    0.2613859    0.1875383  10.25  0.001570598    1.757    0.431
       170 -10.3228     51.3076     71.3125   7.7809197211e+01   5.5421844909e+01    0.2015029    0.1485327 -40.86  0.000539545    1.251    0.201
       171 -11.5127     50.6292     67.5045   7.7056837952e+01   5.6301623913e+01    0.3593071    0.2522769 -25.68 0.0005874335    1.629    0.386
       172 -10.7410    207.6272     73.0905   3.8491929283e+01   2.2827886347e+01    0.2620311    0.2150635  48.83 0.0003446167    1.240    0.194
       173 -10.6545    101.2589     71.8788   6.2615073195e+01   4.7982482161e+01    0.4068248    0.2488429  69.41  0.001180452    3.006    0.667
       174 -11.1090     51.9710     62.2778   7.5214285048e+01   5.7240104438e+01    0.3067692    0.2638496 -32.48  0.002028768    1.129    0.114
       175 -11.1049     37.3343     68.9305   8.1741466637e+01   5.7341832721e+01    0.4560465    0.2952676  68.96  0.002461638    2.399    0.583
       176 -10.3642     42.7665     68.1354   7.9781929784e+01   5.6991223834e+01    0.2028994    0.1748589 -11.26  0.001373001    1.352    0.260
       177 -11.2880     77.5908     69.8333   6.9099727371e+01   5.2327829019e+01    0.4097624    0.2582168  33.01  0.001412006    1.821    0.451
       178 -10.0201    195.0076     69.9057   3.9843597261e+01   2.6590764234e+01    0.2258437    0.2224341  57.91 0.0003672214    1.022    0.021
       179 -10.6744    167.8567     69.4788   4.5098356449e+01   3.3617157605e+01    0.2594982    0.2209383 -22.55 0.0003577705    1.230    0.187
       180 -10.1379    130.0959     69.6662   5.4040464469e+01   4.2583262720e+01     0.396176    0.2483361 -16.14  0.001573842    2.312    0.568
       181 -10.0606    127.6660     66.1064   5.3544247087e+01   4.3788408445e+01    0.2142866    0.2022746 -80.02 0.0004561398    1.170    0.145
       182  -9.5213     68.8726     70.1144   7.1904787578e+01   5.3510816563e+01    0.1801047    0.1405247 -30.01 0.0004146103    1.308    0.235
       183 -12.6093    122.4232     63.7674   5.4174168044e+01   4.5359821593e+01    0.4475091    0.4352446 -41.25 0.0005005801    1.058    0.055
       184  -9.0987    230.3133     68.6769   3.3633473168e+01   1.7833401069e+01    0.1566996    0.1098546 -63.31 0.0003887994    1.658    0.397
       185 -11.5777     93.8838     66.4665   6.3123092259e+01   5.0383509564e+01    0.3374186    0.2580888 -23.86 0.0004556894    1.392    0.282
       186 -10.2092     98.9931     65.0000   6.1148970245e+01   4.9765182861e+01    0.2983617    0.2048638  46.95 0.0008260919    1.596    0.373
       187 -11.6857     52.3005     41.6691   6.8755283428e+01   6.1253702734e+01    0.6443364    0.3104907 -31.58  0.003028739    2.243    0.554
       188 -12.2471     45.5403     38.6063   7.0208410761e+01   6.2592634118e+01    0.5494478    0.2877963  46.70  0.001601787    2.879    0.653
       189 -11.4952     26.6376     55.5454   8.2122316860e+01   6.1039717153e+01    0.6366039    0.2179616 -64.17   0.00268147    2.944    0.660
       190 -11.7640     26.7381     49.3733   8.0489165704e+01   6.2279343360e+01    0.4836017    0.3462851 -83.01  0.002170488    1.854    0.461
       191 -12.0382    236.3259    247.1686   7.0124883654e+01  -8.6203139647e+00    0.4625309     0.231159  24.84  0.002626673    2.006    0.502
       192 -11.2942     32.6351     63.8352   8.2089376070e+01   5.8832716238e+01    0.2447842    0.2052829  44.12  0.001390108    1.500    0.333
       193 -10.2237    185.0147     64.2462   4.0060829125e+01   3.0114289962e+01     0.278867    0.2166876   4.10 0.0009826751    1.607    0.378
       194 -10.2135     69.2335     63.6070   6.9922302551e+01   5.4804676628e+01    0.3310837    0.1622676 -52.27  0.001301202    1.859    0.462
       195  -9.4513    143.8406     64.1967   4.8888211400e+01   4.0445335197e+01    0.2064552    0.1758127  18.38 0.0003954295    1.291    0.225
       196  -9.9534     77.1074     62.7984   6.7159163556e+01   5.3834574936e+01    0.1977155    0.1772184 -63.70 0.0006112119    1.225    0.184
       197  -9.9054    202.6138     61.2686   3.6016644253e+01   2.6020519919e+01    0.2602225     0.193463 -19.76 0.0008081192    1.480    0.324
       198 -10.6400    113.1541     60.8657   5.5754219783e+01   4.7831885234e+01    0.2145598    0.1955553 -66.90 0.0005599721    1.244    0.196
       199  -9.2963    183.6352     60.2418   3.9126277274e+01   3.1127736723e+01    0.1564772    0.1195739 -81.57 0.0003335419    1.605    0.377
       200 -10.7015     96.6371     58.8929   5.9878234611e+01   5.1371190290e+01    0.3747294     0.266575  84.82  0.001334445    2.584    0.613
       201 -10.0562     99.5128     55.4653   5.7877263060e+01   5.1487461090e+01    0.3338888    0.1873136  30.08  0.001134561    2.215    0.548
       202 -12.9813    105.3259     52.3772   5.5116813207e+01   5.0941329504e+01    0.4147388    0.3442299  30.79 0.0004997398    1.248    0.198
       203 -10.3575    104.2225     46.9584   5.3534597058e+01   5.2107553087e+01    0.3511321    0.2483193   5.61  0.001615641    1.800    0.444
       204 -11.5836     58.7862     58.9532   7.1981764606e+01   5.7113713502e+01    0.3766237    0.2752505 -43.50   0.00142772    1.156    0.135
       205 -10.2270     62.1198     54.7478   6.9579356561e+01   5.7530759085e+01    0.3121089    0.1603003 -45.05  0.001262481    1.654    0.395
       206  -9.9363     69.3559     57.8153   6.8122560761e+01   5.5950756140e+01    0.3349232    0.1603279 -59.18  0.001376169    2.681    0.627
       207 -11.1956    147.2521     56.7893   4.5691940294e+01   4.0919010000e+01    0.3294665    0.2495836 -54.20  0.001114773    1.476    0.323
       208 -11.1026    132.4085     56.2059   4.9092481187e+01   4.4515192571e+01    0.4405263    0.3368393 -29.27  0.001601866    1.305    0.234
       209 -10.5620     86.2778     57.3376   6.2536632847e+01   5.3460733459e+01    0.2749195    0.1529134 -34.59  0.001266392    1.774    0.436
       210 -10.5916     75.4507     55.8277   6.5496766393e+01   5.5458639652e+01     0.242324    0.1914735 -52.44 0.0005416724    1.272    0.214
       211  -9.7042    230.5983     54.7867   2.9902310787e+01   1.9848241448e+01    0.2159157    0.1260453 -41.85 0.0009468451    1.621    0.383
       212 -10.0046     88.3184     53.6333   6.0666154695e+01   5.3820157945e+01    0.3120464    0.2017311 -71.62  0.001286059    3.004    0.667
       213  -9.4227     88.2951     50.3197   5.9538982900e+01   5.4436466779e+01    0.1947378    0.1199991 -46.35 0.0005331708    1.587    0.370
       214 -10.8021    119.8083     52.5806   5.1144557620e+01   4.7935435021e+01    0.2656334    0.2343542  11.67 0.0006346013    1.164    0.141
       215  -9.6972     55.8877     52.8736   7.1128211543e+01   5.8679567610e+01    0.3009901    0.1722788 -14.40  0.001335315    2.921    0.658
       216  -9.3547    173.3269     52.3012   3.8676879609e+01   3.5075613795e+01    0.1604448    0.1171631  26.00 0.0006451143    1.640    0.390
       217 -12.3152    129.7145     49.1584   4.7380351227e+01   4.6325171845e+01    0.4316711    0.3627757   0.54 0.0004766419    1.274    0.215
       218  -9.5446     84.4316     51.2096   6.1065826237e+01   5.4922162412e+01    0.1965185    0.1204117 -51.04  0.000949393    1.720    0.419
       219  -9.9331     77.7890     50.2525   6.2881510300e+01   5.6163588683e+01    0.5026143    0.2627259 -36.09  0.002358191    1.800    0.445
       220  -9.4110     73.6860     50.6559   6.4369274657e+01   5.6711292705e+01      0.20872    0.1029402 -27.83 0.0008371694    2.668    0.625
       221  -9.7653    237.3195     50.3131   2.7815909430e+01   1.8825240346e+01    0.1451085    0.1114147  25.37 0.0003091155    1.650    0.394
       222 -10.9867     34.7425     42.3919   7.5508448040e+01   6.2965151458e+01    0.3641504     0.231175  -6.27  0.001800733    2.029    0.507
       223 -10.0285    169.0068     60.3942   4.2070864903e+01   3.4880494521e+01    0.2390388    0.2044907 -31.37 6.523159e-05    1.182    0.154
       224 -10.9464     59.1893     46.8084   6.8026461675e+01   5.9441208898e+01    0.3844392    0.3269733  89.61  0.001993445    1.713    0.416
       225 -10.4624    151.4717     45.9968   4.1165982970e+01   4.1632083598e+01    0.2547612    0.2401735  16.33 0.0007214889    1.063    0.059
       226 -10.2272    143.3138     45.5745   4.2859139476e+01   4.3703024178e+01    0.2458037    0.2274929 -38.79 0.0005403078    1.113    0.101
       227 -10.3637    113.0054     44.9290   5.0313919034e+01   5.0673439150e+01     0.371678    0.2276158  23.73  0.001601128    2.146    0.534
       228 -11.0399     91.6770     43.3139   5.5990145460e+01   5.5086804636e+01       0.4969    0.2430515 -48.09  0.001969614    2.287    0.563
       229 -10.2400     95.4734     42.7972   5.4634072174e+01   5.4483954706e+01    0.2896799    0.2067014   0.83 0.0002576951    1.699    0.411
       230 -11.1118     97.4525     38.5602   5.2462716944e+01   5.4816697535e+01    0.4378315    0.3560131  37.63  0.002493669    1.270    0.212
       231  -9.9237    139.3869     43.2391   4.2969858928e+01   4.5012019070e+01    0.2099542    0.1351731 -40.47 0.0004418564    1.592    0.372
       232 -10.5126    131.2989     41.7968   4.4409499191e+01   4.7140700380e+01    0.3070583    0.2394032 -45.40 0.0007461827    1.375    0.273
       233  -9.9321     72.5279     42.2510   6.1829339280e+01   5.8427792099e+01    0.3442315    0.2027693 -62.17 0.0008586021    2.914    0.657
       234 -11.4623     29.0688     65.6881   8.3703882577e+01   5.8742036156e+01    0.3219384    0.2088414 -63.95 0.0004060336    1.300    0.231
       235  -9.8851    108.5695     41.8792   5.0450104329e+01   5.2089213311e+01    0.3361802    0.1471537  35.67  0.001241678    2.825    0.646
       236 -10.5146     18.3214     42.0923   8.1644440167e+01   6.4342046272e+01    0.5622161   0.09515134 -49.54  0.002203947    3.385    0.705
       237 -11.3905     23.9058     41.3669   7.9311593092e+01   6.4076624837e+01    0.6217108    0.3597742 -83.05   0.00284122    3.707    0.730
       238 -12.9362     27.6434     37.8974   7.6829438315e+01   6.4444216887e+01     0.552666      0.30058 -29.52  0.001637565    1.888    0.470
       239 -11.7716     24.4262     34.7211   7.7098053776e+01   6.5304140055e+01    0.2564423    0.1766445 -26.99  0.001226624    1.367    0.268
       240  -9.9605    121.6774     40.6373   4.6433137552e+01   4.9500076972e+01     0.259958    0.1638094  38.80 0.0006341404    1.624    0.384
       241 -10.4952     69.8533     37.1022   6.0855107497e+01   5.9730602847e+01      0.25285    0.1871392   5.62 0.0007993871    1.499    0.333
       242  -9.9400    152.3430     38.8937   3.8581150461e+01   4.2478826929e+01    0.2060868    0.1891733 -18.59 0.0004202474    1.109    0.098
       243 -11.2685    225.1649     37.8379   2.6079956842e+01   2.3606011444e+01    0.3072379    0.2369602 -86.89 0.0003589698    1.361    0.265
       244 -11.3393    221.7794     32.0011   2.4928188429e+01   2.5247359734e+01    0.2882142     0.228908 -34.68  0.000322507    1.256    0.204
       245  -9.7434     86.0162     38.5201   5.5998424220e+01   5.6895392665e+01    0.1781156    0.1309864  38.27 3.157282e-05    1.442    0.307
       246 -10.7752     81.0288     36.2447   5.6754546676e+01   5.8119421963e+01    0.2782402    0.2230455 -54.66  0.001600381    1.538    0.350
       247  -9.4701     84.9213     34.5649   5.4842036098e+01   5.7735527323e+01    0.2004733    0.1516885  13.96 0.0004452936    1.403    0.287
       248 -10.5751    122.5883     79.5592   5.9015886626e+01   4.2254783201e+01     0.242472    0.2302844 -41.65 0.0002599809    1.014    0.014
       249  -9.5996     89.7903     35.5496   5.3673069268e+01   5.6718513770e+01    0.1830609    0.1520976 -18.12 0.0005368188    1.094    0.086
       250 -12.8702     57.7298     34.2134   6.4097625536e+01   6.1920421214e+01    0.2962574      0.23862 -15.78 0.0006816435    1.140    0.123
       251  -9.5121    134.4246     35.2323   4.1312574300e+01   4.7389538715e+01    0.2065265     0.132683 -40.36 0.0009474498    1.625    0.385
       252 -10.6024     79.6500     28.3787   5.4125312785e+01   5.9611800321e+01    0.4491472    0.1574676 -30.93  0.001412911    3.013    0.668
       253 -10.5990     74.2734     35.4511   5.8712131055e+01   5.9339679563e+01    0.2207262    0.1630764  43.06 0.0007910145    1.563    0.360
       254 -10.5856     77.3574     33.1458   5.6780199113e+01   5.9231694798e+01    0.2846287    0.1764853  29.79 0.0008961334    1.753    0.429
       255 -11.7364      8.4796     32.2157   8.2753583231e+01   6.6863570086e+01    0.3737432    0.2054951 -60.50  0.001128624    1.525    0.344
       256  -9.9358     12.5033     32.4843   8.1200818247e+01   6.6570672056e+01    0.1876575    0.1220018 -63.84 0.0006695821    1.500    0.333
       257 -11.3097     17.2751     30.9908   7.8805207401e+01   6.6533828994e+01    0.3893912     0.205443  24.91  0.002337691    2.319    0.569
       258  -9.8763    107.9413     34.2154   4.7766633686e+01   5.3422825350e+01    0.3011118    0.1600537  40.85  0.001144868    1.909    0.476
       259 -11.0844    102.6638     29.0928   4.7285350783e+01   5.5256475286e+01    0.4350033    0.3385353  89.39  0.002214016    2.080    0.519
       260 -10.7967    157.8333     42.6222   3.8681010149e+01   4.0542812231e+01    0.3216171    0.2387941  59.37 0.0003913833    1.335    0.251
       261 -10.6977    246.8645     32.8403   2.2194302662e+01   1.8865863194e+01    0.1994218    0.1879345  43.76  0.000451279    1.222    0.182
       262  -9.5115    184.3239     33.6995   3.0871241585e+01   3.4884496889e+01    0.1560358    0.1122026 -67.85 0.0001976012    1.632    0.387
       263 -10.5202    232.8387     32.1869   2.3620223034e+01   2.2408712049e+01    0.3511271    0.1901657  36.34  0.001002751    2.699    0.630
       264 -10.8288    236.9963     29.7995   2.2515773714e+01   2.1676917462e+01    0.2533014    0.1996622  19.40  0.001317343    1.662    0.398
       265 -10.0134    205.9160     32.2899   2.7138842982e+01   2.9346989064e+01    0.2050879    0.1833083  70.93 0.0003235792    1.085    0.078
       266  -9.5312    166.4963     32.5202   3.3628005051e+01   3.9738638648e+01    0.1495988    0.1422042  45.77 -2.640362e-06    1.024    0.023
       267 -10.3257     97.9836     31.4563   4.9580732542e+01   5.5829025057e+01    0.2033897    0.1312904  44.76 0.0006505452    1.589    0.371
       268 -10.3616     49.9213     28.8667   6.4996968393e+01   6.3821203235e+01    0.4660766     0.184151 -31.82  0.001970763    2.796    0.642
       269  -9.4028     44.4091     31.4765   6.8108516975e+01   6.4005342974e+01    0.1202641   0.09798298 -35.05 0.0001013453    1.082    0.076
       270 -12.1589    111.7822     27.5105   4.4130737907e+01   5.3591318151e+01    0.2994607    0.2428464 -12.00 -0.0001539569    1.200    0.167
       271 -10.3423     68.2162     26.5710   5.7315572023e+01   6.1715226618e+01    0.4669648    0.2193054  21.42  0.001807761    3.681    0.728
       272 -10.3658     60.0952     26.9909   6.0423488861e+01   6.2819789450e+01    0.2052396    0.1582131 -38.51  0.000782365    1.253    0.202
       273 -10.6644    204.4778     26.1818   2.5575562537e+01   3.0507826342e+01    0.3814958    0.2169379 -50.20  0.001491639    1.856    0.461
       274 -10.0757    198.6604     27.6751   2.6828785551e+01   3.1859752538e+01    0.1563231    0.1079708  33.65 0.0007051253    1.727    0.421
       275 -10.6253    174.9814     26.3922   3.0128100704e+01   3.8306009908e+01    0.2943197     0.209905 -28.95  0.001425706    1.456    0.313
       276 -11.9042    232.1678    245.5799   7.0559295908e+01  -7.8219979873e+00    0.3908713    0.2227293 -13.28  0.002360174    2.323    0.570
       277 -10.9724    128.4673     25.0934   3.8996897740e+01   5.0181655421e+01     0.441927    0.2490443 -19.82  0.001955723    1.922    0.480
       278 -12.0993     36.9861    243.1023   1.0174343554e+02   2.1931494629e+01    0.5276316    0.2175506  85.61  0.002596724    2.383    0.580
       279 -11.3669     30.6976    234.5501   1.0221156662e+02   2.4039877468e+01    0.3800069    0.1252399  86.44  0.001780546    3.852    0.740
       280  -9.0538    144.3143     25.9926   3.5788588202e+01   4.6247291213e+01    0.2423974   0.08376258 -46.18 0.0007040349    4.201    0.762
       281  -9.7494    118.1941     25.9610   4.1850491287e+01   5.2407147234e+01    0.3306146    0.1530686  32.21  0.001216522    2.859    0.650
       282 -10.2914    250.3875    246.2237   6.7757151137e+01  -1.0652075605e+01    0.1253796   0.09895122 -25.73 0.0006856889    1.634    0.388
       283 -13.2791     74.2670    238.1503   9.5740741157e+01   1.8091366239e+01    0.7178522      0.50325 -89.14  0.005420789    1.336    0.252
       284 -10.7003     61.8678    242.0858   9.7955520353e+01   1.9082648062e+01    0.3865871   0.09448872  52.37  0.001844896    2.951    0.661
       285 -10.3937      9.5647     15.5997   7.6939697997e+01   6.9814804936e+01    0.2350467    0.1297444 -25.81 0.0007722421    1.707    0.414
       286 -11.0550      8.6059     24.5939   8.0414336837e+01   6.8273614812e+01    0.3415956    0.1667073  10.63  0.002041074    2.625    0.619
       287 -11.4303     14.0165     23.0591   7.7586440310e+01   6.8207160342e+01    0.2291664    0.1383593 -32.60 0.0003493071    1.393    0.282
       288  -9.7018     98.0292    242.2001   9.2270866661e+01   1.4106584255e+01    0.1518013   0.06806544  46.52 0.0005912205    1.762    0.432
       289 -11.5464      6.2416     20.4288   8.0097727256e+01   6.9165567144e+01    0.2134204    0.1907836   9.53 0.0006657763    1.445    0.308
       290 -10.0571      1.5199     25.7491   8.3781329507e+01   6.8447204362e+01    0.1941484   0.07243488 -54.68 0.0004833779    1.829    0.453
       291  -9.2510    219.2761     25.3220   2.3413986599e+01   2.6743258276e+01    0.1407529    0.1092481  29.84 0.0003213914    1.579    0.367
       292 -11.1190     88.6321    241.0125   9.3679409284e+01   1.5645024208e+01    0.1987265    0.1192036 -58.01  0.001311936    2.171    0.539
       293 -12.3494    165.1651     22.7067   3.0619733391e+01   4.1338028725e+01    0.3666113    0.2902436  48.71 0.0002564996    1.205    0.170
       294 -10.1933     93.8480     22.1319   4.7074921125e+01   5.7970654945e+01    0.2123305    0.1845367   1.33 0.0005420718    1.019    0.018
       295 -10.8020    100.8570     21.8995   4.4926122969e+01   5.6624454258e+01     0.494132    0.2812478  30.45  0.002311873    1.926    0.481
       296  -9.2021     62.6277     23.6963   5.8147229634e+01   6.2988542104e+01    0.1319206   0.08651349  -2.93 0.0001236425    1.756    0.431
       297  -9.7034    186.1782     22.2520   2.7034020231e+01   3.5845530426e+01    0.2099167    0.1653545 -71.19  0.001056992    1.376    0.273
       298 -10.4593     86.9962     20.9413   4.8685740974e+01   5.9416401463e+01    0.3350725    0.2013792  26.74  0.001678216    1.816    0.449
       299 -10.1316    195.5169    238.4975   7.5582565333e+01  -1.1060400403e+00     0.196705    0.1640691   8.94  0.001415109    1.366    0.268
       300 -10.4495    120.2017     20.9642   3.9414046648e+01   5.2607394673e+01    0.1988336    0.1824733   2.52 0.0003171593    1.049    0.046
       301 -10.5970     67.1561     21.0268   5.5387769101e+01   6.2726471251e+01    0.2627772    0.1842998  47.83  0.001523599    1.797    0.443
       302 -10.3227     52.1684     17.9654   5.9679303800e+01   6.5304745667e+01    0.3502223     0.148853  43.23  0.000990156    2.976    0.664
       303  -9.8336    134.7779    238.2225   8.5815178120e+01   9.0457450892e+00    0.1503246   0.08987225 -43.63 0.0008833529    2.472    0.596
       304 -10.9146    244.3287    236.8917   6.7297660500e+01  -8.8414681810e+00    0.1958507     0.131531  40.57  0.001177325    1.325    0.245
       305 -10.2280    160.1330    235.7914   8.1228761281e+01   5.2073803397e+00     0.157523    0.1202179  33.56 0.0004190627    1.346    0.257
       306  -9.7330    177.3719    234.8241   7.8159382893e+01   2.4211099996e+00    0.1405007    0.1119067 -22.66 0.0009480052    1.698    0.411
       307  -9.5699    221.4724    234.4871   7.0665958459e+01  -4.9462273232e+00    0.1190738   0.08939897  29.95 0.0002112347    1.046    0.044
       308 -10.8737     86.7778    232.8910   9.3297110035e+01   1.7218130987e+01     0.228367    0.1008043  61.84  0.001231554    2.081    0.520
       309 -10.7038    108.2951     17.2858   4.0997750059e+01   5.5676232468e+01    0.2552433    0.1839521  17.67 0.0007797258    1.430    0.301
       310 -10.4559    194.9815     16.8624   2.4137183384e+01   3.4138740080e+01    0.2115326    0.1958839  81.41 0.0003539766    1.011    0.010
       311  -9.5845    152.9823     17.7683   3.1156237046e+01   4.5064628105e+01    0.1982919    0.1143323  61.04 0.0004230244    1.633    0.388
       312 -10.1330     38.3062    232.4520   1.0094980370e+02   2.3532147775e+01    0.1634361    0.1041849  89.00 0.0004223163    1.299    0.230
       313 -10.8086     71.1315     16.6043   5.2076567580e+01   6.2742529274e+01    0.6873507    0.1859129  38.76  0.002453425    4.098    0.756
       314 -10.0727     24.0978    232.1583   1.0306605334e+02   2.5157061799e+01     0.138991    0.1059594  79.73 0.0005769254    1.258    0.205
       315  -9.2171     58.4888    229.5095   9.7614498606e+01   2.1591946216e+01    0.1094053   0.07644226  70.01 0.0001106383    1.011    0.011
       316  -9.3351    170.2872    228.6918   7.8562082639e+01   4.4662942804e+00    0.1153202   0.08333719  67.20 0.0002268363    1.573    0.364
       317 -11.0867      4.2906    226.1628   1.0568718130e+02   2.8167772047e+01    0.2774961    0.1336028 -86.67  0.002018709    1.623    0.384
       318  -9.8044    143.7313     16.4169   3.2468055405e+01   4.7549361507e+01     0.205177    0.1198416  48.87 0.0007260146    1.577    0.366
       319 -10.6707    173.0056     19.9567   2.8381182255e+01   3.9608375476e+01     0.243159    0.1699587 -65.54 0.0008864633    1.707    0.414
       320  -9.4572    183.3384     15.6511   2.5412326371e+01   3.7367024104e+01    0.1579979    0.1036184 -63.79 0.0004233323    1.788    0.441
       321  -9.2100    190.3410    226.3170   7.4744957340e+01   1.3119686176e+00    0.1231507   0.08269145  22.27 0.0007048758    1.710    0.415
       322 -10.9598    120.8262    225.8361   8.6842982248e+01   1.3208312530e+01    0.1736043    0.1452363  49.95  0.000940794    1.232    0.188
       323  -9.4629     66.3197    226.3056   9.6113009322e+01   2.1128006854e+01   0.08842668    0.0847912  76.94 0.0007030219    1.634    0.388
       324 -11.1753     10.4377    216.8792   1.0435708179e+02   2.9170327344e+01    0.2682612    0.1589144  48.49  0.001958366    1.605    0.377
       325  -9.8711     38.2307    217.3886   1.0003811920e+02   2.6142567060e+01    0.1482358   0.07045729  54.67 0.0009434568    1.640    0.390
       326 -11.4867     29.4967    215.6387   1.0132642482e+02   2.7427051232e+01    0.2250061    0.1710585  48.65  0.001531933    1.543    0.352
       327  -9.5938     30.7865     12.3546   6.6110836349e+01   6.8625510252e+01     0.133107   0.09532569   3.99 0.0005048118    1.425    0.298
       328 -11.2534    236.0008    214.2238   6.5001662320e+01  -5.0548450962e+00    0.2022235    0.1648573 -10.43 0.0007453759    1.292    0.226
       329 -10.2012    156.5327     11.5125   2.8341649904e+01   4.4844979403e+01    0.1437712    0.1318261  47.62 4.787399e-05    1.021    0.020
       330 -11.6592    238.4042    210.4784   6.3958477904e+01  -5.0225002844e+00    0.2793878    0.2669839  86.33  0.001977664    1.595    0.373
       331  -9.4402    136.4924    215.5320   8.2844495158e+01   1.2290772001e+01    0.1235436    0.1008595  54.17 0.0001041931    1.060    0.056
       332  -9.5123    169.7664    213.0046   7.6456960390e+01   6.8352514596e+00    0.1415998    0.1076912 -47.80 0.0006988658    1.602    0.376
       333 -10.2514     20.3680    211.9812   1.0256315221e+02   2.9044473604e+01    0.1949705   0.09549981  65.39  0.001285022    1.560    0.359
       334  -9.6749    107.5010     10.5564   3.8440263454e+01   5.6635964492e+01    0.1350627    0.1194334  18.99 3.017517e-05    1.008    0.008
       335  -9.0316    208.3495    211.3302   6.9282859611e+01   1.1228036902e-01    0.1314641   0.08553211  19.02 0.0007048494    1.767    0.434
       336 -12.0959      5.5103    208.4797   1.0470816022e+02   3.1124651210e+01    0.3409629    0.1809281 -82.77   0.00210699    1.498    0.332
       337 -10.2526     11.0690    207.9477   1.0381360403e+02   3.0693661722e+01    0.1529561    0.1086602  82.39 0.0005835907    1.118    0.105
       338 -10.4838    246.8347    203.5312   6.1325590151e+01  -5.6301508449e+00    0.3846116    0.2057753 -47.14  0.001852295    3.084    0.676
       339 -11.0317     20.1999    199.6588   1.0187311641e+02   3.1312175990e+01    0.3428316    0.1277092 -79.12  0.001942021    2.241    0.554
       340 -10.5849    175.3353    202.3251   7.3809271783e+01   7.4541616615e+00    0.2310884    0.1875153  52.94 0.0004393966    1.119    0.107
       341  -9.7539    223.2091    200.7796   6.4877962329e+01  -1.1659865959e+00    0.1868742    0.1402007  86.78 0.0009446285    2.731    0.634
       342 -10.0940    117.1001    201.5156   8.4653554018e+01   1.7978558822e+01    0.1908156    0.1055793  47.72 0.0009370436    1.549    0.354
       343  -9.3444    188.2274    204.9722   7.1857657468e+01   4.6621879666e+00    0.1450975    0.1085027 -40.93 0.0005858796    1.593    0.372
       344 -11.4046     16.1454    193.0434   1.0214949575e+02   3.2954020412e+01    0.3365251    0.1857592  41.62  0.002147402    1.923    0.480
       345 -10.2185    244.7181    188.0451   5.8827811506e+01  -3.3696073455e+00    0.1784349    0.1470595   3.19 0.0004660447    1.109    0.098
       346  -9.1950    212.3041    187.6818   6.4463372607e+01   2.6628308608e+00    0.1225489    0.1046532  79.93 0.0005493904    1.627    0.385
       347  -9.4011      2.3293    187.3215   1.0414334338e+02   3.5302907039e+01   0.09169405   0.06686731 -64.99  0.000431418    1.692    0.409
       348 -11.4820     15.8682    182.0501   1.0150100561e+02   3.5091362546e+01    0.3742786    0.1771992  80.34  0.001675604    1.807    0.447
       349 -10.5094    168.2598    183.5990   7.2068029433e+01   1.1873725197e+01      0.26925    0.1996863  76.60  0.001418749    1.700    0.412
       350  -9.7564     58.8380    181.7006   9.3530781369e+01   3.0430262688e+01    0.1596326    0.1452119  57.90 0.0008719891    1.395    0.283
       351  -9.0680      1.6910    180.2885   1.0386450248e+02   3.6698271633e+01    0.1074248   0.05419628  70.16 0.0003416704    1.576    0.366
