#   1 NUMBER                 Running object number                                     
#   2 MAG_AUTO               Kron-like elliptical aperture magnitude                    [mag]
#   3 X_IMAGE                Object position along x                                    [pixel]
#   4 Y_IMAGE                Object position along y                                    [pixel]
#   5 X_WORLD                Barycenter position along world x axis                     [deg]
#   6 Y_WORLD                Barycenter position along world y axis                     [deg]
#   7 A_WORLD                Profile RMS along major axis (world units)                 [deg]
#   8 B_WORLD                Profile RMS along minor axis (world units)                 [deg]
#   9 THETA_WORLD            Position angle (CCW/world-x)                               [deg]
#  10 FWHM_WORLD             FWHM assuming a gaussian core                              [deg]
#  11 ELONGATION             A_IMAGE/B_IMAGE                                           
#  12 ELLIPTICITY            1 - B_IMAGE/A_IMAGE                                       
         1 -13.5121    187.3631     27.0072   7.4581730422e+01   3.4498408016e+01     1.327428     1.217907  60.32  0.006237929    1.101    0.092
         2 -13.9839    199.9209      9.2369   6.7669575959e+01   3.3126735493e+01     1.754192      1.12568  44.14  0.008624475    1.716    0.417
         3 -13.6880      7.3832     12.3082   1.2950711831e+02   7.3651424906e+01     1.926487    0.7924467 -53.18  0.009928011    1.813    0.448
         4 -10.3020    152.8580    248.8887   1.2810125272e+02   8.3892037518e+00    0.1605373     0.112139  28.29  0.000467505    1.201    0.168
         5 -11.3375    140.1200    249.9564   1.3036561533e+02   9.9542784937e+00    0.3405817    0.1378209  39.51  0.002009486    1.743    0.426
         6 -10.0396    127.4927    250.4883   1.3256509090e+02   1.1542184277e+01    0.1927194   0.07505163  38.49  0.000996037    1.821    0.451
         7 -10.9907     65.7398    250.2493   1.4307554475e+02   1.9093930497e+01    0.3059396    0.1659752  31.54  0.002108556    1.776    0.437
         8 -11.0351     46.5122    248.5653   1.4621248860e+02   2.1407073510e+01    0.2887759    0.1613842  51.65 0.0009128745    1.231    0.188
         9 -10.6067     29.0147    249.0751   1.4911409326e+02   2.3087031902e+01    0.2448396    0.1809746 -83.70   0.00109238    1.587    0.370
        10 -12.0685     34.9844    245.0862   1.4798336120e+02   2.3085328243e+01     0.531209    0.4317547  73.83  0.004480075    1.294    0.227
        11 -10.8042     28.9460    242.8031   1.4890053248e+02   2.4014867863e+01    0.3377542     0.139793  46.43  0.001496218    1.586    0.370
        12 -14.8222     58.9538    213.4184   1.4204912930e+02   2.5506772994e+01     10.54897     3.009505  56.72   0.04365517    3.971    0.748
        13 -10.9882     81.4778    249.0469   1.4033225291e+02   1.7456272188e+01    0.2113499    0.1038717  45.22 0.0009595453    1.414    0.293
        14 -10.5214     95.1221    241.4174   1.3742638397e+02   1.6863270402e+01    0.1941901    0.1412558  82.47 0.0009149777    1.626    0.385
        15 -13.9605     51.9707    225.1674   1.4407631137e+02   2.4369491649e+01    0.9112725    0.5898903  66.30  0.004796384    1.315    0.239
        16 -10.1300    183.7312    238.1616   1.2169255263e+02   5.3920014092e+00    0.2117492    0.1083166  22.01  0.001053244    2.063    0.515
        17 -10.4705     34.6798    229.7811   1.4739955083e+02   2.5444590840e+01    0.2348555    0.1328337  55.27 0.0008541514    1.270    0.212
        18  -9.9826     36.7659    226.0426   1.4686230782e+02   2.5827527490e+01    0.1711528    0.1059983  72.01 0.0005205537    1.399    0.285
        19 -11.4415     20.3057    228.1018   1.4984020995e+02   2.7094674113e+01    0.3876482    0.2778873 -32.66  0.002761954    2.914    0.657
        20 -13.7894     10.9688    206.8099   1.5077628999e+02   3.1457223437e+01     1.248686    0.7298739  74.86  0.002739839    1.394    0.282
        21 -10.9028    155.2741    228.5539   1.2545958121e+02   1.0498269519e+01    0.2912515   0.08564758  36.90   0.00130782    2.675    0.626
        22  -9.7725    177.2715    226.9197   1.2139364477e+02   7.5560668216e+00    0.1944435    0.1463402  56.89  0.001059741    1.767    0.434
        23 -10.9370    172.8628    221.5991   1.2148296803e+02   8.8256410575e+00    0.2714114    0.2140721  47.73  0.001454064    1.377    0.274
        24  -9.6415     27.6216    221.6910   1.4830679811e+02   2.7433697212e+01    0.1998274    0.1066721  50.63 0.0006902093    1.331    0.249
        25 -15.3698      5.0024    239.1014   1.5272620598e+02   2.6754068840e+01     9.994114    0.8507069 -78.05   0.03792831    8.530    0.883
        26 -10.9560    198.1095    245.3346   1.2020384692e+02   2.7150445247e+00    0.1693646    0.1499686  -1.56  0.001354646    1.415    0.293
        27  -8.7644    152.4853    212.9450   1.2406862847e+02   1.2950156799e+01    0.1335695    0.1169361 -40.85  0.000395094    1.453    0.312
        28 -11.8721     31.1675    205.2034   1.4690064583e+02   2.9869048714e+01    0.2645092    0.1504619  48.41 0.0006409679    1.328    0.247
        29 -11.0023     24.3081    202.7740   1.4810246424e+02   3.0955226655e+01    0.2556822     0.217195  18.86  0.002058434    1.643    0.391
        30 -11.6259     69.2269    198.9969   1.3894733082e+02   2.6768218136e+01     0.364514    0.2678522  74.43  0.001233121    1.290    0.225
        31 -10.0048    193.6553    195.9774   1.1411200430e+02   8.8452211214e+00    0.3923533    0.1747481 -52.41  0.001485683    5.593    0.821
        32 -11.6540     74.6790    191.5368   1.3716954194e+02   2.7420708632e+01     0.227992    0.2244958 -31.05 0.0007281353    1.366    0.268
        33  -8.7515    106.7144    182.1074   1.2931886638e+02   2.4705464538e+01    0.1569453    0.1371812  55.29 0.0003492614    1.052    0.049
        34 -10.9855     83.4966    178.8214   1.3399260228e+02   2.8611201292e+01    0.2114347    0.1963903  75.55 0.0004984108    1.152    0.132
        35 -13.1846     71.0102    176.6761   1.3653393554e+02   3.0659422503e+01    0.4216581    0.2658896 -41.19  0.001625194    2.375    0.579
        36  -9.0747    173.0823    174.8881   1.1449825759e+02   1.5099163584e+01    0.1802939    0.1570291  47.78  0.000337281    1.253    0.202
        37 -11.7811     90.2533    169.4860   1.3138657740e+02   2.9451987013e+01    0.6031718     0.469961  51.40   0.00383146    1.110    0.099
        38  -9.7165     97.8176    171.6312   1.2994475759e+02   2.7946007896e+01    0.2350343    0.1325075  46.80 0.0005507615    1.546    0.353
        39  -9.0018    250.6743    171.7046   1.0046802976e+02   2.8163039598e+00    0.1224667   0.07250275  12.29 0.0002059075    1.625    0.385
        40 -10.0497    195.5473    159.2663   1.0738673122e+02   1.3438145557e+01     0.255045    0.2157892 -82.58 0.0009272469    1.959    0.489
        41 -12.7490     67.0939    144.1789   1.3378138097e+02   3.7796000529e+01    0.9155992    0.5183573  73.94  0.004435654    2.174    0.540
        42 -12.0023     54.4890    122.1634   1.3423078671e+02   4.4244738176e+01    0.7928159    0.2960596 -77.35  0.002879173    3.545    0.718
        43 -12.0615     90.5378    152.2031   1.2900961352e+02   3.2848212959e+01    0.2490931    0.2370633  -2.06 0.0005871126    1.285    0.222
        44  -9.8537    101.5298    152.6247   1.2641069114e+02   3.1085618060e+01    0.2460809    0.2338815  42.86 0.0007045722    1.117    0.104
        45  -9.1811    104.2383    148.5889   1.2512307767e+02   3.1466928844e+01    0.2256729    0.1840879 -23.40  0.001046647    1.614    0.381
        46  -9.6404    235.4974    150.9920   9.8872182565e+01   7.5673589827e+00    0.1627391   0.09941261 -47.53 0.0008104204    2.540    0.606
        47 -12.6631     45.9287    234.4094   1.4564364597e+02   2.3571584407e+01    0.2798157    0.2203493  55.92 0.0007634039    1.140    0.123
        48  -8.6733    191.9987    143.9969   1.0501667799e+02   1.6317006102e+01    0.1604409     0.141102  15.86 0.0003662002    1.005    0.005
        49 -10.3540    176.7920    139.9473   1.0714995132e+02   1.9860024459e+01    0.4168285     0.304381  88.76  0.001647105    2.635    0.620
        50 -12.1799     31.2926    139.6644   1.4254039276e+02   4.2776834353e+01    0.4626918    0.1887295  38.16  0.002335739    2.205    0.546
        51  -9.6354    111.7109    137.5656   1.2139685766e+02   3.2463958965e+01    0.2800803    0.2191949  -9.61 0.0009570592    1.797    0.443
        52 -10.6382     99.4307    134.9595   1.2403546707e+02   3.5053902294e+01    0.2655141    0.2302824 -34.81 0.0004584738    1.353    0.261
        53  -9.8890    170.1171    133.9541   1.0724554879e+02   2.2155597872e+01    0.2246727    0.1914645  50.80 0.0007673511    1.229    0.186
        54  -9.4619     90.0439    138.8191   1.2709965825e+02   3.5713904911e+01    0.2007442    0.1561697  62.45 0.0004920542    1.262    0.208
        55  -9.1451    108.3859    124.1623   1.1968136993e+02   3.5819901276e+01    0.1792547    0.1653956 -70.47 0.0003645009    1.110    0.099
        56  -8.5911    152.2382    118.1952   1.0760148103e+02   2.8553760595e+01    0.2211301    0.1070017  54.49  0.000366788    2.398    0.583
        57 -10.5677    167.9786    113.1858   1.0294966767e+02   2.6148991902e+01    0.3369013    0.2900053 -83.35 0.0009754904    1.513    0.339
        58  -8.2203    146.3212    113.6475   1.0789315993e+02   3.0625066370e+01    0.1481759    0.1170802 -88.31 0.0007047499    1.751    0.429
        59  -9.0388    203.4697    111.5071   9.5642511688e+01   1.8911562375e+01    0.1421873    0.1255961   6.95 9.960753e-05    1.049    0.047
        60 -10.3370    130.3766    102.2805   1.0899155200e+02   3.6138266580e+01    0.5188985    0.3111682  71.06   0.00179928    3.012    0.668
        61  -9.1810    154.7202     75.6321   9.5723177166e+01   3.5715339282e+01    0.1574555    0.1177939   8.28 0.0007012376    1.686    0.407
        62  -9.8207     24.2560     68.9309   1.3581547183e+02   5.9747922989e+01    0.2084899    0.1716819  44.00 0.0005922886    1.365    0.267
        63 -11.0732      1.8544     61.7574   1.4374877511e+02   6.2801064142e+01    0.6302732    0.1026314 -76.75  0.001878022    5.385    0.814
        64 -12.1203      2.3070     46.6230   1.4129221343e+02   6.6291420016e+01    0.8120579    0.1735882 -75.34  0.002748092    4.235    0.764
        65 -11.4899     14.2061     46.8718   1.3572896054e+02   6.5607252916e+01    0.3330539     0.186892  37.80    0.0011559    2.082    0.520
        66  -9.2261    174.3220    248.9809   1.2452087556e+02   5.5117521908e+00    0.1281125   0.08674145 -76.03 0.0007050512    4.351    0.770
        67  -9.5664    162.4709    249.4829   1.2654715432e+02   7.0395517770e+00    0.1066126   0.07554692  34.57 5.658392e-05    1.017    0.017
