#   1 NUMBER                 Running object number                                     
#   2 MAG_AUTO               Kron-like elliptical aperture magnitude                    [mag]
#   3 X_IMAGE                Object position along x                                    [pixel]
#   4 Y_IMAGE                Object position along y                                    [pixel]
#   5 X_WORLD                Barycenter position along world x axis                     [deg]
#   6 Y_WORLD                Barycenter position along world y axis                     [deg]
#   7 A_WORLD                Profile RMS along major axis (world units)                 [deg]
#   8 B_WORLD                Profile RMS along minor axis (world units)                 [deg]
#   9 THETA_WORLD            Position angle (CCW/world-x)                               [deg]
#  10 FWHM_WORLD             FWHM assuming a gaussian core                              [deg]
#  11 ELONGATION             A_IMAGE/B_IMAGE                                           
#  12 ELLIPTICITY            1 - B_IMAGE/A_IMAGE                                       
         1 -10.5130     46.9996     27.1525   8.4253399850e+01   6.5666205447e+01    0.5443554    0.2161009 -40.41  0.002491593    2.286    0.562
         2 -11.0859     85.8211     19.6037   6.6260543016e+01   6.0253497804e+01    0.6334937    0.2939273  22.84  0.002290154    3.566    0.720
         3 -11.0613     13.6799     15.9825   9.5486735467e+01   7.1002977717e+01    0.2389749    0.2073537  -9.23 0.0008156058    1.270    0.212
         4 -11.5469    234.6929     14.9977   3.9146161119e+01   2.4923865017e+01    0.2587223     0.193321 -59.35 0.0001836926    1.168    0.144
         5 -11.7338     34.7593     12.7541   8.3235467338e+01   6.9402884093e+01    0.3045839    0.2394005 -33.02 0.0008557783    1.363    0.266
         6 -11.5567     30.6034      7.1145   8.2449276670e+01   7.0693123553e+01    0.3778254    0.3034833  10.62   0.00271096    1.228    0.186
         7 -10.4699     92.5858     10.0269   6.0066040608e+01   5.9935549519e+01    0.2744427    0.1776736  29.05 0.0003203587    1.471    0.320
         8 -10.4335     89.5227     13.5001   6.2464649938e+01   6.0209287160e+01     0.235618    0.2158937  68.87 0.0005553641    1.375    0.273
         9 -10.1969     85.7112     11.6807   6.2804436480e+01   6.1183195123e+01    0.2264528    0.1925682  -8.34 0.0009534256    1.166    0.142
        10 -10.9379     64.3823     11.9219   7.0135227173e+01   6.5153982783e+01    0.3133531    0.2218439 -55.01  0.001661491    2.474    0.596
        11  -9.8448    203.2153     12.0258   4.1412308263e+01   3.2753714085e+01     0.167163     0.107082 -29.59 0.0005821595    1.659    0.397
        12 -10.3747     99.3042     11.4758   5.8853184328e+01   5.8347806407e+01    0.2710974    0.2165266  65.95 0.0008760249    1.422    0.297
        13 -10.5514    126.4686     10.7084   5.2249670050e+01   5.2158855833e+01    0.3621115    0.1710461  44.09  0.001586034    1.978    0.494
        14 -10.3376     22.2995      9.3205   8.7829105076e+01   7.1285226675e+01    0.2965118    0.1702185 -11.46  0.001742434    1.756    0.430
        15  -9.6353     15.1503      8.9397   9.1488730455e+01   7.2013596386e+01    0.1769327   0.09932659 -20.37 0.0003853157    1.598    0.374
        16  -9.6227     88.6788      7.4474   6.0040194010e+01   6.1009541154e+01    0.2143555    0.1145841 -21.03  0.001063007    1.927    0.481
        17 -10.2858    224.0369      7.5304   3.8310173528e+01   2.8218137415e+01    0.1907322    0.1151976  78.22 0.0005023095    1.541    0.351
        18 -10.3924    204.4027      6.6924   3.9907446581e+01   3.3019110408e+01     0.240278    0.1133565 -34.23 0.0008660992    2.069    0.517
        19  -9.5879    156.0154      7.5695   4.6029901819e+01   4.5110665804e+01    0.2002212    0.1217913  68.15 3.680736e-06    1.478    0.323
        20 -10.9103     70.9433      6.1133   6.4986944033e+01   6.4630236096e+01    0.3135653    0.2643143 -40.54  0.002005587    1.557    0.358
        21  -9.9455     64.9931      7.0075   6.7526422717e+01   6.5610008663e+01    0.1924104    0.1624227   8.68 0.0006142267    1.067    0.062
        22 -10.1414     36.8100      6.1675   7.8928549886e+01   7.0048340936e+01    0.2111252    0.1702816 -43.01  0.001154719    1.762    0.433
        23  -9.8125      2.2877      6.6467   9.7715744391e+01   7.3349339574e+01    0.2079259    0.1156652   0.96    0.0010457    1.849    0.459
        24  -9.7457    211.6214      6.1651   3.9084294325e+01   3.1317156866e+01    0.1687359    0.1265333  -9.76 0.0009438411    1.747    0.428
        25 -10.1365    151.2452      5.9831   4.6234731257e+01   4.6461078550e+01    0.1629499    0.1171569 -22.15 0.0002527353    1.554    0.356
        26 -10.8429    107.0929      4.9489   5.4204814978e+01   5.7232788613e+01    0.4016168    0.1942468  62.44   0.00183449    2.009    0.502
        27 -11.8298     56.8254      3.0370   6.8619541736e+01   6.7438307011e+01    0.4389193    0.3249725  24.59  0.002841455    1.165    0.142
        28 -10.2731      8.4553      5.2888   9.3493427095e+01   7.3128069590e+01    0.1993814    0.1542307  21.67   0.00116616    1.590    0.371
        29 -11.1597    101.0985      2.0559   5.4423948403e+01   5.8829033972e+01    0.3165891    0.1963084  53.32  0.001704073    1.415    0.293
        30 -11.5447     20.6937      1.8679   8.4862186607e+01   7.2514832800e+01    0.2072056    0.1442738   6.70  0.000534723    1.276    0.216
        31  -9.7046      3.7745     10.7738   9.8682046502e+01   7.2576437253e+01    0.1262932      0.10611 -28.64 0.0002680495    1.238    0.192
        32 -10.5022    243.9284      2.0507   3.5520864206e+01   2.4274805770e+01    0.1814765    0.1428633  44.44  0.001133322    1.710    0.415
        33  -9.6476    176.3319      2.1499   4.1686393318e+01   4.0460245157e+01    0.2021486    0.1642043  26.62   0.00116956    1.475    0.322
        34 -11.5548     80.4930      1.6876   5.9815739170e+01   6.3218792256e+01    0.3116377    0.1547237  50.34 0.0007928977    1.794    0.443
        35  -9.9238     10.3430      1.6335   9.0568535966e+01   7.3525939969e+01    0.1694672    0.1192416  24.71  0.001203751    1.671    0.402
        36  -9.4356    153.7880      1.2797   4.4332640354e+01   4.6231341000e+01    0.1897629    0.1001423  61.66 0.0003288871    1.613    0.380
        37  -8.9829     67.2656      1.3482   6.3921496778e+01   6.5784740831e+01    0.1293402    0.0794109  15.79 0.0006983669    1.613    0.380
        38  -9.4518    191.3573     14.2421   4.3330858139e+01   3.5471992384e+01    0.1374618   0.09311281  47.92 0.0003332875    1.591    0.371
        39 -11.1994      3.1633    249.3201   1.3077359449e+02   2.2521358492e+01    0.3937054     0.183242  52.35  0.002754339    1.552    0.356
        40 -12.0791     16.0332    248.9578   1.2875508771e+02   2.1299700700e+01    0.4878251    0.1944528  30.96  0.002583561    3.435    0.709
        41 -11.9769      8.7708    245.3114   1.2974503027e+02   2.2669703968e+01    0.3813437    0.2058533  30.22  0.002476644    2.498    0.600
        42 -13.0267      4.9214    240.7113   1.3016515728e+02   2.3857724240e+01    0.6768201    0.5657381 -20.92  0.005175292    2.576    0.612
        43 -10.0765    242.8919    153.6101   7.0589763960e+01   2.1910973401e+00    0.3384361    0.1351945 -32.43  0.001139508    2.368    0.578
        44 -10.6669      2.5694    153.5010   1.2580546465e+02   4.1817070845e+01    0.2034586    0.1133535  27.70    0.0012218    2.202    0.546
        45  -9.4831     23.3065    150.6785   1.2070787360e+02   4.0795639335e+01    0.1287818   0.07726811  71.77  0.000659399    1.640    0.390
        46  -9.4215    237.7210    149.6802   7.0621896446e+01   3.7704103101e+00    0.1401226   0.09999089  -1.31 0.0002924912    1.580    0.367
        47  -9.5927     24.5536    138.9345   1.1913883777e+02   4.3438928394e+01    0.1786103   0.07292987 -52.81 0.0008059206    2.388    0.581
        48 -10.3017    212.6528    133.9229   7.1570399118e+01   1.1452717491e+01    0.2629388     0.218154  57.67 0.0006377857    1.374    0.272
        49  -9.3397     96.0149    133.9549   9.9043546050e+01   3.5563713245e+01    0.1757289    0.1659921 -80.78 0.0004554266    1.011    0.010
        50  -9.0462     23.7264    133.7131   1.1874805968e+02   4.4745113671e+01    0.1198382   0.08117613 -51.39 0.0006918777    1.509    0.337
        51 -10.5955      2.2226    133.1055   1.2421109263e+02   4.6484705918e+01    0.2434017     0.156906  49.39  0.001293923    1.670    0.401
        52 -11.1456     11.1188    129.1624   1.2154824330e+02   4.6798573855e+01    0.3525227     0.208607  70.55  0.002004435    1.758    0.431
        53 -11.9289      8.7850    121.2250   1.2131128897e+02   4.8813524701e+01    0.3795348    0.2505813  22.27  0.001889499    1.939    0.484
        54 -11.7313     23.6674    121.0460   1.1717191177e+02   4.7759342793e+01    0.4139704    0.2460884  77.28  0.001137735    1.895    0.472
        55 -10.0559     17.7233    121.9959   1.1895163620e+02   4.8000430093e+01    0.1746123    0.1298214 -72.91            0    1.071    0.067
        56  -9.6653     41.7162    117.2860   1.1140320224e+02   4.7008279421e+01    0.1280533   0.09283646  77.62            0    1.525    0.344
        57 -10.7959     65.6267    110.7692   1.0296769738e+02   4.5772784727e+01    0.2964522    0.2286178 -89.80 0.0008399476    1.477    0.323
        58  -8.9179     91.4965    110.5011   9.5101689257e+01   4.1920548067e+01    0.1481604    0.1388782 -60.80 7.162555e-05    1.019    0.018
        59 -10.9090     22.9532    110.2770   1.1586679304e+02   5.0376122966e+01    0.1710268    0.1437813 -69.56 0.0003464945    1.045    0.043
        60  -9.4892     35.5353    109.4412   1.1193783105e+02   4.9497508407e+01    0.1310993    0.1089431 -64.11 7.456834e-05    1.028    0.027
        61 -11.9475      3.8069    108.6134   1.2126323165e+02   5.2056345215e+01    0.3925109    0.2430466 -17.49  0.001825849    2.293    0.564
        62 -11.5537     58.0054    107.2723   1.0458386606e+02   4.7591144005e+01    0.3642021    0.2417123 -27.44  0.001218141    1.934    0.483
        63 -10.1253    186.9437    103.0866   6.8905984419e+01   2.2980820062e+01    0.2301067    0.2252307 -59.43 0.0004995594    1.039    0.037
        64 -10.7563     20.2140     99.7880   1.1509529617e+02   5.3058919956e+01    0.1817104    0.1221659 -49.22  0.001079348    1.352    0.260
        65 -10.3875     61.6337     98.1815   1.0143147465e+02   4.9295896943e+01    0.2122235    0.1097148 -49.08 0.0009502541    1.714    0.417
        66 -10.5723     18.9971     86.5521   1.1323413737e+02   5.6223924521e+01    0.3697718    0.1536358 -58.80 0.0004182635    1.797    0.443
        67 -12.4666     20.8143     92.8205   1.1374205015e+02   5.4644254586e+01    0.3504544    0.2606788 -38.60 0.0004955853    1.371    0.271
        68 -10.6626     24.0761     88.3136   1.1183736109e+02   5.5448285726e+01     0.290326    0.1744019 -66.53  0.000304445    1.392    0.282
        69 -11.9836     10.3194     91.5656   1.1696269095e+02   5.5626092815e+01    0.4324177    0.2160578 -66.04 0.0001686943    1.527    0.345
        70 -10.0819     11.3077     85.3032   1.1562239055e+02   5.7005127865e+01    0.2059017     0.126081 -70.98 0.0004501435    1.355    0.262
        71 -10.6851      3.3540     94.7786   1.1964867658e+02   5.5275714882e+01    0.2813271     0.158664  64.95  0.001531304    2.237    0.553
        72 -11.4758    125.1989     93.3202   8.0798593411e+01   3.9290989124e+01    0.2697651    0.2537842 -57.95 0.0002067476    1.092    0.084
        73  -9.4494     78.8228     94.1160   9.4880520726e+01   4.7799712328e+01    0.1935732    0.1580811 -27.76 0.0003286818    1.288    0.223
        74 -11.0116     57.9100     91.7531   1.0113520171e+02   5.1272194127e+01    0.2777527    0.2130408 -22.58 0.0007132101    1.480    0.324
        75  -9.8332     44.6329     91.8628   1.0561365636e+02   5.2767140433e+01     0.289019   0.08635002 -53.03  0.001091138    2.595    0.615
        76 -10.2222     29.3051     92.5546   1.1088705723e+02   5.4045254889e+01    0.2299101    0.1688592 -59.13 0.0006115883    1.108    0.097
        77  -9.8123     64.9352     88.5147   9.7973435360e+01   5.1106249741e+01    0.2231633    0.1677159 -52.09  0.000574717    1.187    0.158
        78 -11.3417     55.4169     85.7486   1.0050152102e+02   5.2963097461e+01    0.2459689    0.2334552  59.21 0.0002134104    1.225    0.183
        79  -9.1290    113.7129     85.7155   8.1783742617e+01   4.3323607590e+01    0.1497871    0.1192108  -2.88 0.0006945158    1.528    0.345
        80 -10.9801      2.8432     82.5002   1.1802798514e+02   5.8100680198e+01    0.2905948    0.2215316 -73.19  0.001403694    1.119    0.107
        81 -11.1973      4.7207     77.4302   1.1655717426e+02   5.9149504754e+01    0.3222315    0.1557573 -39.11 0.0006725407    2.015    0.504
        82 -10.1275    124.4932     79.0789   7.6711623493e+01   4.2378102160e+01    0.2830211    0.1502656 -37.03  0.001045327    1.901    0.474
        83  -9.7067     42.0725     81.9041   1.0421662760e+02   5.5329630142e+01    0.1770888    0.1561622 -63.90            0    1.127    0.113
        84  -9.5062    250.2553     80.9987   5.2935190954e+01   1.2432376629e+01    0.1806152    0.1056375 -35.74 0.0004624054    1.505    0.336
        85  -9.7129     88.5804     79.9016   8.7717367385e+01   4.9355266312e+01     0.421066     0.286567  78.42  0.001699048    2.816    0.645
        86 -10.1842     64.7059     80.3224   9.5853508223e+01   5.2986714622e+01    0.2755078    0.2257943 -29.13  0.001096769    1.193    0.162
        87 -11.5553     10.3699     79.4239   1.1492431457e+02   5.8396430788e+01    0.3119069    0.1746008 -65.28  0.001487883    1.396    0.283
        88  -9.5271     24.4216     78.8422   1.0982423428e+02   5.7592236578e+01    0.1905571   0.08754657 -52.74 0.0009416741    1.688    0.408
        89 -10.2554    161.2406     76.4555   6.6842072488e+01   3.4205322214e+01    0.2554501    0.2102553 -39.17 0.0005652697    1.210    0.174
        90 -10.2336     28.0997     77.0924   1.0811659676e+02   5.7698454493e+01    0.1845217    0.1516332 -51.04 0.0003556304    1.020    0.020
        91  -9.8150    176.9319     76.5180   6.3575387480e+01   3.0302480606e+01    0.2369089    0.1520966  55.89 0.0006512967    1.569    0.363
        92 -10.6811     55.0414     75.6369   9.7962683255e+01   5.5281663136e+01    0.3285857     0.259501 -28.41  0.001229692    1.241    0.194
        93 -10.7826     37.1624     75.1807   1.0435430274e+02   5.7329584857e+01    0.7015153    0.2072047 -56.10  0.002741835    2.627    0.619
        94 -10.0959     33.0524     73.0000   1.0533772551e+02   5.8193784791e+01    0.3050868    0.1890907   5.09  0.001635081    2.067    0.516
        95 -10.7545     19.8415     74.0102   1.1046257560e+02   5.9014345831e+01    0.4130135    0.1816906 -44.40  0.001395823    1.956    0.489
        96 -10.6718     14.7868     75.1665   1.1254706079e+02   5.9089875891e+01     0.223844    0.1956221  79.62  0.001100114    1.357    0.263
        97  -9.5353     70.4254     75.4744   9.2472514048e+01   5.3234616300e+01    0.1415553     0.124195 -34.24 0.0001183669    1.026    0.025
        98  -9.5822    216.8365     72.2060   5.5442200069e+01   2.1267350078e+01    0.1856119     0.168553   3.22 0.0003999119    1.276    0.216
        99 -10.3672    106.1192     72.0099   7.9741270070e+01   4.7675775968e+01    0.2601054    0.2174349  49.05 0.0006798268    1.278    0.218
       100 -10.3120     91.3080     70.6986   8.3947891089e+01   5.0787550932e+01    0.5106555    0.2823671 -65.08  0.001749368    3.596    0.722
       101  -9.9045    100.0082     70.5692   8.1142169761e+01   4.9174322377e+01    0.2085398    0.1842849 -33.46 0.0003719391    1.083    0.076
       102 -11.1584     46.8885     69.1220   9.9134542165e+01   5.7661179500e+01    0.3043894    0.2199649   2.24  0.000645621    1.629    0.386
       103 -10.9905     10.7525     68.5331   1.1269991134e+02   6.0806750222e+01    0.3518195    0.1818752 -65.82  0.001763026    1.587    0.370
       104 -12.4966      4.2812     65.8662   1.1461130043e+02   6.1733570878e+01    0.7685689     0.402167 -64.46  0.001689709    1.479    0.324
       105 -11.6264     13.4017     62.5151   1.1037714095e+02   6.1965483304e+01    0.9636121    0.5271986  69.00  0.004169523    3.956    0.747
       106 -13.6096     20.1972     58.1472   1.0659365489e+02   6.2453464387e+01     0.398371    0.2594625 -60.48  0.001132394    1.348    0.258
       107 -10.0268     42.0178     75.5862   1.0267658805e+02   5.6759910037e+01    0.2161155    0.1504938 -54.37 0.0005778777    1.224    0.183
       108 -10.2627     80.3279     67.3325   8.6507281818e+01   5.3384663403e+01    0.3032825    0.1848316 -22.01  0.001319458    2.086    0.521
       109  -9.6173     63.5630     66.4778   9.2161095085e+01   5.6130163159e+01    0.2212745    0.1590497 -40.40 4.063748e-05    1.233    0.189
       110 -10.4080     62.8138     62.4988   9.1163820152e+01   5.7055340886e+01     0.333821    0.1576647 -39.60  0.001458539    1.969    0.492
       111  -9.4352    133.6585     65.6644   6.9995887171e+01   4.2821244078e+01    0.1622888    0.1184753  14.09 0.0007050694    1.760    0.432
       112  -9.9358     34.7710     64.5983   1.0251147756e+02   5.9876536190e+01    0.2531277    0.1504118 -53.60  0.001376235    1.403    0.287
       113  -9.9943     96.9420     64.0833   7.9940144426e+01   5.1033422019e+01     0.212691    0.1965844  -4.71 0.0002951547    1.030    0.029
       114  -9.8576     39.0169     61.2794   9.9909890828e+01   6.0172476163e+01    0.2380517    0.1582135 -65.33  0.001292719    1.669    0.401
       115 -10.4244    100.8955     60.5911   7.7501032678e+01   5.0912375333e+01    0.3008089    0.1908663 -55.87  0.001312701    2.033    0.508
       116  -8.9980     55.9721     60.7438   9.3163007903e+01   5.8335029486e+01    0.1496825    0.1139995  22.53 0.0008467399    1.427    0.299
       117 -10.6327     49.3346     59.6355   9.5363897101e+01   5.9384612297e+01    0.2608065    0.2216515 -81.46 0.0008336285    1.592    0.372
       118 -10.0968    194.3958     58.9206   5.5399687670e+01   2.8836078904e+01    0.2384211    0.1957011  79.32 0.0005672065    1.257    0.205
       119 -10.6792     83.8194     56.6580   8.1669011307e+01   5.4865352761e+01    0.2841273    0.2356185 -44.39  0.001307531    1.252    0.202
       120 -11.4418     88.1018     52.7734   7.8825474186e+01   5.4799407427e+01    0.5731617    0.3680022 -21.27  0.002709061    1.728    0.421
       121  -9.9853     71.6954     56.2156   8.5777964017e+01   5.6977546936e+01    0.2270761     0.146252 -42.81 0.0005869934    1.450    0.310
       122 -10.5462     32.5789     55.5077   1.0079528047e+02   6.1998106846e+01    0.5914488    0.2631458 -33.06  0.002659436    2.437    0.590
       123 -11.9248    114.5972     53.8969   7.1098167341e+01   4.9211778864e+01    0.3232776    0.2889496  22.44 0.0003902809    1.091    0.083
       124 -11.1129      5.1498     50.9235   1.1102106122e+02   6.4886630436e+01     0.493134    0.2133371 -24.18  0.002268228    2.753    0.637
       125 -11.1730      5.2823     39.9967   1.0811750870e+02   6.7110641887e+01    0.4250224    0.1397238 -40.82  0.002035348    2.379    0.580
       126  -9.8354     19.9659     44.6787   1.0288666374e+02   6.5247465185e+01    0.2009681    0.1427474 -16.06 0.0006090671    1.411    0.291
       127 -11.1543     15.8938     44.8257   1.0473327491e+02   6.5507569964e+01    0.4905789    0.2335342 -62.74  0.002509121    2.074    0.518
       128 -10.5192     13.6324     48.7592   1.0684063744e+02   6.4855929350e+01    0.2422151    0.1921624 -86.99 0.0009321064    1.673    0.402
       129 -11.1743      8.5800     44.7230   1.0794443743e+02   6.5981270908e+01    0.4216161    0.2684163 -77.29  0.002468311    1.980    0.495
       130 -11.6984      7.5866     35.1887   1.0562519667e+02   6.7930583704e+01    0.7102637    0.4172536  32.65  0.004357771    2.220    0.550
       131 -12.3500     65.2671     52.4665   8.6822152389e+01   5.8676425561e+01    0.4772508    0.2421986  39.60  0.001607923    2.162    0.537
       132  -9.7458    150.6672     52.1065   6.1563026442e+01   4.0949918132e+01    0.3153398    0.1550519  48.83  0.001241971    1.965    0.491
       133  -9.9703    121.9718     51.5138   6.8242803475e+01   4.7949785414e+01     0.217765    0.1434445  51.66 0.0003748975    1.510    0.338
       134  -9.8300     76.4521     49.0846   8.1480510824e+01   5.7522427895e+01    0.3095202    0.1611865 -34.67  0.001284781    1.842    0.457
       135 -10.8966     77.4931     45.4016   7.9716995624e+01   5.7991161843e+01    0.4052966    0.2131343  48.87 0.0004361679    2.286    0.563
       136  -9.9844     38.7083     48.5778   9.6055614693e+01   6.2795996407e+01    0.2004779    0.1499887 -28.57  0.000340733    1.159    0.137
       137  -9.9737    154.7289     47.5174   5.9225118336e+01   4.0626004103e+01    0.2453009    0.2041604 -27.62  0.000577711    1.253    0.202
       138 -11.4794     56.8887     46.4540   8.7868745478e+01   6.1000512133e+01     0.356018    0.3023533 -33.89 0.0008945026    1.129    0.114
       139  -9.7640     67.2982     46.8754   8.4006159410e+01   5.9401359105e+01    0.3583373    0.1405965  30.34  0.001356636    3.146    0.682
       140 -10.4278     27.6709     43.0731   9.8963734404e+01   6.4938169418e+01    0.6443793    0.2458569 -36.97  0.002877517    2.455    0.593
       141  -9.2555     46.4007     44.1718   9.1291408264e+01   6.2777007109e+01    0.1607267    0.1122979 -52.84  0.000305614    1.548    0.354
       142 -10.9301     69.4217     42.1538   8.1398859647e+01   5.9895640090e+01    0.2337919    0.2159955  25.13 1.482477e-05    1.227    0.185
       143 -10.9942    140.2976     40.7157   6.0031317508e+01   4.5214260737e+01    0.3002357    0.2450225  68.14   0.00068362    1.273    0.215
       144 -10.1987     31.1790     46.0477   9.8418210700e+01   6.4038082057e+01    0.2365479    0.1571599 -60.84 0.0007110765    1.661    0.398
       145 -10.1660     42.7883     40.6356   9.1510137721e+01   6.3860139775e+01    0.2149007    0.1527545 -38.30  0.000640711    1.208    0.172
       146  -9.8409     35.5595     40.8917   9.4733993348e+01   6.4603096360e+01    0.3881594     0.226699 -25.81  0.002016364    1.690    0.408
       147 -10.0445     39.5263     35.3164   9.0897826061e+01   6.5197372194e+01    0.3490407    0.1197174  25.73  0.001403938    3.551    0.718
       148 -11.0208     38.3350     31.1697   8.9779042556e+01   6.6060080080e+01    0.3512922      0.21819 -18.20  0.001061244    1.611    0.379
       149 -10.7451    128.1559     38.8073   6.2162053966e+01   4.8430057030e+01    0.2392265    0.2114978  42.00 0.0003303534    1.069    0.064
       150 -11.9688    121.2943     36.9825   6.3191434272e+01   5.0302960498e+01    0.5938383    0.3664594 -43.66   0.00274876    1.811    0.448
       151  -8.9624    152.7031     38.6963   5.6763552368e+01   4.2392356103e+01    0.1494819    0.1087771  28.39 0.0003791119    1.582    0.368
       152 -10.0253     22.2917     38.0549   9.9691778083e+01   6.6361733242e+01    0.1687901    0.1505373 -45.06 0.0006289169    1.256    0.204
       153 -11.1008     26.9252     34.5992   9.6329300440e+01   6.6612828537e+01    0.4058679    0.2236154 -28.43  0.001501745    1.692    0.409
       154 -10.0657     16.4992     33.0129   1.0066475512e+02   6.7764514705e+01    0.2354434    0.1286464 -32.25 0.0006959035    1.567    0.362
       155 -10.8778     21.2103     30.9065   9.7653184889e+01   6.7787221641e+01    0.3584085    0.2007944 -10.50  0.001348059    2.056    0.514
       156  -9.1707    185.4192     35.4450   5.0127028195e+01   3.4463477688e+01    0.1438553     0.130807 -77.84  3.10517e-06    1.061    0.057
       157 -10.6273     97.4766     34.7424   6.8931340184e+01   5.5874654394e+01    0.3706726    0.2094796  35.73 0.0009380282    1.789    0.441
       158  -9.8591     90.9550     35.5443   7.1282182941e+01   5.7077417052e+01    0.2036073    0.1298094  44.25 0.0005158692    1.545    0.353
       159  -9.4465    133.9331     34.2328   5.9192227603e+01   4.7661190138e+01    0.1954591    0.1463491  35.18  0.000405912    1.346    0.257
       160 -10.0682     72.5600     32.7970   7.6452242915e+01   6.0894920906e+01    0.2716022    0.1583887  22.83 0.0007284441    1.959    0.489
       161  -9.1016    144.5266     32.4804   5.6324782220e+01   4.5271356137e+01    0.1436846    0.1356596  88.53 1.449527e-05    1.115    0.103
       162  -9.2406    187.9913     30.9891   4.8473577004e+01   3.4378188362e+01    0.1695084    0.1587937 -80.33  0.000394017    1.025    0.025
       163  -9.8906    128.9209     31.1866   5.9239652147e+01   4.9272217894e+01    0.2050385    0.1915078 -74.92  0.000490059    1.218    0.179
       164 -11.1783     75.5151     21.4510   7.0501516749e+01   6.1986358030e+01    0.2989655    0.2491989   1.93 0.0009796865    1.051    0.049
       165 -10.7534     77.1501     30.9479   7.4030186824e+01   6.0366481167e+01    0.2348884    0.1805268  33.73  0.001351933    1.270    0.213
       166 -10.1473     77.3596     26.1080   7.1895777928e+01   6.1021220319e+01    0.3768762    0.1249641 -26.99  0.001311654    3.601    0.722
       167 -10.0306     43.9425     30.5301   8.7022366638e+01   6.5502858007e+01    0.2278088    0.1597798 -31.78 0.0007553378    1.219    0.180
       168  -9.7486    229.6707    248.0056   9.0498361546e+01  -8.8123344505e+00    0.1535786    0.1228824   6.69 0.0006754145    1.129    0.115
       169  -9.7790     43.4021     26.2034   8.5423315960e+01   6.6282696830e+01    0.2765176    0.1880381 -38.39  0.001334555    1.387    0.279
       170 -10.7982      7.7016     28.5746   1.0341975049e+02   6.9183576160e+01     0.327394    0.2115115  47.31  0.001953361    2.590    0.614
       171 -10.0773    147.0874     26.7056   5.3863589993e+01   4.5343185560e+01    0.3108948    0.1815689 -37.94  0.001430079    1.801    0.445
       172 -10.4316     69.3098     27.1038   7.5226157146e+01   6.2300511260e+01    0.3407102    0.2184539 -44.00  0.001792292    1.836    0.455
       173  -9.9369    164.1695     27.0894   5.0951184423e+01   4.0953094253e+01    0.2125942    0.1822533  36.94 0.0003273516    1.232    0.188
       174 -10.9711    113.5964     25.8476   6.0942955330e+01   5.3541697890e+01    0.2944995    0.2322398 -49.22  0.001591431    1.518    0.341
       175 -10.9582      2.0329     22.1210   1.0406604229e+02   7.0696549204e+01    0.2562499    0.1337549 -54.68 0.0006052736    1.613    0.380
       176  -9.8904    100.9804     26.5113   6.4603307462e+01   5.6256845093e+01    0.2147477    0.1266058  48.88  0.001034128    1.600    0.375
       177  -9.5019     18.8123     24.9825   9.6555875125e+01   6.9047866113e+01    0.3250616   0.08716159 -39.47  0.001329094    3.085    0.676
       178 -11.0931     14.0666     21.1952   9.7452852123e+01   7.0084915430e+01    0.3031335      0.22298  29.96  0.001854799    1.748    0.428
       179 -10.1227     59.0935     23.6522   7.7648076922e+01   6.4463795513e+01    0.2282784    0.1516398  -6.41  0.001259686    1.548    0.354
       180  -9.2393     58.2935    248.2995   1.2171485422e+02   1.6575509611e+01    0.0881674    0.0866088  57.92 0.0003271962    1.567    0.362
       181  -9.8693     82.8590     15.8578   6.5555595172e+01   6.1284593177e+01    0.1882659    0.1625395 -61.36 0.0004856015    1.670    0.401
       182 -10.0570     34.9484     22.2704   8.7569124474e+01   6.7928621889e+01    0.2222574    0.1398982 -29.70 0.0007560179    1.328    0.247
       183 -10.5403     30.2583     21.0486   8.9269811150e+01   6.8640387650e+01    0.2538776    0.1835257   7.59  0.001083822    1.339    0.253
       184 -10.6711     41.7211     20.2955   8.3545924288e+01   6.7421611021e+01      0.36533    0.2206079   7.45  0.002008842    1.852    0.460
       185 -10.2239     44.2010     16.0285   8.0430806443e+01   6.7724811100e+01    0.2144904    0.1600183 -41.04  0.001253051    1.589    0.371
       186  -9.5882     58.2269     19.2592   7.5993577295e+01   6.5221955426e+01    0.1553766    0.1478328 -19.27  0.001050474    1.382    0.277
       187  -9.8469     20.6496     17.4138   9.2463383865e+01   7.0176623167e+01    0.2228293    0.1952292 -28.38  0.001653026    1.308    0.236
       188 -10.1516    140.5690     18.1999   5.2187028065e+01   4.7938717060e+01    0.2497769    0.1758155  57.80 0.0004700069    1.283    0.221
       189 -10.1225    114.9732     17.3538   5.7303277060e+01   5.4205892921e+01    0.1979836    0.1517321  51.69 0.0003343518    1.200    0.167
       190  -9.9286    225.0264    246.7237   9.1110024341e+01  -8.0038886133e+00    0.1688128    0.1216562  19.74  0.001149489    1.073    0.068
       191  -8.9888     74.2915    243.7076   1.1854679746e+02   1.5296863483e+01    0.1180234    0.0674424  64.06 0.0003413392    1.550    0.355
       192  -9.3395    108.5216     16.0537   5.8361911063e+01   5.5823085472e+01    0.1797938    0.1314249 -17.30 -0.000128009    1.430    0.301
       193  -9.2909     30.6655     16.2902   8.6914145187e+01   6.9348744086e+01   0.09739259   0.09623743 -41.46 0.0007021082    1.633    0.388
       194  -9.7228    154.3058     15.0235   4.8708405228e+01   4.4813828447e+01    0.1817882     0.178312  51.09 0.0003652929    1.083    0.077
       195  -9.5888     60.7952    241.1634   1.2076449570e+02   1.7519424431e+01     0.203209   0.06510473  40.20 0.0009621693    2.564    0.610
       196  -9.6056    202.4663    240.4625   9.4190097516e+01  -3.8668203049e+00    0.1220458   0.09595438  23.69 9.899438e-05    1.005    0.005
       197  -9.2066     49.6736    240.6446   1.2268969126e+02   1.8998910618e+01   0.09431686   0.08606581 -44.67 0.0007045857    1.773    0.436
       198 -11.1632     14.0547    238.9567   1.2862029959e+02   2.3270182094e+01    0.1657614     0.110551  70.24 0.0005312199    1.046    0.044
       199  -9.0272    148.6587    238.6919   1.0405911802e+02   4.9700478308e+00     0.121372   0.08942962  14.55  0.000704352    1.689    0.408
       200  -9.7147     91.0274    237.0470   1.1487528774e+02   1.4145609888e+01    0.1559338    0.1440268 -15.65 0.0009150604    1.634    0.388
       201 -11.8153     26.2458    235.7611   1.2643059624e+02   2.2577471596e+01    0.2589315    0.2257559  84.39  0.001321559    1.372    0.271
       202  -9.1579    204.5099    235.4445   9.3042910649e+01  -3.5211451287e+00    0.1229745   0.09820667  24.15 0.0004318456    1.025    0.024
       203  -9.9698    249.2224    234.0588   8.4900352942e+01  -9.9438811993e+00     0.174781    0.1214598   7.50 0.0004731517    1.176    0.150
       204 -12.0434      4.0878    232.6713   1.2996742774e+02   2.5387385677e+01    0.2466473    0.1409449  65.84 0.0007647747    1.257    0.204
       205 -12.4601      9.6252    227.8470   1.2883677560e+02   2.5748423659e+01    0.3667902    0.2498323  76.02  0.001666713    1.059    0.056
       206  -9.8576    209.5018    229.5353   9.1184338219e+01  -3.5103507525e+00    0.1246717    0.1001011  20.53 3.854448e-05    1.006    0.006
       207 -10.4349    140.6830    228.5076   1.0427259436e+02   7.9290590380e+00    0.2622225    0.1182024 -51.85   0.00113772    2.639    0.621
       208  -9.9230    223.1914    226.8038   8.8238548488e+01  -5.2731790365e+00    0.1737401    0.1195029  10.43 0.0004471223    1.363    0.267
       209 -11.3412      1.7418    225.7853   1.3006137763e+02   2.6879682390e+01    0.2480097    0.1041492  86.50  0.001018638    1.985    0.496
       210 -10.4882      9.3717    218.0361   1.2840511091e+02   2.7637583442e+01    0.2053467    0.1598927 -57.78  0.001542324    1.808    0.447
       211  -9.2899    137.3131    215.3520   1.0314383075e+02   1.0793794550e+01    0.1274423    0.1011803   1.85 0.0007045695    1.728    0.421
       212  -9.6408     15.4329    213.4824   1.2709045299e+02   2.7940079412e+01    0.1128633   0.07923454  74.20  6.12391e-05    1.040    0.039
       213 -10.4686      4.0787    211.9616   1.2903306090e+02   2.9312190156e+01    0.3159574   0.07402472  55.12  0.001421769    3.332    0.700
       214  -9.0882    249.3338    211.3292   8.0932354596e+01  -7.2062989793e+00    0.1300219   0.07888003   5.40 0.0006215451    1.723    0.419
       215  -9.2911    209.6597    211.2851   8.8076283640e+01  -9.6093045731e-01    0.1179568    0.1004332  60.09 0.0007016547    1.635    0.388
       216 -10.0290     20.1825    209.8616   1.2601308873e+02   2.8187278065e+01    0.1792103    0.1099809  67.54 0.0007454567    1.283    0.220
       217  -9.6715      2.9831    206.0000   1.2893483506e+02   3.0588830125e+01    0.1555148   0.05553754  32.60 0.0008096853    2.993    0.666
       218  -9.7735     10.1949    203.4018   1.2748229794e+02   3.0456859587e+01    0.1507304   0.07777924  51.38 0.0004163045    1.638    0.389
       219  -9.9819     23.5227    196.8428   1.2453034623e+02   3.0519447716e+01    0.1943855    0.1666637 -62.94   0.00114088    1.490    0.329
       220 -10.7877     13.9855    192.7288   1.2612308656e+02   3.2306245223e+01    0.1999274    0.1247144  81.59 0.0004662989    1.266    0.210
       221 -10.0383      6.3220    191.6130   1.2753975635e+02   3.3229831388e+01    0.1906273    0.1235052  70.59  0.001304667    1.215    0.177
       222  -8.9571     20.6831    189.2641   1.2456153796e+02   3.2403550331e+01    0.1194509    0.0668852  65.85 0.0003014643    1.548    0.354
       223  -9.6487     22.5054    179.9881   1.2349393370e+02   3.4234450495e+01    0.1725165   0.09595219 -78.40 0.0004164606    1.498    0.333
       224 -10.5678      5.3897    167.4773   1.2619567636e+02   3.8490371300e+01    0.2412933    0.1414609  78.94  0.001476768    1.424    0.298
       225  -9.6340    226.5049    163.9925   7.5706960993e+01   3.5020412725e+00    0.2070577    0.1281379 -32.64  0.000791562    1.540    0.351
       226  -9.3618     41.2164    157.9443   1.1716357191e+02   3.7330252893e+01    0.1653574   0.08999375 -73.75  0.000375061    1.597    0.374
       227  -9.0162    247.4718    155.4986   7.0223148432e+01   1.0784677318e+00    0.1365695    0.1158155 -10.63   0.00012062    1.024    0.023
