#   1 NUMBER                 Running object number                                     
#   2 MAG_AUTO               Kron-like elliptical aperture magnitude                    [mag]
#   3 X_IMAGE                Object position along x                                    [pixel]
#   4 Y_IMAGE                Object position along y                                    [pixel]
#   5 X_WORLD                Barycenter position along world x axis                     [deg]
#   6 Y_WORLD                Barycenter position along world y axis                     [deg]
#   7 A_WORLD                Profile RMS along major axis (world units)                 [deg]
#   8 B_WORLD                Profile RMS along minor axis (world units)                 [deg]
#   9 THETA_WORLD            Position angle (CCW/world-x)                               [deg]
#  10 FWHM_WORLD             FWHM assuming a gaussian core                              [deg]
#  11 ELONGATION             A_IMAGE/B_IMAGE                                           
#  12 ELLIPTICITY            1 - B_IMAGE/A_IMAGE                                       
         1 -13.5950      3.9341     11.0147   1.3134015659e+02   7.4119700757e+01     2.991047    0.7917793 -60.64   0.01276414    2.742    0.635
         2 -13.3763    189.2657     26.6261   7.4212410509e+01   3.4051130607e+01     1.329134     1.210711  68.63  0.006267291    1.109    0.098
         3 -13.6549    202.3954      8.1263   6.7101168549e+01   3.2604543850e+01     1.738797     1.097769  44.37  0.008529393    1.755    0.430
         4  -9.8345     83.7987    245.0291   1.3966534165e+02   1.7738844731e+01    0.3273034    0.1129786  59.39  0.001451089    4.167    0.760
         5 -10.8769    139.7299    250.1827   1.3045352455e+02   9.9787639010e+00    0.2940661    0.1331022  35.52  0.001805189    1.645    0.392
         6  -9.1193    121.6467    250.3185   1.3354858455e+02   1.2318907726e+01     0.107961   0.06060239  54.78 0.0007046792    1.745    0.427
         7  -9.8760     81.4843    249.2505   1.4034437928e+02   1.7427466016e+01    0.2651541    0.1365718  56.87  0.001807815    1.683    0.406
         8  -9.1988     77.4059    246.1582   1.4084403669e+02   1.8335744890e+01    0.1807676   0.08546963  54.88   0.00116889    1.758    0.431
         9  -9.9443     67.0606    250.3800   1.4286028916e+02   1.8927941529e+01    0.1844324    0.1233871  58.89  0.001081481    1.205    0.170
        10  -9.1015     63.6877    250.6872   1.4344482130e+02   1.9260683775e+01    0.1643418   0.07833101  36.23 0.0006352192    1.674    0.402
        11 -11.0716     29.6127    249.2416   1.4902265455e+02   2.3005188958e+01    0.2642557    0.1880523  62.03  0.002347463    1.121    0.108
        12 -11.5555     35.0905    244.5412   1.4794412021e+02   2.3155069421e+01    0.3792547    0.3501756  42.02  0.003553336    1.511    0.338
        13 -14.7436      4.1733    175.7375   1.5100389360e+02   3.7675615107e+01     9.162979     0.996314 -82.65    0.0254825    9.555    0.895
        14  -9.2540     95.3106    241.0951   1.3736849814e+02   1.6884783863e+01    0.1407485    0.1076611  51.67 0.0003652648    1.090    0.083
        15  -8.4566     57.2944    240.3321   1.4397267537e+02   2.1457485543e+01   0.08252281   0.07552467  13.01 0.0002683318    1.637    0.389
        16 -13.9996     57.2526    213.1017   1.4235353333e+02   2.5752940885e+01      7.18973          nan  42.12   0.02187108    6.620    0.849
        17  -9.8536    184.4533    237.7542   1.2152184616e+02   5.3365391159e+00    0.1297012   0.09294759  -7.34  0.000944149    1.644    0.392
        18 -14.5233     18.2598    169.9738   1.4773674833e+02   3.7638034403e+01     4.041087     1.253248  79.39   0.01613306    4.165    0.760
        19  -9.7206     35.6266    229.2820   1.4721109290e+02   2.5428326880e+01    0.2501444     0.167704 -64.89  0.001357675    1.933    0.483
        20  -9.8250     66.9378    243.3927   1.4247864604e+02   1.9934676008e+01    0.1874434    0.1080142  66.98  0.001343425    1.658    0.397
        21 -13.3389     10.0115    206.9399   1.5095750041e+02   3.1517446115e+01    0.7403547    0.6740386  73.52   0.00256849    1.374    0.272
        22 -10.8017    172.5567    222.0875   1.2160007881e+02   8.8108251522e+00    0.2433463    0.1835894  -3.76  0.001341632    1.547    0.354
        23  -9.4091     27.6756    221.9223   1.4830672239e+02   2.7390809249e+01    0.1511849    0.1116597  43.62 0.0002962248    1.261    0.207
        24  -9.9827     46.3125    248.5966   1.4624713247e+02   2.1423310402e+01    0.2504902    0.1054847  61.39  0.001159932    2.045    0.511
        25  -8.5638    152.5004    213.0089   1.2407391302e+02   1.2939172083e+01    0.1318589    0.1171009 -41.48 0.0009792756    1.437    0.304
        26 -12.1673     27.6012    203.8599   1.4752031097e+02   3.0451015347e+01    0.4301533     0.160316  44.02  0.001245262    1.923    0.480
        27 -11.2707     67.9822    200.3927   1.3931386049e+02   2.6674382751e+01    0.2727296    0.2097463 -42.46  0.001205395    1.900    0.474
        28  -9.3368    194.9167    198.8042   1.1432922960e+02   8.2980007780e+00    0.1882128    0.1603906 -74.85  0.001088025    2.104    0.525
        29  -9.4335    191.9789    192.9698   1.1393657280e+02   9.4896168453e+00    0.3084463     0.197625 -65.07  0.001376606    4.326    0.769
        30 -11.5933     73.2919    192.3216   1.3753163485e+02   2.7454217846e+01    0.2240865    0.2108871  79.99 0.0005251382    1.239    0.193
        31 -12.5040     43.6951    235.5575   1.4608861925e+02   2.3629300027e+01    0.2582563    0.2240841  44.70 0.0007738407    1.362    0.266
        32  -8.3589    106.2460    181.9593   1.2940105974e+02   2.4801393448e+01    0.1279501    0.1043028 -70.92 0.0002441816    1.396    0.283
        33 -13.0985     69.7613    177.4092   1.3688434463e+02   3.0676573244e+01    0.4216454    0.2675128 -41.91  0.001653012    2.331    0.571
        34 -10.7945     82.4129    179.3942   1.3429363393e+02   2.8649716278e+01     0.215506    0.1860056  57.37 0.0003181089    1.047    0.045
        35 -11.7171     89.1663    169.9043   1.3168598260e+02   2.9525824408e+01    0.5131347    0.4981132 -13.18  0.003601342    1.295    0.228
        36  -9.2297    195.7523    159.6358   1.0741933494e+02   1.3349333299e+01    0.2427962    0.1895857 -76.91 0.0009228533    2.427    0.588
        37 -13.7525     49.3858    226.9738   1.4464478539e+02   2.4362553805e+01     0.844943    0.5518552  60.39  0.003980531    1.192    0.161
        38  -9.6245    100.6074    153.2841   1.2673270037e+02   3.1097717267e+01    0.2471025    0.2225777  53.61 0.0008292188    1.025    0.025
        39 -11.8409     89.7302    152.7523   1.2928491234e+02   3.2855325981e+01    0.2460507    0.2308978  -6.21 0.0006132358    1.326    0.246
        40 -12.7669     65.7389    142.1863   1.3387356024e+02   3.8400312946e+01     1.412985     0.687681  76.71  0.002829476    3.388    0.705
        41  -8.9995    103.4838    149.0430   1.2537891364e+02   3.1496158330e+01    0.1827417    0.1294388 -56.73 0.0003916052    1.512    0.339
        42 -11.2818     27.5325    144.3883   1.4389286898e+02   4.2100474593e+01    0.3410243    0.2238446 -32.14     0.001858    2.426    0.588
        43 -11.6441     29.4015    139.2950   1.4299707517e+02   4.3033561530e+01     0.328358    0.2041467  37.04  0.001658764    1.591    0.372
        44 -10.5059     98.9417    135.3114   1.2422275616e+02   3.5058963714e+01    0.2503543    0.2311507 -21.70 0.0005939116    1.288    0.224
        45  -9.5820    111.3566    137.5974   1.2149074652e+02   3.2518097458e+01    0.3232529    0.2195361 -22.06  0.001499632    2.325    0.570
        46  -9.5786    175.7930    138.9958   1.0715245415e+02   2.0208131172e+01    0.4258552    0.2920409  86.74  0.001712421    3.417    0.707
        47  -9.1696    108.0814    124.5044   1.1982949054e+02   3.5801114472e+01    0.1869011    0.1792797  69.59 0.0003274946    1.016    0.016
        48 -10.0660    168.1338    113.2308   1.0292762489e+02   2.6108190868e+01    0.3302062    0.2758074 -87.32  0.001016996    1.621    0.383
        49  -8.6864    203.4564    111.5026   9.5643801190e+01   1.8914965794e+01     0.141868     0.125664   6.23 0.0001162298    1.044    0.042
        50 -13.4198      2.8939    234.4267   1.5296182932e+02   2.7646526438e+01     2.316879    0.5619031 -76.00   0.01254718    4.094    0.756
        51  -8.6238    125.7551     99.1901   1.0939482066e+02   3.7710058090e+01    0.1858252    0.1654373  17.03 0.0004577193    1.216    0.178
        52  -9.3073    155.3636     75.1870   9.5447804229e+01   3.5639321058e+01    0.2178236    0.1362585 -44.09 0.0006714501    1.654    0.395
        53  -9.1474     18.8505     67.0783   1.3764349776e+02   6.0585601277e+01    0.1804584    0.1499232  80.17 0.0003765283    1.226    0.184
        54 -10.2808     18.9567     57.1959   1.3575279340e+02   6.2896998024e+01    0.3797901    0.1554452  33.03   0.00179808    2.664    0.625
        55  -9.4733    170.7670    247.0008   1.2489113681e+02   6.1998712339e+00    0.1076608   0.08830084 -29.98 0.0005929372    1.625    0.385
        56 -11.4249      5.8569     53.0995   1.4076003530e+02   6.4630769260e+01    0.3835855    0.2387906  43.72 0.0004220351    1.874    0.466
        57 -10.3805      1.4835     51.9315   1.4252391047e+02   6.5100090431e+01    0.3189097    0.1648268 -74.88  0.000468338    1.568    0.362
        58  -9.1800    174.3142    249.6561   1.2459722076e+02   5.4414550072e+00   0.09836334   0.06895707  52.25 0.0007047461    1.710    0.415
