#   1 NUMBER                 Running object number                                     
#   2 MAG_AUTO               Kron-like elliptical aperture magnitude                    [mag]
#   3 X_IMAGE                Object position along x                                    [pixel]
#   4 Y_IMAGE                Object position along y                                    [pixel]
#   5 X_WORLD                Barycenter position along world x axis                     [deg]
#   6 Y_WORLD                Barycenter position along world y axis                     [deg]
#   7 A_WORLD                Profile RMS along major axis (world units)                 [deg]
#   8 B_WORLD                Profile RMS along minor axis (world units)                 [deg]
#   9 THETA_WORLD            Position angle (CCW/world-x)                               [deg]
#  10 FWHM_WORLD             FWHM assuming a gaussian core                              [deg]
#  11 ELONGATION             A_IMAGE/B_IMAGE                                           
#  12 ELLIPTICITY            1 - B_IMAGE/A_IMAGE                                       
         1 -11.9052     21.5779     55.9530   1.0696279113e+02   6.2887984198e+01     1.469659    0.4856761 -52.37  0.006702435    2.175    0.540
         2 -12.5596    161.5563     54.5454   6.1823662223e+01   3.7738430601e+01      4.35056     1.320048 -46.46   0.01184912    4.382    0.772
         3 -12.1309     57.6519     48.0859   8.9854485440e+01   6.0670490567e+01     1.782408    0.9236407  39.45  0.008615267    2.195    0.544
         4 -13.0730     50.7839     66.1137   9.8464068732e+01   5.7918662153e+01     2.243241     1.390544  26.66   0.01190558    1.840    0.457
         5 -12.1658     89.7359     29.3473   7.0795519247e+01   5.8311766961e+01     2.643769    0.9650224 -22.96  0.008836395    3.771    0.735
         6 -11.4850     14.0901     36.1275   1.0433343580e+02   6.7428416065e+01     1.158852    0.5123788 -46.13  0.004926719    1.674    0.403
         7 -12.3239      8.8189     26.2629   1.0349453764e+02   6.9639514418e+01     0.707855    0.3744646  -0.14  0.002900162    2.230    0.552
         8 -12.6293     44.5920     14.6487   8.1111480201e+01   6.7990997448e+01     1.695978     1.009921 -48.66  0.008913445    2.413    0.586
         9 -12.1647     60.0431      5.8571   7.0259468410e+01   6.6731981801e+01      1.56588     1.028519  29.67  0.009349464    1.374    0.272
        10 -12.4934    130.0109     21.1153   5.6886242006e+01   5.0254919394e+01     1.132522    0.8085735  23.76  0.004409726    1.523    0.343
        11 -12.7724     85.8643     57.3486   8.2999564567e+01   5.4438631744e+01     1.749159     1.167115  12.13  0.003889472    1.960    0.490
        12 -12.8188    112.3280     25.2348   6.2628249626e+01   5.3984921580e+01     1.895967    0.9670268 -14.49  0.007851102    2.418    0.586
        13 -12.1683     25.1650      6.3281   8.6244545382e+01   7.1547435720e+01    0.6301953    0.2732095 -35.87  0.003401243    1.942    0.485
        14 -13.3623     70.7064     30.8792   7.7978060758e+01   6.1610671403e+01     2.442207     1.356629  45.64   0.01206486    1.984    0.496
        15 -12.7734     16.2512      9.4155   9.2533384383e+01   7.1963350760e+01    0.9357219    0.7026181 -53.64   0.00633427    1.835    0.455
        16 -13.7783    114.2109     66.3395   7.7327004745e+01   4.7113343180e+01     3.461271     2.157669  53.05  0.002421553    1.739    0.425
        17 -12.7478     27.2681     25.4192   9.4108351362e+01   6.8315512533e+01     1.496582    0.9334816 -30.42  0.009213117    1.315    0.240
        18 -11.9823    102.8324     54.2479   7.6453544159e+01   5.1718322089e+01     1.309455    0.8334355   6.68  0.005289779    2.412    0.585
        19 -13.4398    144.8068     50.9173   6.4213032950e+01   4.2564055860e+01      3.65537     1.302313 -36.07   0.01160831    2.749    0.636
        20 -12.8586     13.5273    105.8394   1.1943474527e+02   5.2229407380e+01     2.524486     0.803339 -46.16  0.002724035    3.348    0.701
        21 -10.2679    217.5578      5.4659   3.9712587427e+01   2.9540572603e+01    0.3535857    0.2524126  46.84  0.001557483    1.657    0.397
        22 -10.5782    209.3946      4.0511   4.0092148058e+01   3.1693909990e+01     0.506035     0.372927 -68.71  0.001920261    1.264    0.209
        23 -11.0362    219.8243     34.6214   4.6928262906e+01   2.5599263688e+01    0.4937661      0.35305 -43.74  0.001503799    1.311    0.237
        24 -10.1683    211.3147     17.2547   4.3337974077e+01   2.9813417823e+01     0.412469    0.2813952  59.74  0.002181874    1.466    0.318
        25 -10.2404    205.6508     15.4748   4.3470278196e+01   3.1433194556e+01    0.6130866    0.3578665  43.95  0.002868981    2.060    0.515
        26 -10.3931    213.3840     11.7287   4.1691254865e+01   2.9907794597e+01    0.5726624    0.3112764  87.10   0.00238906    1.891    0.471
        27 -11.7399    213.6620     27.5491   4.5788177724e+01   2.8016170052e+01     1.220442     0.793521  -3.07  0.005616964    2.298    0.565
        28 -11.4365    193.0087     32.2196   4.9676614333e+01   3.2691559020e+01    0.6035659    0.4367802  16.14 0.0007188463    1.893    0.472
        29  -9.4786    248.0620      1.8612   3.6492035876e+01   2.2780405093e+01    0.2509893     0.192202  85.93  0.001595395    1.228    0.186
        30 -10.5651    244.9370     18.5840   4.0501007788e+01   2.1621589143e+01    0.8671312    0.5247778  73.77  0.004685661    1.636    0.389
        31 -10.4987    243.5120     12.7078   3.9266290922e+01   2.2621732189e+01     0.356517    0.2850901 -12.08 0.0008286737    1.621    0.383
        32  -9.8396    243.8705      5.0187   3.7491184022e+01   2.3386244304e+01    0.3550922     0.200552 -20.06  0.001410825    2.212    0.548
        33 -10.9355    235.4418     32.7087   4.4741068905e+01   2.2088891198e+01    0.7175558    0.5397162   2.67   0.00206384    1.911    0.477
        34 -10.9804    181.9450     25.9297   4.9392286047e+01   3.6340647589e+01     1.242002    0.6322528  45.74  0.005188314    2.135    0.532
        35 -10.8479    162.5217     16.4755   4.9343853780e+01   4.2472491378e+01    0.6947183    0.4010496  49.01  0.002259842    1.665    0.399
        36 -11.2451    164.6260      5.9433   4.5672690072e+01   4.2961932096e+01     1.310135    0.7089078  60.50  0.006182913    1.613    0.380
        37  -9.9400    147.5090     11.3774   5.0061162946e+01   4.6865324317e+01    0.3264367    0.2851342  -4.59  0.001014442    1.263    0.208
        38 -10.5426    170.7626     14.3378   4.7450263190e+01   4.0548571458e+01    0.6757329     0.330485 -79.21  0.002369833    3.373    0.703
        39  -9.7696    173.2352     10.6393   4.5971890208e+01   4.0279382772e+01    0.4139741    0.2508815  51.10  0.001151005    1.597    0.374
        40 -10.9564    176.7808     15.0546   4.6839040011e+01   3.8905779817e+01    0.3265213    0.2606564  54.20 0.0002967499    1.221    0.181
        41 -10.4097    153.9386     17.5806   5.1090353033e+01   4.4582334169e+01    0.4549771    0.2909337   5.24 0.0003421148    2.081    0.519
        42 -10.9451    149.7399     16.0999   5.1302446069e+01   4.5819660967e+01    0.6814586     0.363377  35.59  0.002063733    2.183    0.542
        43 -10.3986    204.0298     26.2549   4.6573925342e+01   3.0599795600e+01    0.6298376    0.3403735 -13.58  0.002609162    2.594    0.615
        44  -9.4737     81.8935     20.4974   6.9499339510e+01   6.1030324963e+01    0.4213775    0.3956545 -72.92  0.002646736    1.491    0.329
        45 -10.3152    231.4020     19.2957   4.1865938358e+01   2.4682249346e+01    0.5319576    0.3905347 -55.02  0.003047151    1.223    0.182
        46 -10.3296    232.7935     11.2369   3.9802914641e+01   2.5268525026e+01    0.3433442    0.2263207 -70.86  0.001246664    1.427    0.299
        47  -8.8111    233.3830      7.3003   3.8821467252e+01   2.5558596864e+01    0.2166326    0.1368966  57.76  0.001072582    1.714    0.417
        48 -12.7123    102.5147      7.7192   5.7901224874e+01   5.8114441025e+01     2.225156    0.7528023  61.70   0.00819658    3.117    0.679
        49 -13.3163      4.0723     11.1086   1.0003728544e+02   7.2616619224e+01     1.205126    0.4254803 -53.68  0.005941479    2.652    0.623
        50  -8.8818    183.7575     14.4599   4.5748327254e+01   3.7154542561e+01    0.3767917    0.1674989  48.22  0.001518341    2.378    0.579
        51  -9.6766    226.1433      8.4158   3.9691122064e+01   2.7154444519e+01    0.3226691    0.2194082  17.73  0.001615885    2.377    0.579
        52  -8.7827    220.6760      9.6865   4.0486606710e+01   2.8337575482e+01    0.2013867    0.1513545  66.24 0.0007923658    1.326    0.246
        53  -9.9710    133.6873      5.1453   5.0246493680e+01   5.0929759007e+01     1.003564    0.6222186 -85.69   0.00461757    2.175    0.540
        54 -10.4129    138.4785      4.4368   4.9152003533e+01   4.9791385252e+01    0.3795801     0.243868  62.88 0.0008768415    1.380    0.275
        55 -10.6858     85.7519      7.4682   6.2362461851e+01   6.1737756025e+01    0.5853889    0.4600468 -33.52  0.003518749    1.466    0.318
        56  -9.5888     77.2121      9.7245   6.6082934471e+01   6.3199799462e+01    0.3851153    0.2160802  21.12  0.001882043    1.967    0.492
        57  -9.3899     77.5024      5.0513   6.3758182307e+01   6.3627889512e+01    0.2745924    0.1696852  -3.44 0.0009944839    1.668    0.401
        58  -9.5700    200.3900      7.8172   4.1968211401e+01   3.3573012769e+01    0.4367697    0.2500318 -38.85  0.002166412    1.713    0.416
        59 -10.3136    199.2889      3.9205   4.1029833869e+01   3.4238497645e+01    0.4948384    0.3514054  76.52  0.002737259    1.271    0.213
        60  -9.2935    249.6748      7.4371   3.7610343721e+01   2.1821116668e+01    0.2986248    0.1700173 -67.10   0.00159452    1.646    0.392
        61 -10.0302    138.9686      1.2463   4.7931884977e+01   4.9934853495e+01    0.2695461    0.1332561  70.80  0.000312081    1.928    0.481
        62  -9.2542    189.9344      6.2350   4.2650876523e+01   3.6394882064e+01     0.381669    0.2042094 -44.00  0.001801363    1.869    0.465
        63 -10.3609    182.0848      4.8610   4.3146939421e+01   3.8544952921e+01    0.5510617     0.362056  75.91  0.001815037    1.384    0.277
        64  -8.9177    175.9236      3.7866   4.3559848270e+01   4.0235054947e+01    0.2997348    0.1317638  58.28 0.0007865013    1.990    0.498
        65  -9.6388    222.3396     12.6398   4.1069504426e+01   2.7612785336e+01    0.3072309    0.2357294  78.54  0.001432678    1.226    0.185
        66 -12.0609     81.6311     75.3856   9.0418331428e+01   5.1549031654e+01     1.188762    0.5007815  47.54 9.386193e-05    2.951    0.661
        67  -9.6939    235.4645    249.3368   9.1785834522e+01  -9.5543162570e+00    0.2939916    0.1405502  32.93  0.001702469    1.646    0.393
        68  -9.5718    210.2788    250.1507   9.6240142149e+01  -5.9492552555e+00    0.2445825     0.104186  30.55   0.00122318    2.108    0.526
        69  -8.7735    162.3346    250.3209   1.0481917059e+02   1.5199948759e+00    0.1176439   0.08193617  18.08 0.0002414539    1.704    0.413
        70  -9.1548    125.1710    249.9025   1.1149616458e+02   7.4301942076e+00    0.2191627    0.1405994  23.80  0.001238607    2.137    0.532
        71  -9.3188    183.4628    249.6666   1.0092511360e+02  -1.7418599895e+00    0.2198633   0.08762307  40.11  0.001080928    1.953    0.488
        72 -11.6319     33.8056     58.9936   1.0290404229e+02   6.1224491094e+01    0.9033331    0.4299863 -23.12  0.003757902    3.242    0.692
        73  -9.7099    107.5054    247.2355   1.1440488507e+02   1.0537556312e+01    0.2225322    0.1422817  69.36  0.001376694    1.611    0.379
        74 -12.2289     55.9303     81.8762   1.0100952754e+02   5.3836719174e+01     1.957491     1.121892   0.65   0.00806154    3.174    0.685
        75 -11.4836     19.0238     71.3275   1.1166691873e+02   5.9742595853e+01    0.4248911     0.355325 -66.60  0.001307014    1.138    0.121
        76 -11.9872     42.3289     50.2692   9.6747832929e+01   6.2146329355e+01    0.7621998    0.4812172  26.72  0.002466379    1.780    0.438
        77  -9.3927      3.2121    246.9202   1.3183146189e+02   2.3585120752e+01    0.1950777    0.1007161 -77.00  0.001402972    1.848    0.459
        78 -12.1937     32.4437     43.4957   9.8589723403e+01   6.4495216381e+01    0.7464598    0.4692624 -26.37  0.004312657    1.525    0.344
        79 -12.7497     12.2912    126.9486   1.2234055730e+02   4.7414843638e+01    0.6817966     0.349605  88.52  0.001033422    1.882    0.469
        80  -9.9610    142.0475    243.6612   1.0770666833e+02   5.7280687361e+00    0.3186558     0.201213  29.18  0.001626892    1.687    0.407
        81  -8.9345     91.3198    245.6649   1.1715430279e+02   1.3168809555e+01    0.1228136   0.06890954  64.94 0.0004706253    1.702    0.413
        82  -8.4784    119.6688    239.3222   1.1135497564e+02   9.9639639368e+00    0.1259726   0.07754474  64.17 0.0007049648    1.699    0.411
        83 -10.2269     14.7472    237.5037   1.2964613128e+02   2.4070989501e+01    0.2860478    0.1304037 -86.06 0.0008909761    1.897    0.473
        84  -9.1533     55.5504    237.9308   1.2283925457e+02   1.9341112198e+01    0.1527987   0.09580066 -75.71  0.001022463    1.624    0.384
        85  -9.6046    190.2470    235.9835   9.7743817858e+01  -1.0233143931e+00    0.1394638    0.1045575 -34.72 0.0008891113    1.603    0.376
        86  -8.6612     21.0154    232.2619   1.2836842730e+02   2.4360444223e+01     0.145948    0.1028808  67.24 0.0005330951    1.057    0.053
        87  -9.0868     12.6824    231.9363   1.2972227545e+02   2.5276758264e+01    0.2272197   0.08182977  53.84  0.001330533    2.020    0.505
        88  -8.4518    226.7599    231.4561   9.0453965107e+01  -6.2448678325e+00    0.1680145   0.09190246  28.09 0.0008601364    1.567    0.362
        89  -9.4201    218.9762    230.7225   9.1712365971e+01  -4.9472552440e+00    0.2870071    0.1294435  44.56  0.001416436    2.150    0.535
        90  -9.1989    202.1187    228.9747   9.4483878278e+01  -2.0181434155e+00    0.1862851    0.1497013  27.74 0.0004876689    1.029    0.029
        91  -8.3271     63.7157    229.3598   1.2073854575e+02   1.9843977490e+01    0.1231927   0.06750274  68.70 0.0007019688    1.677    0.404
        92 -12.5077     48.5144     39.1690   9.0165029799e+01   6.3519936446e+01    0.5524965    0.3779282  34.11 0.0006154606    1.653    0.395
        93 -11.7959     56.7715     37.6370   8.6181389026e+01   6.2682316710e+01     0.449904    0.3241672  -6.66  0.001283276    1.422    0.297
        94  -8.8626    137.1743    224.7931   1.0625721982e+02   9.5512913250e+00    0.1637277    0.1435177  18.32 0.0006521076    1.348    0.258
        95  -9.3781    237.4314    135.4862   6.9550760100e+01   5.8314556978e+00    0.2828189    0.1400253  48.95  0.001214762    2.183    0.542
        96  -9.0180     31.9718    134.8927   1.1815016252e+02   4.3903830482e+01    0.2956106    0.1331298  45.48  0.001436023    2.343    0.573
        97  -9.6364     60.9770    134.4382   1.1038193768e+02   4.0778845683e+01    0.1874579    0.1316659  38.94 0.0004493652    1.553    0.356
        98  -9.6241     60.4934    120.2779   1.0804134796e+02   4.4242811144e+01    0.3000539    0.2452495  -4.74  0.001574937    1.640    0.390
        99 -10.7259     65.6983    128.3411   1.0804306493e+02   4.1624257346e+01    0.5204397    0.2126373 -56.25  0.002152133    2.143    0.533
       100 -11.1986     65.5897    124.5429   1.0738086924e+02   4.2552112356e+01     0.557413    0.4178858  36.80  0.003072945    1.483    0.326
       101 -10.4552     68.8091    120.3964   1.0567211567e+02   4.3111285849e+01     0.583436    0.2082807 -60.39   0.00217089    2.558    0.609
       102 -10.0260     73.0343    129.5172   1.0622689816e+02   4.0326149920e+01    0.2574656    0.1861282 -62.34 0.0003643448    1.255    0.203
       103  -8.4796     81.5352    124.4982   1.0287782803e+02   4.0267379315e+01    0.1433354    0.1309389 -66.49 -1.50144e-05    1.030    0.029
       104  -9.3960     88.4661    119.5378   9.9865697521e+01   4.0349030801e+01    0.3966097    0.2614226  18.82  0.001148655    2.140    0.533
       105 -10.1552     90.9557    122.0841   9.9721107942e+01   3.9333032774e+01    0.4516717    0.3001363 -43.45   0.00108839    1.557    0.358
       106  -9.4245     94.3967    120.2463   9.8347112304e+01   3.9187613588e+01    0.3014156    0.2499883 -49.33 0.0005059736    1.171    0.146
       107 -11.2872     75.5582    120.0462   1.0366286381e+02   4.2233543468e+01    0.2532987    0.2356293  57.33  0.001492549    1.148    0.129
       108 -10.5600     19.5251    118.4320   1.1939193613e+02   4.8853442817e+01    0.4056838    0.2518239 -68.87  0.001667159    1.274    0.215
       109  -9.7518    105.2568    117.7636   9.4735128290e+01   3.7835103781e+01    0.4748835    0.3086033  75.14  0.001902224    2.409    0.585
       110  -9.2522     99.3953    113.0110   9.5241547805e+01   4.0011785000e+01    0.3383825    0.2613526 -70.59  0.001319245    1.395    0.283
       111 -10.0184    116.1542    116.4667   9.1425949801e+01   3.6045938881e+01    0.2702409    0.2515794 -55.85 0.0002714848    1.043    0.041
       112 -13.2121     36.5910    123.9345   1.1541781896e+02   4.6053097971e+01     2.119143     1.464626  38.62  0.005191768    1.636    0.389
       113  -9.4338     37.3378    109.3075   1.1288635347e+02   4.9460925933e+01    0.2717125    0.2301352   9.71  0.001721678    1.499    0.333
       114 -10.5405     30.2232    114.6616   1.1583924702e+02   4.8850816637e+01     1.047293     0.468022   4.04  0.003607725    5.927    0.831
       115 -10.0633     33.1291    109.2354   1.1413298568e+02   4.9873966943e+01    0.3992204    0.2992371 -58.83  0.002448387    1.152    0.132
       116  -8.8357     91.5782    113.0428   9.7493796234e+01   4.1367423067e+01    0.3402148    0.2206335  66.74  0.001463815    2.129    0.530
       117  -9.5062     63.9978    113.7229   1.0574606627e+02   4.5361859952e+01    0.2419601    0.1762356  30.05  0.001294035    1.589    0.371
       118  -9.8488    107.8806    110.3776   9.2184941974e+01   3.9050855509e+01    0.5097092    0.2292769 -49.59  0.001915877    2.134    0.531
       119  -8.7610    103.9728    109.2293   9.3000497455e+01   4.0051817809e+01    0.2062816    0.1926886  52.99  0.001037689    1.116    0.104
       120 -10.2298     58.9334    113.0714   1.0712004673e+02   4.6169010181e+01    0.3409657    0.2877636   9.97  0.001708346    1.482    0.325
       121  -9.5217     62.4390    108.7583   1.0519125355e+02   4.6752382502e+01    0.4514255    0.2492035 -35.43  0.001953704    2.344    0.573
       122  -9.7268    131.8930    110.8227   8.5782597354e+01   3.4052121496e+01    0.6433252    0.2551221  41.54   0.00215562    2.658    0.624
       123 -10.6930     69.2547    105.4057   1.0238353418e+02   4.6629325713e+01    0.7257829     0.307061 -38.35   0.00252408    3.331    0.700
       124  -9.7022    149.1001    107.0995   8.0431506915e+01   3.1004730607e+01    0.4768161    0.2252666 -39.02  0.001721968    2.163    0.538
       125  -9.5732    113.4049    107.5348   8.9905101967e+01   3.8624277881e+01    0.4371815     0.313066 -82.57  0.001879856    1.986    0.497
       126  -9.3463     74.5619    107.2251   1.0118020519e+02   4.5436829867e+01    0.2925916    0.2283591   5.82  0.001438471    1.681    0.405
       127  -9.3003    130.2367    104.7806   8.4593941541e+01   3.5733986488e+01    0.2486177    0.2114615  56.51 0.0003497487    1.229    0.187
       128  -9.7532    133.7581    102.4833   8.3036853367e+01   3.5458694839e+01    0.3484007    0.2920649 -35.65 0.0009894997    1.202    0.168
       129 -11.2077    141.5744    101.8754   8.0860933503e+01   3.3830601243e+01    0.5336897    0.3683014  25.65 0.0009720245    1.833    0.455
       130  -9.8694    146.6721     99.6829   7.8972891782e+01   3.3114169485e+01    0.2646778    0.2318736 -20.98 0.0005136792    1.215    0.177
       131  -8.8673    105.4178    103.2273   9.1032325358e+01   4.1153114264e+01    0.2926757     0.138763 -44.54 0.0008810753    2.051    0.512
       132  -8.2205     96.3300    103.2465   9.3686766066e+01   4.2823557659e+01    0.1427064    0.1160866  -6.92  0.000444485    1.544    0.353
       133 -10.8045     77.0069    101.7131   9.9136079968e+01   4.6369329139e+01    0.5029411    0.3480474  36.51  0.001703797    1.585    0.369
       134  -9.0331     62.5503    102.3231   1.0376641478e+02   4.8265427826e+01     0.341969    0.1752388 -59.22  0.001019678    1.742    0.426
       135  -9.5007     64.1838     98.4701   1.0237406611e+02   4.8956547126e+01    0.4681839    0.2086076  40.98  0.001974457    2.490    0.598
       136  -9.1377     39.3990    102.6459   1.1106819528e+02   5.0838189639e+01    0.2543384    0.1646859  18.95 0.0008359146    1.970    0.492
       137 -10.5788      4.3969     86.5366   1.1949095703e+02   5.7211516477e+01    0.6408481    0.3170161 -55.71  0.003352281    1.561    0.359
       138 -10.4820      4.6475     99.8478   1.2126716286e+02   5.4165076674e+01    0.6503176     0.168125 -55.16  0.002800058    2.781    0.640
       139  -9.3208      3.0336     94.0519   1.2099077416e+02   5.5577684552e+01    0.4272234   0.09285995 -65.93  0.001728032    2.874    0.652
       140  -8.9566    115.3000    101.0275   8.7630014945e+01   3.9703166550e+01     0.252551    0.1157712 -29.65 0.0007029676    4.132    0.758
       141 -10.8351    110.8789    100.6382   8.8771853358e+01   4.0676490980e+01    0.2638476    0.2317934 -46.14 0.0002569386    1.096    0.087
       142  -9.6970     87.6621     97.5765   9.4814820170e+01   4.5626551595e+01    0.3643173    0.3337575  84.05  0.001599702    1.204    0.169
       143  -9.2708     82.0504     97.2102   9.6449506724e+01   4.6630218364e+01     0.299051    0.1949873  41.01 0.0003732018    1.661    0.398
       144  -8.9559     34.1506     99.2658   1.1208754232e+02   5.2133458051e+01    0.2326729    0.1627951 -66.98  0.001355373    1.198    0.165
       145 -10.2117    156.5943     95.5483   7.5409593915e+01   3.1607369362e+01    0.5046835    0.3570299 -23.21  0.001836702    1.641    0.391
       146  -9.4578    151.9181     96.7944   7.6875621541e+01   3.2473101335e+01    0.3941987    0.3235673 -85.96  0.001560134    1.507    0.337
       147 -10.9478    116.0013     94.6875   8.5655491293e+01   4.0952633814e+01    0.7390441    0.4786866  54.51  0.002639851    1.736    0.424
       148 -11.0859    124.1924     92.7714   8.2827893377e+01   3.9631434342e+01    0.7063771    0.4867122 -55.73  0.003134109    1.581    0.367
       149  -9.4068    243.5010     96.5156   5.9381632440e+01   1.0908301134e+01    0.1428586    0.1279192 -37.27  0.000103257    1.019    0.019
       150  -8.4195    227.5008     95.4921   6.1567100619e+01   1.4592636400e+01     0.146876     0.136728 -29.21 0.0001810151    1.028    0.027
       151  -8.8301    140.1497     94.6769   7.9175960819e+01   3.5660614149e+01    0.2501921    0.2028282  74.21 0.0006827631    1.467    0.318
       152  -8.3104    188.7180     94.6819   6.8237909801e+01   2.3930350106e+01     0.156078    0.1231728   9.31 0.0002970864    1.582    0.368
       153  -8.7890    174.8081     92.8193   7.0566394971e+01   2.7696863319e+01    0.2196143      0.18691 -73.62 0.0003318072    1.342    0.255
       154  -8.6251    102.2483     88.3089   8.7806838893e+01   4.5079078617e+01    0.2276007    0.1790247  26.15  0.001121572    1.413    0.292
       155 -10.1121    104.6144     92.1843   8.8224497685e+01   4.3776725743e+01    0.4543906    0.2740883  21.29  0.001768894    2.489    0.598
       156 -10.8290    107.0668     86.6902   8.5895804012e+01   4.4488838878e+01    0.6306745    0.3841918 -24.44  0.001538499    2.221    0.550
       157  -9.1418     82.8519     84.8979   9.2848252473e+01   4.9284061749e+01    0.2906286    0.2215812 -25.89  0.001389842    1.424    0.298
       158 -10.3706     75.0226     89.7947   9.6729738458e+01   4.9420877451e+01     0.714869    0.2853493  42.35  0.002156981    2.790    0.642
       159 -10.6674     83.2815     90.0288   9.4151097020e+01   4.8068158232e+01    0.4047931    0.2757616  22.38  0.001053013    1.798    0.444
       160 -10.4714     87.8775     90.0934   9.2722606350e+01   4.7286310700e+01    0.5496624    0.2417907 -47.69  0.001021076    2.095    0.523
       161 -10.4012     90.6274     86.7288   9.0907175295e+01   4.7558083641e+01    0.4902462    0.3498949 -82.26  0.001826776    2.135    0.532
       162  -8.1292     68.2986     92.3471   9.9567961448e+01   4.9816929674e+01    0.1463921     0.100146 -29.89  0.000703604    1.680    0.405
       163  -8.8752    213.5499     89.9909   6.2441172718e+01   1.8752655163e+01    0.2437826    0.1413038 -35.78  0.001039839    1.629    0.386
       164  -8.7754    187.9171     89.7459   6.7034780307e+01   2.5027140964e+01    0.2108566    0.1982382  68.50  0.000357947    1.097    0.088
       165  -8.6544    194.0328     89.5243   6.5799172271e+01   2.3558950243e+01    0.2266416    0.1533721  54.36 0.0004926468    1.511    0.338
       166 -10.2270    111.9805     88.5222   8.5006967733e+01   4.3107527449e+01     0.421191    0.1968233 -30.47  0.001367039    3.130    0.681
       167 -10.6023    118.6692     86.4716   8.2489467338e+01   4.2145938954e+01    0.3644437    0.2763772  44.14 0.0008886052    1.353    0.261
       168  -9.3559    155.7098     85.6612   7.2735885936e+01   3.3759533503e+01     0.322271    0.2441878  16.15 0.0009715405    1.686    0.407
       169  -8.1344     68.2542     86.3531   9.8026100273e+01   5.1192287570e+01    0.1442764   0.09730002 -32.16 0.0003617927    1.602    0.376
       170  -9.1497     75.7045     84.0558   9.4934927411e+01   5.0608076763e+01    0.2237086    0.1958161  55.15 0.0006232529    1.319    0.242
       171 -10.1291    161.5299     81.2302   7.0090439850e+01   3.3162167278e+01    0.7287471    0.3105811  51.45  0.002555873    2.320    0.569
       172  -8.5888    111.5337    225.0150   1.1128429733e+02   1.3691918745e+01    0.1682059   0.09828421  84.80 0.0008091069    2.528    0.604
       173  -9.8371    188.0874     77.9985   6.3701104980e+01   2.7063585095e+01    0.4953392    0.2273675  47.18  0.001466924    2.270    0.559
       174  -9.8843      5.1042     77.4341   1.1780404321e+02   5.9222017427e+01    0.2664529    0.1899297  84.70  0.001164872    1.552    0.356
       175  -9.9534      3.3730     73.1968   1.1768105960e+02   6.0252184090e+01    0.5059322    0.1742975 -39.61  0.002039275    2.959    0.662
       176  -9.5250    214.5206     76.1684   5.8637365623e+01   2.0817789652e+01    0.3219505     0.282939 -55.72  0.001414295    1.112    0.100
       177  -9.5134    248.3936     76.2644   5.3829579511e+01   1.3005687538e+01    0.2050033    0.1127978 -42.18 0.0006606331    1.605    0.377
       178  -9.6084    131.8344     74.9158   7.5314792633e+01   4.1530666038e+01    0.3362651    0.2783764 -46.92  0.001659204    1.235    0.190
       179  -9.9045    124.3593     74.9531   7.7323647762e+01   4.3228907424e+01    0.4972029    0.2343592  48.58  0.001608924    2.158    0.537
       180 -11.5851     16.4432     84.0530   1.1509308904e+02   5.7055603301e+01     0.654742     0.219487 -56.19  0.003010571    2.132    0.531
       181  -9.2165    179.9903     68.5329   6.2490615236e+01   3.0729763365e+01    0.2952517    0.2047514  44.48 0.0006510222    1.505    0.335
       182  -9.5684    176.4300     68.2098   6.3080117090e+01   3.1695406708e+01    0.4237155    0.2422212 -49.81 0.0009685737    1.916    0.478
       183 -11.6487    105.8273     34.1681   6.7933605438e+01   5.4264839224e+01    0.5325954    0.3199145  26.67 0.0002512041    1.935    0.483
       184  -8.4096    238.4887     65.5103   5.2479203469e+01   1.6826604273e+01    0.1386636       0.1302 -37.05 0.0008088411    1.092    0.084
       185  -9.0065     40.9966    221.2255   1.2424788362e+02   2.4195206773e+01     0.146134    0.1327165 -18.34    0.0010514    1.953    0.488
       186  -9.4345      9.9207     52.1841   1.1076709472e+02   6.4447103650e+01    0.2237872    0.1630106  16.09 0.0009181896    1.678    0.404
       187  -8.6370      7.4122     47.2095   1.1055598692e+02   6.5619533262e+01     0.205104   0.08451555 -57.28 0.0004273264    1.778    0.438
       188 -10.4157      4.3523     51.6975   1.1295293400e+02   6.4846836596e+01    0.3480031    0.1430481 -45.50 0.0009428565    1.853    0.460
       189 -10.0993     10.7521     62.9116   1.1294437716e+02   6.2113733282e+01    0.4176998    0.1980727 -59.41  0.001534924    1.573    0.364
       190  -9.5355    207.0010     61.3414   5.5810399387e+01   2.5014937322e+01    0.2768101    0.2049077 -44.31 0.0005904179    1.295    0.228
       191  -8.7778    186.9661     61.7566   5.9222504329e+01   3.0042108370e+01    0.2108141    0.1945175  89.53 0.0004089599    1.092    0.084
       192  -9.5641    212.2023     60.1924   5.4716446999e+01   2.3895027522e+01    0.2736738    0.2434003  63.69 0.0008215003    1.157    0.135
       193  -9.2982    201.2400     59.9064   5.6310845232e+01   2.6685453283e+01    0.3086248    0.2309045  71.85 0.0008432071    1.388    0.280
       194  -8.5244    203.2161     56.1605   5.4959901524e+01   2.6753384468e+01    0.2107376    0.1990671  18.08   0.00053588    1.191    0.160
       195  -9.2812    191.9317     44.7042   5.3437469994e+01   3.1306291474e+01    0.5261555    0.2928103  48.41  0.002247192    1.883    0.469
       196 -10.3643    173.9778     57.7206   6.0384535911e+01   3.4032372768e+01     1.245991    0.6477926  -3.86  0.003215238    5.777    0.827
       197 -10.4811    194.5169     53.8953   5.5679885018e+01   2.9310182267e+01     1.018325    0.6203406  60.24  0.003831754    1.617    0.382
       198 -10.3945    194.0421     49.7673   5.4570852169e+01   3.0039626476e+01    0.6354822    0.3133096  65.13  0.002546175    2.053    0.513
       199  -9.7728    201.9815     48.0502   5.2884125760e+01   2.8252379652e+01    0.3376825     0.257404  42.66 0.0004705216    1.462    0.316
       200  -9.7835    206.8556     46.0865   5.1645112905e+01   2.7292988179e+01    0.4064137    0.2022298  63.77  0.001061687    1.983    0.496
       201 -10.9787    185.0819     55.9260   5.7839668361e+01   3.1435862329e+01    0.3946641    0.3505772 -17.24 0.0003808559    1.219    0.180
       202 -11.4819    183.5295     51.9251   5.6920551382e+01   3.2441865246e+01    0.5511599    0.3541629  62.89 0.0004434836    1.536    0.349
       203 -10.0475    222.5722     55.9127   5.2126814438e+01   2.1991129047e+01    0.3918725    0.3451094 -77.70  0.001840768    1.118    0.105
       204  -9.5662    243.6909     56.0575   4.9525661499e+01   1.7023066356e+01    0.4253202    0.2717063 -30.63   0.00214196    1.515    0.340
       205  -8.5995    224.5334    215.4665   8.8147741023e+01  -3.8757328654e+00    0.1252062     0.102751  17.69 0.0005523139    1.041    0.040
       206  -8.6215    126.7189     51.2849   6.8694259710e+01   4.6914171871e+01    0.2219892    0.1879118  48.00  0.000552247    1.164    0.141
       207 -10.8872    121.4832     53.7286   7.0934140316e+01   4.7731760578e+01    0.7012759    0.5182129  26.89  0.003203213    1.473    0.321
       208 -10.9568    117.3066     49.0027   7.0367617375e+01   4.9460989167e+01    0.6859404    0.4515418  13.75   0.00198037    2.062    0.515
       209  -9.6686    117.8518     42.0540   6.7661384750e+01   5.0418022211e+01    0.4692613    0.2280082 -30.77  0.001914821    2.095    0.523
       210 -12.1240     29.0816     76.1861   1.0908891191e+02   5.7890122734e+01      1.59335    0.5707324 -45.55  0.006900554    2.429    0.588
       211  -9.8454    234.2631     55.1839   5.0440227645e+01   1.9314749600e+01    0.2726852    0.2326897 -79.02  0.001553249    1.169    0.145
       212 -10.7361      3.6196     56.9282   1.1442896758e+02   6.3777946213e+01    0.4748267    0.2364767  33.25  0.002691365    2.577    0.612
       213  -9.2892     27.0063    212.4905   1.2619979301e+02   2.7450675531e+01    0.1600406   0.09357475  44.24  0.001037077    1.603    0.376
       214  -8.8589    210.6493     52.6881   5.2912319112e+01   2.5396293944e+01    0.3093508    0.1807312  21.31  0.001099387    3.379    0.704
       215  -8.3567    211.7170     49.3281   5.1854146392e+01   2.5613433016e+01    0.1460172    0.1406786 -68.26 0.0002240958    1.054    0.051
       216  -8.5718     16.5026     50.5382   1.0758678284e+02   6.4378217000e+01      0.12477   0.09043559 -42.15 7.424923e-05    1.101    0.092
       217 -10.2562    172.3780     46.8582   5.7334634403e+01   3.6088521543e+01    0.4885712    0.3746672 -40.82  0.001908504    1.320    0.242
       218 -10.3922    220.5941     44.5350   4.9416153821e+01   2.4088071369e+01    0.5668465     0.262518 -51.31  0.002278839    2.261    0.558
       219  -9.8224     75.7497     46.0958   8.2331175550e+01   5.8252600438e+01    0.4092341    0.2613215  18.03   0.00189648    1.879    0.468
       220 -10.2827     76.7234     41.3308   8.0118790661e+01   5.8903746148e+01    0.3184031    0.2600055   5.61 0.0005500498    1.186    0.157
       221  -9.7662    179.1035     44.7028   5.5501772439e+01   3.4642143349e+01    0.2881538    0.2413744 -14.30 0.0003303043    1.336    0.252
       222  -8.4308    129.6954     45.6956   6.5959631542e+01   4.7080974014e+01    0.2873077    0.2081617 -12.23 0.0005851574    1.562    0.360
       223  -8.8887    123.9897     36.2394   6.3921399742e+01   4.9819647978e+01    0.2682951      0.20889  53.97 0.0008901084    1.257    0.205
       224 -10.0628    130.2848     40.5801   6.3980347899e+01   4.7694977222e+01    0.3391332    0.2717014 -31.95  0.001236071    1.283    0.221
       225  -9.0819    127.0000     39.0018   6.4201557288e+01   4.8712840655e+01    0.2882802    0.2143377 -16.32  0.001004638    1.438    0.304
       226  -8.3170    248.5258     44.9531   4.6331939684e+01   1.7477398134e+01    0.2761757    0.1631788   7.50  0.000984623    4.316    0.768
       227  -8.9786    249.8217     40.6204   4.5180139432e+01   1.7767254807e+01    0.1893799    0.1662522 -77.41  0.001170288    1.099    0.090
       228  -8.1270    233.4778     43.4519   4.7603936810e+01   2.1138052861e+01     0.134376    0.1277889 -62.35 0.0001882529    1.095    0.087
       229  -8.6968    240.3065    208.6535   8.4138106199e+01  -5.5111045352e+00    0.1054372    0.1020793 -81.28 0.0007042788    1.698    0.411
       230  -8.5818    240.6197    205.3013   8.3470443713e+01  -5.1274356326e+00    0.1103115     0.100867  66.11 0.0007023721    1.772    0.436
       231  -9.7085    214.7978     40.8808   4.9183199224e+01   2.6016481570e+01    0.5524525    0.3121138 -10.73  0.001177672    2.749    0.636
       232 -10.2905    233.3685    199.4833   8.3668176930e+01  -3.1727086575e+00    0.3084795    0.2743382 -83.67  0.001889112    1.962    0.490
       233  -8.1511     93.5010    200.5032   1.1200682417e+02   2.1197582130e+01    0.1289406    0.1109001  66.32 0.0008103592    1.040    0.039
       234  -9.3271     27.8913    193.4206   1.2473136435e+02   3.1207725505e+01    0.2320888    0.1227482 -62.79  0.001349405    1.935    0.483
       235  -9.9001     11.5062    192.6596   1.2784336070e+02   3.2978405279e+01    0.2877805    0.1274805  44.49  0.001692742    2.014    0.503
       236  -8.9480    215.9278    189.4728   8.4955330811e+01   1.2916953554e+00    0.2057845    0.1205876  38.92   0.00102672    1.577    0.366
       237  -9.1706    173.7329     39.6115   5.4849485214e+01   3.6750164483e+01    0.5257491    0.2370508  36.86  0.001737527    3.330    0.700
       238  -8.9269    235.9821     39.3171   4.6303603631e+01   2.1103449115e+01    0.2204292    0.1928647   8.51 0.0007819986    1.471    0.320
       239  -9.2706    191.2464     39.9743   5.2169942995e+01   3.2134238628e+01     0.367306    0.2062885  48.86  0.001587036    1.855    0.461
       240  -8.4972    229.8516    187.8457   8.2070191594e+01  -9.2834351745e-01    0.1667501     0.154503 -35.74 0.0005736965    1.371    0.270
       241 -10.3194    198.9446     34.1515   4.9414368930e+01   3.0914963223e+01       0.5146    0.2816655 -24.44  0.002236915    2.027    0.507
       242  -9.2457      7.8968    186.0910   1.2813540096e+02   3.4661260758e+01    0.1703278    0.1083373  73.73 0.0002732639    1.224    0.183
       243 -10.4899    245.8256     33.3553   4.3865092747e+01   1.9609992186e+01    0.7090918     0.256607  69.66  0.002852205    2.876    0.652
       244  -9.1751     11.8075    184.6422   1.2728287506e+02   3.4614387749e+01    0.1832415    0.1218769 -77.07 0.0005705651    1.317    0.241
       245 -10.7442     26.0868    176.7056   1.2379843756e+02   3.4953084134e+01    0.4377672      0.25926 -61.71  0.002327831    1.708    0.414
       246 -10.4090     30.5852    172.2096   1.2245205408e+02   3.5484020536e+01    0.3035094    0.2162235 -77.65   0.00107109    1.211    0.174
       247  -9.9754      1.6961    178.6820   1.2889891667e+02   3.6736005314e+01    0.3068894    0.1180829 -81.57  0.001631772    2.065    0.516
       248 -10.1414    238.1774     26.3891   4.2941364735e+01   2.2239753016e+01    0.4116006     0.226408  73.51  0.001333709    1.825    0.452
       249  -9.4880    182.1094     34.0555   5.1803217388e+01   3.5292953177e+01    0.6359493    0.1824195  54.55  0.002080945    3.082    0.676
       250 -10.2182    135.1377     34.2464   6.0574366513e+01   4.7380188681e+01     0.372901    0.2853065   7.26  0.001168994    1.497    0.332
       251  -8.5439      3.9784     33.9370   1.0837842241e+02   6.8461312989e+01    0.2895601   0.08465025 -36.15  0.001243977    3.193    0.687
       252  -8.9999    138.4876     31.4756   5.8851669393e+01   4.6906185371e+01    0.2666802    0.2180579 -39.86 0.0006279113    1.306    0.234
       253  -9.0622    223.5159     26.5042   4.4436911887e+01   2.5716447939e+01     0.303128    0.1502099 -58.05  0.001064544    2.168    0.539
       254 -10.0462    227.8580     30.8912   4.5083127628e+01   2.4121698626e+01    0.4608858    0.2890954  78.68  0.001353731    1.615    0.381
       255  -9.0426    227.6817     26.6884   4.4050342436e+01   2.4686497222e+01    0.2726292    0.1847418  49.48  0.001115132    1.704    0.413
       256  -9.7524    173.2590     30.6607   5.2149215896e+01   3.8037482948e+01    0.3394938    0.2566064  30.69  0.001053282    1.532    0.347
       257 -10.2999    168.9197     23.9053   5.0720223090e+01   3.9983154049e+01    0.9877659    0.2056556  55.88  0.002980364    3.652    0.726
       258  -8.0888     19.3133    178.2784   1.2533070542e+02   3.5271462451e+01    0.1029891   0.08094178 -57.59 0.0002481952    1.566    0.361
       259 -10.2745    159.4444     24.4226   5.2431693974e+01   4.2395248485e+01     1.093031    0.3503638  59.64  0.003837349    2.657    0.624
       260  -9.7672    158.2718     19.9534   5.1157617900e+01   4.3203903356e+01    0.2836448    0.2410884 -57.81 0.0006460036    1.262    0.208
       261  -8.7072     79.8510    176.6582   1.1194562826e+02   2.8336978007e+01    0.1849225    0.1586968 -73.80  0.001002139    1.169    0.145
       262  -8.2247      7.6995    175.6455   1.2751378677e+02   3.6879080283e+01    0.1082686   0.07284749 -58.65 0.0007037611    1.703    0.413
       263  -8.2480     65.4804    173.4301   1.1480602166e+02   3.1082330880e+01     0.131794    0.1085231  78.43 0.0001448429    1.041    0.039
       264  -9.4341      1.2959    170.3478   1.2847177670e+02   3.8534515493e+01    0.2882543   0.07497814 -76.07  0.001086939    2.920    0.658
       265  -9.2945    245.8876    171.1227   7.5873297548e+01  -1.2711013715e+00    0.1898543    0.1800422 -18.82 0.0006792045    1.291    0.225
       266 -10.5008    176.6799     19.5294   4.8210632562e+01   3.8449525997e+01    0.3993392    0.3258372 -69.44  0.001206228    1.260    0.206
       267  -9.7052     18.9423    165.8368   1.2443056872e+02   3.8022470217e+01     0.174962    0.1414324 -74.17  0.001050286    1.242    0.195
       268 -10.5504      2.2521    159.5741   1.2755949714e+02   4.0791945469e+01    0.4111658    0.1640332 -84.19  0.001265305    2.045    0.511
       269 -10.9489     20.9146    159.8724   1.2348328449e+02   3.9172609886e+01    0.5294885    0.1728611  49.70  0.002379679    2.969    0.663
       270  -9.1089     28.8553    158.2122   1.2152062170e+02   3.8797461412e+01    0.1789564    0.1350681  78.00 0.0003924173    1.137    0.120
       271  -9.6003    146.1433     29.1842   5.6476179803e+01   4.5257358055e+01     0.425545    0.3091075  63.01  0.002131992    1.321    0.243
       272  -9.9947    147.5634     23.9511   5.4392296520e+01   4.5518423024e+01    0.3458159    0.2695666  53.44  0.001037515    1.183    0.155
       273  -8.5351    167.6387     29.2350   5.2613663591e+01   3.9684042239e+01    0.2431749    0.1697776  67.77 0.0002410135    1.368    0.269
       274  -7.9364    164.6797     29.2844   5.3123929208e+01   4.0451151249e+01    0.1951941    0.1762178 -70.50 0.0004138613    1.149    0.130
       275  -8.7197    136.2197     25.8608   5.7314921258e+01   4.8166373138e+01    0.2992196    0.1712156   8.76  0.001172888    2.674    0.626
       276  -8.9468    250.0243     25.3497   4.1621495752e+01   1.9665497733e+01    0.1798577    0.1454339 -80.82    0.0003911    1.153    0.132
       277  -8.1933    140.3203     23.3159   5.5565344485e+01   4.7433967062e+01    0.1528939    0.1007176  31.91 0.0003901733    1.658    0.397
       278 -10.9066     14.0554    151.5488   1.2430626430e+02   4.1643738489e+01    0.3562409    0.2575401  78.12  0.001407608    1.179    0.152
       279 -10.5408     30.5251    151.5226   1.2044142240e+02   4.0165349664e+01    0.2336052    0.2004345 -78.53 0.0006081888    1.149    0.129
       280  -9.0590      7.8585    151.7054   1.2573330808e+02   4.2104343790e+01    0.1980453    0.1221354 -71.50 0.0005659481    1.339    0.253
       281  -8.7630     46.0728    150.1297   1.1650286656e+02   3.8850211386e+01     0.185499    0.1530172 -57.31 0.0004590944    1.307    0.235
       282  -9.5247    198.0514     16.1205   4.4493329594e+01   3.3292204462e+01    0.4063335    0.1718426  64.18   0.00169124    2.121    0.529
       283  -9.5278     66.3372    148.1808   1.1114902166e+02   3.6799066085e+01    0.2875119    0.2498174  -8.87  0.001689938    1.599    0.375
       284 -10.4107      3.5506    136.8875   1.2549617174e+02   4.5756049123e+01    0.4107096     0.258618 -51.62   0.00149601    1.718    0.418
       285 -10.7985     17.9001    147.3273   1.2302081132e+02   4.2280598038e+01    0.4311021    0.1959711 -83.19  0.001393699    1.931    0.482
       286  -9.9670     15.4889    142.9886   1.2317952972e+02   4.3473061663e+01    0.3576871     0.223766 -75.08  0.001883456    1.268    0.211
       287  -9.6793      5.4652    147.4767   1.2593617937e+02   4.3232555770e+01    0.1794537     0.148957  50.13 0.0006261902    1.381    0.276
       288  -9.0451     67.3073     13.1392   7.1152537993e+01   6.4632133967e+01    0.2582253    0.1614934  54.96  0.001065061    2.059    0.514
       289 -11.1032      6.0874    143.0417   1.2542262172e+02   4.4184934607e+01    0.4177847    0.3285174 -61.83 0.0005567727    1.337    0.252
       290 -11.5795     29.8760    142.1306   1.1955747066e+02   4.2406120628e+01    0.7525682    0.4434127  83.99  0.004095194    1.674    0.403
       291 -10.2593     23.4565    137.4236   1.2063370339e+02   4.4087805144e+01    0.2947847    0.2321431 -83.69  0.001308033    1.011    0.011
       292  -9.5629     47.5037    139.5154   1.1472586438e+02   4.1191364397e+01    0.3529128    0.1823535 -74.83  0.001459831    1.796    0.443
       293 -10.2473     40.9488    147.0320   1.1738460150e+02   4.0140419538e+01    0.3610859    0.2462552  51.16  0.001163508    1.494    0.331
       294  -9.7987     46.5912    144.2707   1.1561199637e+02   4.0168692381e+01    0.3547456    0.2597144 -10.25  0.001922107    2.241    0.554
       295 -10.3926     37.8030    143.0231   1.1767510804e+02   4.1411929371e+01    0.3350148    0.2905621  11.20 0.0007951944    1.572    0.364
       296 -10.4509     23.0988    146.6264   1.2170908598e+02   4.1988515162e+01    0.2779562    0.1921351  79.88  0.001186278    1.288    0.223
       297  -9.0982     70.7886    142.7960   1.0915249467e+02   3.7465791685e+01    0.1955758    0.1752906 -66.35 0.0006186045    1.120    0.107
       298  -8.4076     80.3904    140.8436   1.0630253620e+02   3.6535136049e+01    0.1967834    0.1190154 -51.40 0.0005083701    1.636    0.389
       299  -9.8849     66.0993    138.9281   1.0975044796e+02   3.9031400566e+01    0.2051217    0.1827609 -74.54 0.0005090232    1.058    0.055
       300 -12.7112     38.9680     92.1360   1.0914122442e+02   5.3346713232e+01     2.169102     1.223366  55.14  0.009726509    2.430    0.589
