#   1 NUMBER                 Running object number                                     
#   2 MAG_AUTO               Kron-like elliptical aperture magnitude                    [mag]
#   3 X_IMAGE                Object position along x                                    [pixel]
#   4 Y_IMAGE                Object position along y                                    [pixel]
#   5 X_WORLD                Barycenter position along world x axis                     [deg]
#   6 Y_WORLD                Barycenter position along world y axis                     [deg]
#   7 A_WORLD                Profile RMS along major axis (world units)                 [deg]
#   8 B_WORLD                Profile RMS along minor axis (world units)                 [deg]
#   9 THETA_WORLD            Position angle (CCW/world-x)                               [deg]
#  10 FWHM_WORLD             FWHM assuming a gaussian core                              [deg]
#  11 ELONGATION             A_IMAGE/B_IMAGE                                           
#  12 ELLIPTICITY            1 - B_IMAGE/A_IMAGE                                       
         1 -14.0280    239.2666      3.4914   3.6171751879e+01   2.5156879949e+01     1.877611    0.3847831  76.66  0.005710579    5.528    0.819
         2 -15.0062    223.8395     83.7295   5.7313531256e+01   1.7770022282e+01     2.593772     0.836109 -52.19  0.006212714    6.330    0.842
         3 -18.5537    242.7865     50.0509   4.6561245969e+01   1.8618187071e+01     7.642675      6.63833 -16.93   0.03241179    1.354    0.262
         4 -14.2344     60.7750    142.1118   1.1006541698e+02   3.8806612606e+01     1.766906     1.366187   6.72   0.00631554    1.823    0.451
         5 -15.5234    221.2876     24.0953   4.2595340186e+01   2.6986780358e+01     1.679305    0.9497041   8.11  0.005936156    4.632    0.784
         6 -10.7813    168.6344     25.4713   4.9726160344e+01   4.0001258715e+01    0.6984932    0.3840834  -1.52    0.0021309    3.086    0.676
         7 -13.8218      7.8954     12.8233   9.7260424792e+01   7.1959330144e+01     1.829475    0.8336233 -44.83   0.01066169    1.708    0.414
         8 -11.0572    138.3946      6.4448   4.8481718055e+01   4.9633367118e+01    0.3233916    0.2339741  -7.90  0.001134205    1.587    0.370
         9 -12.5794    134.1220     15.8643   5.2604731230e+01   4.9780158332e+01    0.7840434    0.4480884  -4.44  0.003200119    2.303    0.566
        10  -9.8148    153.8727     14.6596   4.8660058244e+01   4.4961054979e+01    0.4501942    0.2113964  35.22   0.00173481    2.822    0.646
        11 -12.6157    118.9023      8.9303   5.3149926969e+01   5.4134341235e+01    0.7147447    0.6434667   0.43  0.002908449    1.166    0.142
        12  -9.4170     89.0301     10.0294   6.1083739890e+01   6.0677943220e+01    0.2121862    0.1357468  19.71 0.0008899879    1.612    0.380
        13  -9.8875     92.9494      7.0054   5.8647915415e+01   6.0155872612e+01     0.250738    0.1727554 -15.75 0.0007886406    1.492    0.330
        14  -9.5630    158.9816      2.4454   4.3978451840e+01   4.4821440767e+01    0.2268715    0.1761452  19.12 0.0005741112    1.527    0.345
        15 -10.0921    181.2177    187.7053   8.9415641480e+01   7.9224460372e+00    0.2309561    0.2145359 -11.43 0.0004382911    1.107    0.097
        16 -11.2186    205.5892    184.5020   8.3883774944e+01   3.9538114706e+00    0.3996091    0.2396697  39.41  0.001484006    1.578    0.366
        17 -11.3661    246.1054    182.4183   7.6004550004e+01  -2.7562889357e+00    0.8052839    0.2430775  48.83  0.002618661    5.053    0.802
        18  -9.9957    112.8847    247.6549   1.1185566105e+02   9.1107340761e+00    0.1794292    0.1545523  81.35 0.0005510835    1.243    0.196
        19  -8.8320    225.3760    224.2230   8.7410591837e+01  -5.2709045994e+00    0.1473647     0.111211 -35.25 0.0003390367    1.571    0.363
        20  -9.4503    238.9818    212.8816   8.3008608847e+01  -5.8602578865e+00    0.2884982    0.1371611  31.19  0.001391673    1.941    0.485
        21 -10.8854    173.4373    149.6647   8.3269305166e+01   1.6755501547e+01    0.3218414    0.2525642  16.85  0.000800233    1.461    0.315
        22 -12.0930     48.1066    146.4679   1.1401500782e+02   3.9283266041e+01     0.366282    0.3154755  28.51 0.0008716418    1.414    0.293
        23  -9.3276    180.7214    210.9846   9.3646261630e+01   4.0301484139e+00    0.2707245    0.1531845  58.54  0.001172501    2.661    0.624
        24 -10.3209    198.3508    143.8340   7.6670277061e+01   1.2633157533e+01    0.3345409    0.2245533  56.17  0.001415313    1.726    0.421
        25 -10.2521    192.1544    144.0941   7.7996831043e+01   1.3891417946e+01    0.2469876    0.2134698  49.40 0.0002893306    1.215    0.177
        26 -11.3673    211.4704    179.5257   8.1752314955e+01   3.7037545095e+00    0.4216037    0.2231505 -47.75  0.001854614    2.305    0.566
        27 -11.2220    159.9512    143.1335   8.4842991790e+01   2.0962227084e+01    0.5000074     0.295705  57.97   0.00140971    2.049    0.512
        28 -12.1073    212.3976    137.2666   7.2399891552e+01   1.0901873100e+01    0.5676113    0.5063078  51.94  0.002026849    1.238    0.192
        29 -10.5631    155.0730    137.5434   8.4693554123e+01   2.3194489761e+01    0.3920822    0.2659109  83.92  0.001498076    2.570    0.611
        30 -12.2411    200.6916    174.9061   8.2934121888e+01   6.5045916389e+00    0.8307322    0.5498381  18.70  0.003966642    1.753    0.430
        31 -10.1304    166.8033    134.2005   8.1177472651e+01   2.1357137533e+01    0.2299095    0.2145573 -86.76 0.0006191928    1.186    0.157
        32  -9.7994    206.8827    133.4868   7.2568435411e+01   1.2753247654e+01    0.2233201    0.1475352  47.61  0.001027247    1.577    0.366
        33 -11.5829    160.4897    128.0648   8.1145209729e+01   2.4036016674e+01    0.4422458    0.3612615 -59.51   0.00196315    1.332    0.249
        34 -12.8793      4.1661    148.2699   1.2503247458e+02   4.2884784333e+01     2.470513    0.3957883 -78.03  0.007073091    6.192    0.839
        35 -10.7918    171.2387    126.3322   7.8257139541e+01   2.2000448935e+01    0.4532221    0.3585186  -2.59  0.002102813    1.569    0.363
        36  -9.3302    172.3773    121.0671   7.6683478540e+01   2.2820151525e+01    0.2714048    0.2149659  34.15 0.0005719266    1.327    0.247
        37  -8.7315     96.3342    126.2786   9.7330490580e+01   3.7345601280e+01     0.145247    0.1167659 -16.18 0.0004236762    1.609    0.378
        38 -11.0855    142.6285    122.7439   8.4146143783e+01   2.9100824401e+01    0.5860085    0.3757394  83.33  0.002015039    3.136    0.681
        39  -9.6705    174.1036    114.5169   7.4622541831e+01   2.3750656202e+01    0.3107857    0.2727167  45.16 0.0008648737    1.155    0.134
        40 -11.2513    168.9835    115.3683   7.5982535245e+01   2.4759456510e+01    0.4486114    0.4188105 -77.31  0.001173144    1.160    0.138
        41 -11.9130    163.8654    116.1204   7.7343635148e+01   2.5779527512e+01     0.680756     0.449092 -42.89  0.002348973    1.500    0.333
        42 -10.5139    223.2775    206.3327   8.4651281048e+01  -2.4862368143e+00    0.2832958    0.2172914  73.86  0.001445986    2.690    0.628
        43  -9.0449    148.3796    120.2704   8.2097684368e+01   2.8385134101e+01    0.2111025     0.147362 -53.68 0.0002070684    1.508    0.337
        44 -11.6152    197.3139    159.8032   8.0444131647e+01   9.8741597210e+00    0.8296763     0.508665 -74.33  0.002464803    5.425    0.816
        45  -9.1072    110.3936    109.7855   8.9444752201e+01   3.8665002309e+01    0.2179417    0.1380724 -39.14 0.0005301036    1.636    0.389
        46 -12.3408    191.6340    153.0038   8.0119254625e+01   1.2300373007e+01     1.028515    0.5580046 -57.59  0.003831118    2.820    0.645
        47 -10.0549    145.7846    105.4428   7.8834777076e+01   3.2147822092e+01       0.2946    0.2795002 -42.04 0.0007158208    1.041    0.040
        48 -10.7989    155.5146    101.6359   7.5420536798e+01   3.0700731965e+01    0.6280426    0.3448785  41.61    0.0024529    1.916    0.478
        49 -11.5025    197.1549     97.6382   6.5467009191e+01   2.1579730223e+01    0.4591562     0.409839 -79.99  0.002388169    1.239    0.193
        50 -10.9364    175.8195     92.8552   6.8428064925e+01   2.7587636146e+01     0.396256    0.2971226 -22.20 0.0002668389    1.488    0.328
        51  -9.2525    173.4824    101.4302   7.1283078054e+01   2.6496734371e+01     0.335995    0.1782016 -46.62 0.0009872766    1.933    0.483
        52 -12.1121    168.8935     96.3079   7.0878718494e+01   2.8594316424e+01    0.8828527    0.6933337  31.79  0.004149992    1.406    0.289
        53  -9.6883    249.2641    162.7623   7.1457586957e+01  -3.5307913548e-01    0.1849956    0.1376162   0.28 0.0006280008    1.337    0.252
        54  -8.8747    117.7938    160.5582   9.8622514865e+01   2.5501404217e+01    0.1956587    0.1310909  54.12 0.0002430615    1.524    0.344
        55  -9.3575    219.2922    148.9960   7.3776871379e+01   7.4215976896e+00    0.2260525     0.192765  52.08 0.0003974472    1.341    0.254
        56 -10.8670    142.5267     80.5202   7.2449364709e+01   3.7969435922e+01    0.3220866    0.3008512  -1.46  0.001121635    1.113    0.102
        57 -10.6857    140.2496     78.0215   7.2251508786e+01   3.8985249400e+01    0.2722218    0.2416155  -5.60 0.0005049935    1.216    0.177
        58 -10.1693    249.6141    157.9849   7.0394323447e+01   3.1922372819e-01    0.3104016    0.2024392   0.94  0.001555357    1.839    0.456
        59 -10.5951    125.5082     76.8406   7.5733525417e+01   4.2594354411e+01    0.3168949    0.1999528  31.78  0.001326745    1.844    0.458
        60 -10.5623    109.6648     75.1239   7.9685788051e+01   4.6332907228e+01    0.3163844    0.2380469  28.04 0.0005372098    1.442    0.307
        61 -11.5064    136.0122     70.1680   7.0852945505e+01   4.1453045524e+01    0.5452884    0.2216051 -39.23  0.001829717    2.434    0.589
        62 -12.5552    134.7468     61.6670   6.8409127935e+01   4.3266986059e+01    0.8927085    0.4566796 -30.88  0.003509993    2.085    0.520
        63 -11.5960    125.6073     66.9328   7.2516972980e+01   4.4450915228e+01    0.5979509    0.2592022 -34.01  0.002152716    2.432    0.589
        64  -9.6516    163.0851     66.8859   6.3559217680e+01   3.5430732762e+01    0.2553947    0.2117816 -35.61 0.0003875485    1.214    0.176
        65 -11.1114    139.8713     64.9628   6.8219639356e+01   4.1471117535e+01    0.3562693    0.2227045 -35.16  0.001048981    1.613    0.380
        66  -8.7030     72.6006     58.4942   8.6245136495e+01   5.6394797413e+01    0.1386495    0.1218542 -25.53 0.0001148445    1.024    0.024
        67 -11.4059    155.8085    154.1178   8.8234520955e+01   1.9507234303e+01     1.008552    0.6088511 -89.11  0.002756208    5.646    0.823
        68 -12.5535    124.9547     37.3354   6.2409752111e+01   4.9395494392e+01    0.5540249    0.4702434 -11.10  0.003014877    1.222    0.181
        69 -11.2184    147.8925    144.7296   8.8045143179e+01   2.3154610123e+01     0.461634    0.3234922  86.63  0.001334892    2.266    0.559
        70  -8.5821     66.2674    182.7588   1.1420920542e+02   2.8588700280e+01     0.125369   0.08404571  68.38 0.0001810739    1.428    0.300
        71 -10.8437    143.6564    144.4095   8.8994429851e+01   2.4099675032e+01    0.7846713    0.4145163 -70.57  0.002262482    4.500    0.778
        72 -10.1051    211.9293    201.3053   8.5852725698e+01   1.5230817331e-01    0.1864232    0.1515036  22.97 0.0004168993    1.079    0.073
        73 -11.5953    194.5192    198.0109   8.8629143304e+01   3.7190933935e+00    0.4062997    0.3826835 -82.32  0.001902949    1.412    0.292
        74 -11.5747    191.4814    192.2183   8.8165989711e+01   5.2361419479e+00    0.7862034    0.4176651 -62.54  0.002588636    4.960    0.798
        75 -10.4243    243.2148    199.5880   7.9825774786e+01  -4.7236729903e+00    0.2208931    0.1886344  -6.43 0.0003947665    1.138    0.121
        76 -11.2018    178.5437     24.1673   4.7840850009e+01   3.7615724137e+01    0.4837628     0.418596  86.73  0.002241665    1.098    0.089
        77 -10.5817    203.8752    152.4416   7.7510971695e+01   9.8979688663e+00    0.2890665    0.2820514  28.21 0.0008826915    1.124    0.111
        78 -10.8030    212.7129    196.7544   8.4858908499e+01   7.1730803397e-01    0.3063134    0.2580048 -69.25 0.0006303231    1.864    0.464
        79 -12.1367    213.7042    192.1884   8.3805708283e+01   1.2575466055e+00     0.493136    0.3380025  51.30  0.002309584    1.756    0.430
        80 -13.0885    216.8456    189.1265   8.2619981736e+01   1.1885377151e+00    0.8287079    0.5097141  53.76  0.003994497    2.154    0.536
        81 -11.0110    204.4268    189.8082   8.5140373582e+01   3.2881184782e+00     0.365534    0.2439699  58.91  0.001539935    2.129    0.530
        82 -10.3432    182.4966     23.4951   4.7086395562e+01   3.6684500817e+01    0.3435706    0.2718112  67.32  0.001712336    1.179    0.151
        83 -11.1244    133.8044    145.7094   9.1691788625e+01   2.5805975214e+01     1.288929     0.325941 -55.04  0.002972021    6.124    0.837
        84 -13.5407     20.9157    157.5197   1.2193502146e+02   3.9428391006e+01    0.8283077    0.6446184 -89.91  0.003619706    1.014    0.014
