#   1 NUMBER                 Running object number                                     
#   2 MAG_AUTO               Kron-like elliptical aperture magnitude                    [mag]
#   3 X_IMAGE                Object position along x                                    [pixel]
#   4 Y_IMAGE                Object position along y                                    [pixel]
#   5 X_WORLD                Barycenter position along world x axis                     [deg]
#   6 Y_WORLD                Barycenter position along world y axis                     [deg]
#   7 A_WORLD                Profile RMS along major axis (world units)                 [deg]
#   8 B_WORLD                Profile RMS along minor axis (world units)                 [deg]
#   9 THETA_WORLD            Position angle (CCW/world-x)                               [deg]
#  10 FWHM_WORLD             FWHM assuming a gaussian core                              [deg]
#  11 ELONGATION             A_IMAGE/B_IMAGE                                           
#  12 ELLIPTICITY            1 - B_IMAGE/A_IMAGE                                       
         1 -10.5505     16.1255     66.5236   2.9205073040e+02   6.9125911646e+00   0.07889947   0.01634886 -55.81  0.005041221    3.902    0.744
         2 -10.8420      4.1885      7.3352   2.9182361031e+02   7.6644825926e+00   0.06322621   0.02288323 -51.85  0.004274087    2.589    0.614
         3 -10.7098     37.2981      9.6614   2.9145409841e+02   7.4399932853e+00   0.04778006    0.0221582 -68.00  0.002555572    2.435    0.589
         4 -11.2639     24.2816     31.3373   2.9173898220e+02   7.2686159963e+00    0.1127926   0.02753865 -47.97  0.007041519    4.207    0.762
         5 -10.5872      5.6882     43.9713   2.9203250839e+02   7.2343230551e+00   0.05944784   0.03419072 -81.59  0.005246999    2.392    0.582
         6 -10.3496      9.8415     19.0280   2.9183031937e+02   7.4963544387e+00   0.07059325   0.03350911 -20.00  0.003854314    6.578    0.848
         7 -10.2005     45.9966     29.3945   2.9147532129e+02   7.1611477186e+00   0.02459948   0.01494512 -82.01  0.001103352    2.168    0.539
         8 -10.4586     50.4396     15.5246   2.9133805275e+02   7.2940031479e+00   0.06623295   0.02886104 -32.47  0.004423641    4.119    0.757
         9 -10.1907      7.2049     28.3289   2.9191834493e+02   7.4051597047e+00   0.02345797   0.01665409  53.61  0.001060773    1.570    0.363
        10 -10.2071     69.4650     40.6694   2.9127316986e+02   6.8910367751e+00   0.05938533   0.01929777 -61.16  0.002073572    3.004    0.667
        11 -10.5079     73.5510     17.4238   2.9108201953e+02   7.1337834231e+00   0.06994214   0.01379517 -55.72  0.004319748    4.037    0.752
        12  -9.2748     77.9799      4.0705   2.9094803329e+02   7.2606806765e+00   0.02841237   0.01254342 -51.08  0.002198407    2.178    0.541
        13  -9.2661    102.9031     21.0641   2.9076462448e+02   6.9159253167e+00   0.01775648   0.01171211 -70.68 0.0006489066    1.640    0.390
        14  -8.9427    104.1561     14.9807   2.9071243636e+02   6.9783094721e+00   0.03431868  0.009944235 -43.93  0.002098203    4.478    0.777
        15  -8.9783    112.1868     15.4891   2.9062260931e+02   6.9242545002e+00   0.01871374   0.01027748 -66.99  0.001229918    1.943    0.485
        16  -8.9794    113.9607     10.1191   2.9056879908e+02   6.9752974528e+00   0.01519609   0.01079686 -27.93 0.0004436831    1.625    0.385
        17  -9.4303     63.2145     21.6783   2.9122809883e+02   7.1468018415e+00   0.02534402   0.01575863 -83.26 0.0009102835    2.115    0.527
        18 -10.2997     64.2937     13.2173   2.9116323515e+02   7.2375832036e+00   0.02778777   0.01813493 -60.06  0.002878499    1.512    0.339
        19  -9.0528     96.1947     14.6611   2.9080264471e+02   7.0297604960e+00   0.04926743   0.01304539 -54.52  0.003268378    3.284    0.695
        20  -8.0712     97.5232      5.9980   2.9073359535e+02   7.1213236206e+00   0.01186353  0.008462308 -17.19 0.0003586571    1.718    0.418
        21  -8.4435     95.7488      2.9966   2.9073555056e+02   7.1664499206e+00   0.01953262   0.01246836 -28.32  0.001886353    1.934    0.483
        22  -8.7854    128.4094     25.0708   2.9049421066e+02   6.7167042583e+00   0.02203371    0.0106204 -63.83  0.001723875    2.132    0.531
        23  -9.8534    131.9858      6.1482   2.9033554489e+02   6.9126015084e+00   0.02126253   0.01812039 -15.77  0.001612593    1.271    0.213
        24  -8.1180    136.0515      1.6038   2.9026031625e+02   6.9403489694e+00   0.01600577   0.00828808  19.36  0.000870414    2.203    0.546
        25  -9.5984    119.1128     20.2196   2.9057174519e+02   6.8283033896e+00   0.03168779   0.01186714 -51.15  0.002470859    2.535    0.606
        26  -8.8225    125.1586     13.1684   2.9045807602e+02   6.8729940820e+00   0.01216503   0.01117951  72.19 0.0005207246    1.158    0.136
        27  -9.2223    126.6987      9.0447   2.9041469145e+02   6.9111107528e+00   0.01609818   0.01442492  -8.85  0.001702042    1.175    0.149
        28  -9.3089    124.0921      5.2663   2.9042144083e+02   6.9701767304e+00   0.02799719   0.01598935   7.72   0.00246407    2.381    0.580
        29  -9.4162    132.8157     16.2275   2.9038842143e+02   6.7918293207e+00   0.02274561   0.01198445 -43.04  0.002062845    2.030    0.507
        30  -9.5877     85.0643     12.9686   2.9092107115e+02   7.1159694627e+00   0.02169544   0.01442449  69.78  0.001444414    2.016    0.504
        31  -7.7003     80.6334     12.9428   2.9097223543e+02   7.1428310841e+00   0.01484601  0.008749174  74.43 0.0009727747    2.792    0.642
        32  -8.8073     71.6684      8.7952   2.9105041390e+02   7.2442203725e+00    0.0200165  0.009235158 -45.36  0.001703556    2.267    0.559
        33  -9.3741    110.3484      6.6799   2.9058930857e+02   7.0365003947e+00   0.02354686   0.01046936 -48.64  0.001865364    2.228    0.551
        34  -8.8931    115.1306      4.3185   2.9051930663e+02   7.0349050581e+00   0.01218086   0.01027624  86.63 0.0006326358    1.325    0.245
        35  -8.2082    101.8736      7.9573   2.9069535433e+02   7.0727041054e+00   0.01161459  0.009126676 -74.57 0.0007015967    1.361    0.265
        36  -8.5632    104.5508      2.1106   2.9062812396e+02   7.1237989264e+00   0.01987073    0.0131355 -21.67  0.001823173    1.936    0.484
        37  -8.5009     85.5141      5.5412   2.9086986131e+02   7.1986121547e+00   0.01450737  0.007430223 -48.54  0.001318448    1.935    0.483
        38  -7.4969    142.7958      5.0198   2.9020345807e+02   6.8605567433e+00   0.00889225  0.005242347 -62.01 0.0004338863    1.695    0.410
        39  -9.5347     63.8420      2.8807   2.9110448206e+02   7.3590619866e+00     0.019107    0.0130198  75.75  0.001495046    1.969    0.492
        40 -10.8362     19.0951      6.8625   2.9164782784e+02   7.5809340792e+00   0.06796718   0.03724951  55.51  0.004766801    2.385    0.581
        41  -8.3934     89.0162      2.6685   2.9081149926e+02   7.2106106187e+00   0.01142706  0.009052043 -77.49 0.0007031492    1.371    0.270
        42 -10.6157    123.4534     91.0022   2.9095957032e+02   5.9883432080e+00   0.06882801   0.02162803 -51.92  0.004982574    2.931    0.659
        43 -11.3034    199.2419    249.3908   2.9106189246e+02   3.7103907041e+00   0.05656376   0.01372782  31.94    0.0037901    3.609    0.723
        44 -10.5479    133.3844    109.4769   2.9095892998e+02   5.7161485213e+00   0.03789442   0.01753863 -62.78  0.002603169    2.183    0.542
        45 -10.2217    107.9880     99.3326   2.9118990410e+02   5.9852876620e+00   0.04870303   0.01936412  50.51  0.001949544    3.648    0.726
        46  -9.9626    108.5183    114.3823   2.9127671688e+02   5.8089016455e+00   0.02614711   0.01603412  77.24  0.001552869    2.523    0.604
        47  -9.2631    108.7856    106.1750   2.9122294448e+02   5.9017597280e+00   0.02370956   0.02134877 -61.51  0.002876965    1.108    0.097
        48 -11.0663    121.6359    111.0069   2.9110420050e+02   5.7690594103e+00   0.05074709   0.02945069 -63.94  0.002585146    1.753    0.429
        49  -8.8226    129.0229    124.0878   2.9109959848e+02   5.5741805529e+00   0.01056109  0.009447314 -54.46 0.0003083839    1.105    0.095
        50  -9.3434     41.0713    121.6314   2.9210164523e+02   6.1292492220e+00   0.02413519   0.01254553 -72.48  0.001848574    2.320    0.569
        51 -10.5015    242.6252    119.4989   2.8975960183e+02   4.9437377787e+00    0.0144196   0.01349686  -8.70  0.001775481    1.098    0.089
        52  -9.9041    140.6997    117.6815   2.9092507286e+02   5.5778085585e+00   0.03024803   0.01700191 -73.96  0.001287799    2.137    0.532
        53  -9.4928    127.6470    102.5285   2.9098232000e+02   5.8305475538e+00   0.01713079   0.01579202  38.90  0.001116442    1.095    0.087
        54 -10.1127     91.8120    112.9558   2.9146111733e+02   5.9254708977e+00   0.02666109   0.01795045  85.92  0.001669462    1.991    0.498
        55  -8.5982     92.1241    103.9275   2.9140177606e+02   6.0275186532e+00   0.02722144   0.01565261  -7.20  0.002237831    2.856    0.650
        56  -8.2806    152.3481    115.8210   2.9077896914e+02   5.5292516929e+00   0.01026591  0.008526202 -89.81 0.0006923131    1.347    0.257
        57 -10.1586     78.1571    113.1448   2.9162023600e+02   6.0050937213e+00   0.02488872   0.01564358  83.99  0.001736026    2.344    0.573
        58  -7.9294      1.3212    116.2156   2.9252836127e+02   6.4289083346e+00  0.009319501  0.006183374 -72.29 0.0008557505    1.652    0.395
        59  -7.2592    167.2948    114.6133   2.9059882432e+02   5.4533212860e+00  0.007076262  0.005011728  68.72 0.0007014707    1.771    0.435
        60 -10.5641     62.8245     95.7579   2.9169036691e+02   6.2970200086e+00   0.04985716   0.02735863  87.57  0.001519705    3.380    0.704
        61  -8.7945     64.3942     86.0565   2.9161231972e+02   6.3992800026e+00   0.03140002    0.0197971 -41.67  0.002713314    1.670    0.401
        62 -10.1292     65.7577    110.9915   2.9175040614e+02   6.1041123350e+00   0.03200202   0.02171317  69.67  0.001429618    1.930    0.482
        63  -9.2301     59.4487    109.9219   2.9181681204e+02   6.1541768936e+00   0.01688005   0.01321226  83.16  0.001234256    1.510    0.338
        64 -10.7737     44.4522    102.2730   2.9194320107e+02   6.3319191469e+00    0.0425979   0.02201884  65.39   0.00297954    3.644    0.726
        65  -9.2502     36.6080    111.9954   2.9209392333e+02   6.2668713171e+00   0.01981267    0.0120687  57.79  0.001258961    2.070    0.517
        66  -9.7352     14.1959    111.4367   2.9234990216e+02   6.4071360529e+00   0.02255323   0.01431837  76.43  0.001669592    2.301    0.565
        67  -8.7051     13.8903    105.2422   2.9231529062e+02   6.4802812081e+00   0.01485533  0.008109786 -33.17 0.0009266119    2.352    0.575
        68  -8.2072    158.7635    112.0275   2.9068139612e+02   5.5343504997e+00   0.01004988  0.008711495  78.73 0.0005622829    1.274    0.215
        69  -9.4462     30.4730    108.7403   2.9214487438e+02   6.3409996439e+00    0.0201425   0.01364096 -46.39  0.002113122    1.480    0.324
        70  -8.9596    149.5996    110.1461   2.9077565435e+02   5.6110618442e+00   0.01128867  0.008857856  54.90 0.0006394509    1.386    0.278
        71  -9.0573     40.0263    106.9071   2.9202299825e+02   6.3050255074e+00   0.01169701  0.009392025 -64.13 0.0006544748    1.252    0.202
        72 -10.1065     20.1004     84.1868   2.9211362587e+02   6.6855926654e+00   0.04467985    0.0129798 -51.92   0.00301602    3.130    0.681
        73 -10.3056     25.5797     77.9588   2.9201176054e+02   6.7245516008e+00    0.0334627   0.01978363  78.32  0.002075618    2.800    0.643
        74 -10.0247     34.4928     90.8308   2.9198793763e+02   6.5231558174e+00   0.02879815   0.01618284 -87.61  0.001843763    2.850    0.649
        75 -10.1590     37.3670     80.8445   2.9189305818e+02   6.6209164084e+00   0.04569108   0.02392733  -7.88  0.003170987    4.084    0.755
        76  -8.1570     78.1411    105.5874   2.9157378822e+02   6.0921840263e+00   0.01712068  0.008323585 -31.71  0.001296535    3.130    0.680
        77  -9.5519    149.2788    103.1350   2.9073601967e+02   5.6936555792e+00   0.01948187   0.01320759 -84.54 0.0008896256    1.833    0.455
        78  -8.7767    150.0023     96.9943   2.9068968818e+02   5.7599535407e+00   0.01838707   0.00978993 -47.21  0.001392256    1.889    0.471
        79 -10.7962     20.3066    100.0838   2.9220922530e+02   6.5013713743e+00    0.0583852   0.03327192  84.80  0.004358382    3.065    0.674
        80  -9.4369      6.1213    103.6370   2.9239535347e+02   6.5451138687e+00   0.02135131   0.01429841  66.26  0.001729513    1.930    0.482
        81  -8.3985    165.9472    103.9037   2.9054816834e+02   5.5846291146e+00    0.0110757   0.00944908 -68.65 0.0004139786    1.197    0.164
        82  -8.0870     73.5661    102.9332   2.9161034209e+02   6.1501312447e+00  0.009941202  0.006456417 -62.61 0.0003696755    1.542    0.351
        83  -9.7252    245.3972    100.8916   2.8961242708e+02   5.1409306505e+00   0.01797478    0.0128749  86.68  0.001032747    1.760    0.432
        84  -9.2905    240.6355     96.5297   2.8964032825e+02   5.2197696288e+00   0.02147015   0.01033239  22.54  0.001213909    2.270    0.559
        85  -8.1643    158.8949    101.2867   2.9061346630e+02   5.6571293745e+00    0.0106776  0.008944545 -85.56 0.0004281064    1.312    0.238
        86  -9.4323     81.3423    100.1737   2.9150333496e+02   6.1353228581e+00   0.01938996   0.01263239 -86.32  0.000576782    2.005    0.501
        87  -7.6173     82.6352     93.6901   2.9144834663e+02   6.2021978476e+00   0.01428727  0.007618807 -20.93  0.001069559    3.334    0.700
        88  -8.1816    192.2975    100.9960   2.9022583029e+02   5.4595680872e+00  0.009165915  0.008563365 -51.07 0.0003820809    1.059    0.056
        89  -9.4558     94.2275     97.2410   2.9133615469e+02   6.0918655729e+00    0.0155206   0.01197369 -85.96 0.0007049361    1.492    0.330
        90  -8.6420     95.6286     91.0185   2.9128151192e+02   6.1550744949e+00   0.01856891    0.0112009 -23.12  0.001582651    2.303    0.566
        91  -9.1391    164.6639     94.3837   2.9050410939e+02   5.7018524340e+00   0.01706738   0.01144957 -70.01   0.00175542    1.594    0.373
        92  -9.3214    138.6579     92.5399   2.9079327519e+02   5.8793537762e+00   0.01727523   0.01559765 -51.37  0.001200735    1.094    0.086
        93  -8.1582    139.2077     88.1730   2.9075991508e+02   5.9262871370e+00   0.01549723  0.008993046 -27.51  0.001363204    2.346    0.574
        94  -9.2698    140.4549     82.1179   2.9070804531e+02   5.9884457099e+00   0.03002283   0.01279646 -57.38  0.001779668    2.221    0.550
        95  -9.2362    140.0430     75.4964   2.9067184527e+02   6.0670799341e+00   0.02942523    0.0118578 -53.32  0.001959501    2.329    0.571
        96  -9.0241     53.7443    111.2311   2.9189089455e+02   6.1732278738e+00   0.02195011   0.01616238 -80.88  0.002078426    1.552    0.356
        97  -8.7092    150.3546     89.0792   2.9063666380e+02   5.8488866364e+00   0.01056901  0.008918362  61.26 0.0008262269    1.290    0.225
        98 -10.1523      4.2191     89.5833   2.9233081186e+02   6.7182483342e+00   0.03246843   0.01814092 -84.57   0.00203354    2.709    0.631
        99  -9.5623      6.1239     78.6892   2.9224161182e+02   6.8322777813e+00   0.03612885   0.01675664 -30.78  0.002550053    3.703    0.730
       100  -8.4809    157.3027     91.5185   2.9057144862e+02   5.7790647556e+00   0.01197272  0.008752154 -65.28 0.0006757175    1.391    0.281
       101  -9.2934    110.8032     89.7810   2.9109832618e+02   6.0783097703e+00   0.02982907    0.0160909  -0.75  0.002292382    3.257    0.693
       102 -10.5296     48.0608     82.6958   2.9178066055e+02   6.5356772974e+00   0.05365983    0.0224148 -59.20  0.002305754    2.293    0.564
       103 -10.6492     55.1970     71.0318   2.9162602954e+02   6.6272096699e+00   0.04069497    0.0174898  48.49  0.001362315    2.890    0.654
       104  -9.1481     54.5306     63.1774   2.9158523743e+02   6.7215625051e+00   0.03044065   0.01385993  27.13  0.002625016    2.215    0.549
       105 -10.1532     62.9691     60.8290   2.9147301307e+02   6.6980751963e+00   0.04091381   0.01379367  25.26  0.002957482    3.192    0.687
       106 -10.0761     85.2340     86.5942   2.9137445274e+02   6.2682853212e+00   0.02207837   0.01531834  73.06 0.0009027557    1.879    0.468
       107  -9.4688     87.4873     78.7106   2.9129967429e+02   6.3454944726e+00   0.02489162   0.01598386  -1.69  0.001381973    2.092    0.522
       108  -9.9622     81.6436     72.5062   2.9132896948e+02   6.4518957290e+00   0.02185113   0.01495434  79.48 0.0009489482    1.956    0.489
       109  -9.0917     83.3043     64.7459   2.9126178785e+02   6.5312188977e+00   0.02660133   0.01432266 -28.25   0.00219205    2.719    0.632
       110  -8.3964    163.5169     87.3618   2.9047391966e+02   5.7895133938e+00   0.01179089  0.009495274  82.51 0.0008217957    1.440    0.305
       111  -7.9934    188.7968    106.0654   2.9029762030e+02   5.4223314941e+00  0.009987285  0.008689371  60.70 0.0005168689    1.233    0.189
       112  -7.3206    116.3056     85.2665   2.9100677914e+02   6.0972342198e+00    0.0066466  0.004992845 -23.11 0.0002826053    1.531    0.347
       113 -10.2555    103.8206     82.6686   2.9113514381e+02   6.2020280736e+00   0.02270283   0.01460212 -78.97 0.0008331101    1.880    0.468
       114  -9.5051    104.8405     71.8978   2.9105676202e+02   6.3198208226e+00   0.03428837    0.0137528 -46.30  0.002333138    2.599    0.615
       115  -8.9230    157.7731     83.7256   2.9051779875e+02   5.8658695438e+00   0.01190927   0.01063074 -77.54 0.0005910944    1.169    0.144
       116  -9.0292     74.0885     79.1786   2.9145763873e+02   6.4203840160e+00   0.03114357   0.01372745 -65.45  0.001535162    2.426    0.588
       117  -9.0702    149.9426     79.7719   2.9058384626e+02   5.9584148326e+00   0.02445362  0.008917662 -58.92  0.001423882    2.591    0.614
       118  -8.8911    118.9009     80.5641   2.9094768861e+02   6.1357556304e+00   0.01385615   0.01171947  83.22 0.0005764881    1.324    0.245
       119  -7.6361    119.8567     76.1971   2.9090962898e+02   6.1802538566e+00   0.01132379  0.008718277 -37.79 0.0004417729    1.355    0.262
       120  -8.0963     68.9033     79.2779   2.9151827211e+02   6.4502910180e+00   0.01817941  0.005684442 -52.91  0.001336636    2.907    0.656
       121  -7.9208    212.7651     79.2400   2.8985482365e+02   5.5864616199e+00  0.008943579   0.00743177 -25.21 0.0004281283    1.296    0.229
       122  -8.2623    184.2117     78.3863   2.9017926166e+02   5.7682229900e+00   0.01200723  0.009142613 -58.52 0.0006308174    1.295    0.228
       123  -8.4440    166.1985     78.6736   2.9038916297e+02   5.8733026811e+00   0.01107728  0.008863568 -75.63 0.0005287197    1.337    0.252
       124  -8.8576    157.2588     76.1917   2.9047712084e+02   5.9556059383e+00   0.02504602   0.01283894 -76.54  0.001447287    2.668    0.625
       125  -8.4937    156.6356     70.1022   2.9044663281e+02   6.0293780092e+00   0.01753409  0.009698168 -61.43  0.001660996    1.795    0.443
       126  -8.6660    170.3656     83.0402   2.9036803791e+02   5.7980236759e+00   0.01646733  0.007828309 -61.67  0.001292779    2.092    0.522
       127  -9.3474    127.3279     75.2093   2.9081710667e+02   6.1467592144e+00   0.01747708   0.01225802  83.03 0.0007646764    1.853    0.460
       128  -8.5797    128.8862     69.4350   2.9076336378e+02   6.2038147549e+00   0.02346774   0.01271283 -15.86  0.001755522    3.453    0.710
       129  -8.5797    130.4539     64.9311   2.9071736428e+02   6.2461948298e+00   0.01689845  0.009022653 -60.91  0.001105954    1.850    0.459
       130  -9.0748     40.9097     20.8007   2.9148113264e+02   7.2903668593e+00    0.0146879  0.009167518 -64.54 0.0003868253    1.634    0.388
       131  -9.4099    165.5751    249.8402   2.9145281975e+02   3.9072171853e+00   0.01147174  0.007906619  34.22  0.001208588    1.437    0.304
       132 -10.4121    156.9840    247.9596   2.9154032861e+02   3.9803834065e+00   0.01967684   0.01709039 -66.35  0.002339872    1.164    0.141
       133 -10.8737     21.9769     53.7735   2.9190425554e+02   7.0243439114e+00   0.04629311    0.0250131  85.76  0.002770275    3.709    0.730
       134 -10.3352    131.4287    119.4703   2.9104327316e+02   5.6128838061e+00   0.03850324   0.01912052  54.26  0.002000892    2.757    0.637
       135  -9.2351     67.0892    245.9256   2.9256518324e+02   4.5420449558e+00   0.01149734  0.009672278 -51.27 0.0003404693    1.172    0.147
       136  -7.8825      2.5098    248.5221   2.9332669273e+02   4.8976025382e+00     0.014528  0.006432234 -82.39 0.0008106026    5.800    0.828
       137  -9.9272     14.6758     44.4405   2.9193124111e+02   7.1752912733e+00   0.02715422   0.01717009 -41.39  0.001302172    1.668    0.400
       138 -10.6922    179.1574    247.5650   2.9128219311e+02   3.8519311527e+00   0.02599774   0.01876043 -16.70  0.002713085    1.685    0.407
       139  -9.1945    176.1716    241.8744   2.9128158504e+02   3.9353417942e+00   0.01243241  0.009073675 -52.07  0.001349782    1.344    0.256
       140  -7.1082     91.7352    241.6626   2.9225450618e+02   4.4437492690e+00  0.006891428   0.00484235 -32.71 0.0006974636    1.590    0.371
       141  -9.6345    187.8602    233.1419   2.9109301387e+02   3.9656994983e+00   0.01958889   0.01327831 -73.29  0.002015053    1.628    0.386
       142  -9.0094    114.9708     72.8557   2.9094548442e+02   6.2480167507e+00   0.01931613   0.01257459 -74.31 0.0006747668    1.740    0.425
       143  -7.6577    116.4887     68.5408   2.9090123822e+02   6.2885369245e+00  0.009333225  0.006554283   7.90 0.0008665351    1.651    0.394
       144  -8.6133    169.6978     71.6292   2.9030511664e+02   5.9332547365e+00   0.01731725  0.009034729 -62.02  0.001589558    1.915    0.478
       145  -9.3575    147.0520     69.3855   2.9055299011e+02   6.0952358991e+00   0.01885512    0.0124812  85.91  0.001117095    2.067    0.516
       146  -7.9170    146.9533     64.0096   2.9052085603e+02   6.1576470744e+00   0.01065361  0.009032763 -25.19  0.001233905    1.257    0.204
       147  -9.7118     94.7643     68.4591   2.9115210151e+02   6.4198091513e+00   0.01870976   0.01298849 -82.36 0.0008416897    1.726    0.420
       148  -9.2047     96.6287     59.1438   2.9107292407e+02   6.5157756254e+00   0.04488475   0.02198571 -52.31  0.003887125    1.959    0.490
       149 -10.5734     32.1336     64.1982   2.9185094100e+02   6.8437395541e+00   0.04956255   0.02303739 -34.12  0.002326442    3.158    0.683
       150  -9.5317    109.6826     64.0314   2.9095208963e+02   6.3812501712e+00   0.02597331   0.01317866 -71.66  0.002225466    2.367    0.577
       151  -8.8561    110.5293     58.2694   2.9090664975e+02   6.4424357965e+00   0.01831534   0.01308539 -34.96  0.001156501    1.523    0.343
       152  -7.8356     23.0886     69.2523   2.9198690349e+02   6.8396187175e+00  0.008870685  0.008539057  21.87 0.0003706439    1.043    0.042
       153  -9.1399    121.2911     66.1385   2.9083082208e+02   6.2873369932e+00   0.01811132   0.01290352  82.22  0.000655126    1.800    0.444
       154  -8.1555    122.3090     61.3488   2.9078941308e+02   6.3363077571e+00   0.01239402  0.007574446 -47.03 0.0007746119    1.640    0.390
       155  -9.3079    139.0027     57.0127   2.9056948214e+02   6.2858847244e+00   0.02610932   0.01129952 -67.07  0.001801232    2.598    0.615
       156  -9.0650    141.7569     48.7063   2.9048619881e+02   6.3648271738e+00   0.01953325  0.009550968 -52.90 0.0008919992    1.958    0.489
       157  -8.8686    138.0336     66.2675   2.9063797391e+02   6.1852912416e+00    0.0145116   0.01047216 -81.31 0.0005557656    1.609    0.378
       158  -7.8508    138.4728     62.0294   2.9060666452e+02   6.2313867539e+00   0.01146798  0.009015892 -22.73  0.001266663    1.424    0.298
       159  -8.2657    239.9680     71.1736   2.8949092127e+02   5.5151836167e+00   0.01139977  0.007513782 -13.85  0.001082325    2.039    0.510
       160  -8.4896    157.2793     63.1566   2.9039619255e+02   6.1053679987e+00   0.01307469   0.01214908 -73.37  0.001318035    1.100    0.091
       161  -8.7760     79.8520     46.1815   2.9118697428e+02   6.7654234770e+00   0.01365547  0.009067179 -52.03 0.0007951347    1.471    0.320
       162  -9.6857     73.1636     59.5099   2.9134682115e+02   6.6522046437e+00   0.01924975   0.01227472 -80.93 0.0007306202    1.957    0.489
       163  -9.6480     74.7953     51.0474   2.9127561521e+02   6.7397634574e+00   0.03769622   0.01810984 -28.87  0.002696889    3.643    0.725
       164  -8.7909    195.0347     58.0790   2.8992845644e+02   5.9364914443e+00   0.01055883  0.009141497 -40.21  0.001242916    1.165    0.142
       165  -8.7058    146.4983     59.0168   2.9049520866e+02   6.2177888967e+00   0.01321838   0.01050169 -71.37 0.0007859077    1.317    0.240
       166  -8.6948    147.6127     54.5802   2.9045485258e+02   6.2620967860e+00   0.02151171  0.008091168 -57.09  0.001720929    2.478    0.596
       167  -8.4769    130.0526     57.8822   2.9067838367e+02   6.3296634466e+00   0.01318486   0.00978713 -81.33 0.0005038153    1.541    0.351
       168  -8.4157    130.6375     53.6853   2.9064564079e+02   6.3744063092e+00   0.01582098  0.009437334  -1.69  0.001377025    2.478    0.596
       169  -8.6249     87.7333     58.5751   2.9117236983e+02   6.5756521698e+00   0.01229254   0.01039484  82.34  0.000683282    1.326    0.246
       170  -8.1983      9.9186     59.5020   2.9207932337e+02   7.0304257040e+00   0.01000621  0.006548934  25.59 0.0005591366    1.550    0.355
       171  -9.4109    118.3793     55.0885   2.9079613792e+02   6.4318929393e+00   0.02413821   0.01484189 -70.61  0.001334364    1.787    0.441
       172  -9.0609    121.0616     46.8419   2.9071406255e+02   6.5106054836e+00   0.01601062  0.009420826 -61.92 0.0005336993    1.696    0.410
       173  -7.9942    121.8492     41.7680   2.9067353737e+02   6.5642066633e+00   0.01662424  0.009072083 -28.66  0.001386425    2.615    0.618
       174  -9.2262    162.7459     54.0097   2.9027635363e+02   6.1776405777e+00   0.02325981  0.008494399 -53.24  0.001838277    2.541    0.606
       175 -10.0021     49.8563     53.5080   2.9157964203e+02   6.8607588239e+00   0.03339458   0.01799421 -71.65  0.002286227    2.166    0.538
       176  -9.5863     56.1739     43.3455   2.9144366128e+02   6.9398386709e+00   0.03706689   0.01866887 -21.66  0.002544233    4.093    0.756
       177  -9.8757     43.7867     53.1370   2.9164765452e+02   6.9013289579e+00   0.02000376   0.01679674  81.42  0.001289668    1.343    0.255
       178  -8.2388    152.8977     53.9255   2.9038968853e+02   6.2378441931e+00   0.01094311  0.007701398  61.75  0.001027991    1.706    0.414
       179  -9.2839    105.2180     51.2319   2.9092457342e+02   6.5552370634e+00   0.03065778   0.01257353 -60.69  0.002526098    2.382    0.580
       180 -10.4212     85.5988     48.7348   2.9113622767e+02   6.7016170912e+00   0.03061144   0.01919246  74.33  0.001701297    2.361    0.576
       181 -10.4902     89.3794     38.2422   2.9102754529e+02   6.7995991331e+00   0.04230454    0.0209012   9.68  0.003254837    3.128    0.680
       182  -8.6405    157.5487     49.3086   2.9030731822e+02   6.2629427291e+00   0.01174698  0.006670902 -69.13 0.0007382582    1.932    0.482
       183  -9.5552    133.9174     30.9974   2.9046719771e+02   6.6154944594e+00    0.0123313   0.01149205 -13.70  0.001512149    1.103    0.093
       184  -9.6314    130.5975     46.0603   2.9059889687e+02   6.4623104996e+00   0.03900986    0.0100419 -53.67  0.002087308    3.375    0.704
       185  -8.5893    132.9921     36.2886   2.9051067951e+02   6.5602449224e+00   0.01657347  0.009767231 -66.10 0.0005181145    1.770    0.435
       186  -8.1504    136.1157     26.6918   2.9041508686e+02   6.6517586744e+00   0.01435164  0.008738928 -68.91 0.0009337341    1.769    0.435
       187  -9.0411    139.3344     22.5541   2.9035220840e+02   6.6799517502e+00   0.01764311   0.01199513  30.06   0.00108059    1.462    0.316
       188  -9.0745    149.8894     47.8928   2.9038711141e+02   6.3252835095e+00   0.02020182   0.01038863 -70.48   0.00148121    2.259    0.557
       189  -9.7328    152.9931     40.5993   2.9030604027e+02   6.3904480558e+00   0.01966456   0.01674773 -38.61  0.001476449    1.194    0.162
       190  -8.5758    153.3088     34.9760   2.9026754699e+02   6.4531731675e+00   0.01243184  0.009518711 -87.91   0.00078883    1.527    0.345
       191  -8.4957    111.8524     46.9325   2.9082118801e+02   6.5648565546e+00    0.0124696  0.009140077 -79.74 0.0005285784    1.552    0.356
       192  -8.7471    113.4584     42.0292   2.9077225324e+02   6.6115883180e+00   0.02598617  0.009221924 -43.97  0.001853572    3.273    0.694
       193 -10.0967     37.9165     42.1964   2.9164807088e+02   7.0622619920e+00   0.02738091   0.01702775  82.02  0.001922372    2.429    0.588
       194 -10.1672     35.6970     37.9610   2.9164761828e+02   7.1242373595e+00   0.03084431   0.01890238 -18.69 0.0004367916    2.323    0.569
       195  -7.6992    162.4061     46.2241   2.9023205196e+02   6.2691729528e+00  0.009113522  0.006424141 -79.04 0.0005395215    1.636    0.389
       196  -8.0180      1.8729    234.9297   2.9325082518e+02   5.0580085186e+00   0.01006423   0.00847245 -25.68 0.0003409804    1.269    0.212
       197  -9.9738     76.1973     31.8135   2.9114041836e+02   6.9525253142e+00   0.02554297   0.01314807  49.66  0.001218643    2.296    0.564
       198  -7.3645    133.7757    232.0036   2.9170990892e+02   4.3032156421e+00  0.008658254  0.005415085 -61.72 0.0004509734    1.591    0.372
       199  -7.1476    139.0000    226.9530   2.9161854052e+02   4.3300534152e+00   0.01114207  0.003745398 -61.87 0.0008047117    2.958    0.662
       200  -9.8191     79.2384     23.8807   2.9105610609e+02   7.0254883882e+00   0.02884587   0.01735063  -9.02  0.001904781    2.529    0.605
       201  -8.9967     84.6982     21.9804   2.9098110780e+02   7.0145993729e+00   0.01392802   0.01129302 -57.46 0.0007432203    1.217    0.178
       202  -9.7319    250.0862     43.5860   2.8920313474e+02   5.7710160774e+00   0.01190306  0.009835515 -50.17 0.0005010181    1.195    0.163
       203  -9.0708    104.7991     41.0843   2.9086662562e+02   6.6744268647e+00   0.01817087   0.01112099 -73.58  0.001101929    1.878    0.467
       204  -8.1404    106.3378     36.3059   2.9081923759e+02   6.7201259163e+00   0.01380205  0.009715289 -31.07  0.001434802    1.607    0.378
       205  -9.0399     53.0099     39.1986   2.9145467856e+02   7.0064603673e+00   0.02825944  0.008649675 -49.82  0.002026807    3.127    0.680
       206  -9.2652    144.5705     37.0858   2.9038168024e+02   6.4814804808e+00   0.02087284   0.01280534  82.39  0.001518294    2.520    0.603
       207  -7.8841    160.2981     38.9261   2.9021120556e+02   6.3657300758e+00   0.01369287  0.006305207 -70.04  0.001097934    2.616    0.618
       208  -9.5703    101.0290     31.9237   2.9085356338e+02   6.8023576901e+00   0.02140172    0.0106033 -68.28 0.0008271516    2.255    0.556
       209  -9.1162    109.5499     22.1896   2.9069464355e+02   6.8630928952e+00   0.02520634   0.01403621   8.07  0.001911248    2.488    0.598
       210  -8.3904     44.8536    224.6451   2.9269134967e+02   4.9200578667e+00   0.01097768  0.008471882 -45.63 0.0006802696    1.297    0.229
       211  -7.3847      2.4814    217.4534   2.9313672289e+02   5.2557480311e+00  0.006494363  0.006470551 -22.55 4.371371e-05    1.009    0.009
       212 -10.0013      9.9150    207.5156   2.9298990043e+02   5.3259332567e+00   0.03472308   0.01594557  19.24  0.002834393    2.601    0.616
       213  -7.4814     63.5746    201.4348   2.9233253525e+02   5.0755649309e+00   0.00650925  0.006369394 -33.62 5.435695e-05    1.014    0.014
       214  -8.6479    118.9865     34.3999   2.9066104036e+02   6.6660953766e+00   0.01592585  0.009137494 -56.18    0.0011441    1.684    0.406
       215  -9.5130     60.1071     33.7610   2.9133883934e+02   7.0265059504e+00   0.02178002   0.01386874 -70.72  0.001460599    1.712    0.416
       216  -8.6575     63.2531     26.5677   2.9125790173e+02   7.0903669851e+00   0.02035639   0.01143499  22.17  0.001388143    1.894    0.472
       217 -10.3481    188.4238    192.5535   2.9083627385e+02   4.4294447418e+00   0.02923562   0.01609599  50.99  0.002644996    2.145    0.534
       218  -7.5236    217.9851    188.5205   2.9047043169e+02   4.2981905432e+00  0.008947676  0.005658273 -10.77 0.0004309523    2.242    0.554
       219  -8.8164    139.4316     39.7480   2.9045761225e+02   6.4817784496e+00   0.01984097   0.01126863 -71.62  0.001523436    2.017    0.504
       220  -9.1476    110.2483     33.0170   2.9075361068e+02   6.7344592944e+00    0.0181313   0.01275877 -89.06  0.001169319    1.779    0.438
       221  -8.3068    110.3772     26.8222   2.9071375852e+02   6.8048863148e+00    0.0140476   0.01040593 -35.57  0.001148263    1.444    0.307
       222  -8.5114    162.5929     73.0960   2.9039630745e+02   5.9591269678e+00   0.01333727  0.009364324  59.07  0.000753847    1.673    0.402
       223  -7.8242    250.3979     32.3529   2.8912984152e+02   5.8981073364e+00   0.01036637  0.007498035 -26.31 0.0006356869    1.602    0.376
       224  -7.4273    190.7894     31.6274   2.8981353105e+02   6.2659937455e+00  0.006829108   0.00460285 -39.43 0.0004981143    1.578    0.366
       225  -9.9007    152.6272     28.0829   2.9023271169e+02   6.5364799288e+00   0.02392686   0.01580179 -23.84  0.002347025    1.908    0.476
       226  -7.3648      2.3281    183.3063   2.9292905474e+02   5.6501017606e+00  0.006983165   0.00495429 -25.81 0.0006827966    1.654    0.395
       227  -9.1330     91.3203     26.1517   2.9093024114e+02   6.9269464835e+00   0.01977152   0.01255741  86.39   0.00110625    2.261    0.558
       228  -8.5267     92.2411     20.9262   2.9088722646e+02   6.9814810721e+00   0.01711131  0.009639819 -36.89  0.001386214    2.075    0.518
       229  -7.8109    187.8540    177.1647   2.9074788200e+02   4.6099707175e+00   0.01010583  0.008673755  64.81 0.0004669951    1.271    0.213
       230  -7.0004     62.4963    160.5215   2.9209333182e+02   5.5532828807e+00  0.006547301  0.006453844 -30.07 0.0008102863    1.005    0.005
       231  -9.2245    144.1096     24.8417   2.9031114231e+02   6.6249530326e+00     0.018292  0.009350789 -61.26  0.001061813    1.938    0.484
       232  -8.2368    238.7425    152.0157   2.9000554034e+02   4.5932209676e+00  0.009505005   0.00899813 -57.61  0.001169132    1.050    0.048
       233  -7.7881     15.2801    152.5412   2.9259028037e+02   5.9272763198e+00  0.008883067  0.006484429   7.96 0.0009317813    1.553    0.356
       234  -8.5639    133.5010    145.9279   2.9118267700e+02   5.2959143804e+00   0.02249561  0.007174111 -66.00   0.00149636    3.738    0.732
       235  -9.6829     66.9089    144.5514   2.9194396043e+02   5.7108100780e+00   0.02489467   0.01632886  60.67  0.002447826    1.895    0.472
       236  -9.1220    235.3392    146.1570   2.9000855087e+02   4.6810874732e+00   0.02016178  0.009651484  24.33  0.001749354    2.204    0.546
       237  -7.5580    201.2672    140.9284   2.9036926353e+02   4.9462768687e+00  0.008267368   0.00579898 -64.84 0.0004032361    1.449    0.310
       238  -8.2433    112.0941    133.6611   2.9135437523e+02   5.5655412792e+00   0.01371181   0.00975177  73.50  0.001027778    1.793    0.442
       239  -7.6184    151.2961     20.6629   2.9020211339e+02   6.6297366515e+00  0.006888613  0.005040253  66.45 0.0007030396    1.652    0.395
       240  -7.5048    155.4617     19.4438   2.9014637536e+02   6.6186783556e+00  0.006486691  0.006454329 -16.97 7.403664e-05    1.008    0.008
       241  -8.5065    135.9819    131.3569   2.9106406144e+02   5.4487471770e+00   0.02155219  0.006507121 -59.40  0.001546631    3.084    0.676
       242  -7.2112     87.0305    134.0000   2.9164624167e+02   5.7118497930e+00   0.01099274  0.003766036  27.43 0.0008014461    2.936    0.659
       243  -9.9933     58.0882    124.5030   2.9192244947e+02   5.9944404581e+00   0.03399348   0.01904915  74.94  0.002171296    3.289    0.696
       244  -9.4724      6.4556     32.7111   2.9195409403e+02   7.3592411269e+00    0.0133036   0.01150628 -40.21 0.0007226035    1.164    0.141
       245  -7.8155    141.5456     12.5050   2.9026433465e+02   6.7821018204e+00  0.006562087  0.006410511 -33.45 2.950716e-05    1.016    0.016
       246  -9.7124     67.3289    129.1025   2.9184390287e+02   5.8861936282e+00   0.02295364   0.01789898 -32.39  0.002564118    1.375    0.273
       247  -9.8787     71.1282    125.8714   2.9178003679e+02   5.9006581976e+00   0.02802549   0.01831193  83.03  0.001973885    2.147    0.534
       248  -9.5480     98.5769    128.8017   2.9148066615e+02   5.7025177360e+00   0.02710781   0.01389784  58.47  0.002148381    2.952    0.661
       249  -9.7890    117.6890    126.1538   2.9124336368e+02   5.6184055946e+00   0.03082197   0.01623931  63.07  0.002385986    3.178    0.685
       250  -7.7886    160.9956    128.8095   2.9075933102e+02   5.3278372901e+00   0.01007592  0.007577568  82.11  0.001062174    1.625    0.385
       251  -8.0020    196.9321    128.3286   2.9034139895e+02   5.1173009881e+00  0.008992758  0.008154652  18.78 0.0003358508    1.117    0.105
       252  -9.4304     27.4564    123.0630   2.9226801487e+02   6.1941007885e+00   0.02896317   0.01596499  64.42  0.002353106    2.894    0.654
       253  -9.0729    130.3748     96.9409   2.9091624711e+02   5.8784632679e+00   0.02021331   0.01164819   5.20  0.001760201    2.442    0.590
       254  -9.8466    139.5153    103.2472   2.9084956028e+02   5.7510148180e+00   0.03402286    0.0148953 -53.97  0.001267028    2.157    0.536
