#   1 NUMBER                 Running object number                                     
#   2 MAG_AUTO               Kron-like elliptical aperture magnitude                    [mag]
#   3 X_IMAGE                Object position along x                                    [pixel]
#   4 Y_IMAGE                Object position along y                                    [pixel]
#   5 X_WORLD                Barycenter position along world x axis                     [deg]
#   6 Y_WORLD                Barycenter position along world y axis                     [deg]
#   7 A_WORLD                Profile RMS along major axis (world units)                 [deg]
#   8 B_WORLD                Profile RMS along minor axis (world units)                 [deg]
#   9 THETA_WORLD            Position angle (CCW/world-x)                               [deg]
#  10 FWHM_WORLD             FWHM assuming a gaussian core                              [deg]
#  11 ELONGATION             A_IMAGE/B_IMAGE                                           
#  12 ELLIPTICITY            1 - B_IMAGE/A_IMAGE                                       
         1 -14.4548    215.6070      5.6439   5.0273371141e+01   3.0283324419e+01     2.258827     1.650954  64.13  0.007736203    1.586    0.370
         2 -10.0300     36.3309     34.3654   1.0156164197e+02   6.9210150261e+01    0.1471322   0.09870417 -12.24 1.979423e-05    1.814    0.449
         3 -13.9012    176.8500     46.6095   6.4180073862e+01   3.4472264955e+01     1.177421      1.08575  73.01   0.00081483    1.138    0.121
         4 -14.2146    195.3484     27.5550   5.7040153848e+01   3.2466647664e+01     1.198914    0.8100041 -31.62  0.001405226    1.482    0.325
         5 -14.0299    189.3672     35.4580   5.9678948136e+01   3.2922609164e+01     1.059045    0.8188306 -62.08  0.003546674    1.159    0.137
         6 -10.1853     49.1043    225.7488   1.3178513379e+02   2.1806831876e+01    0.1692024    0.1213952  43.34 0.0003448312    1.092    0.084
         7 -16.6899     69.1068    247.7207   1.2881229773e+02   1.5420878991e+01     10.16333     3.306746  20.03   0.02185005    5.799    0.828
         8 -11.9471     48.6033    206.1776   1.3048071781e+02   2.5891081495e+01    0.2547057    0.2317661  72.48  0.000759204    1.155    0.134
         9 -11.2642     39.4341    212.6042   1.3322552038e+02   2.5546144669e+01    0.2250254    0.1396109  34.86 0.0001973541    1.338    0.252
        10 -11.7086     44.2161    213.4586   1.3211134632e+02   2.4845525930e+01    0.6269268    0.1722746  50.20  0.002331194    3.304    0.697
        11 -11.8108     44.4979    210.5011   1.3183286618e+02   2.5434735381e+01    0.3170165    0.1543242  41.14  0.001016399    1.615    0.381
        12 -11.8669     71.8715    210.1384   1.2498092077e+02   2.2218952296e+01    0.4746712    0.2901335  11.66 0.0004117609    2.066    0.516
        13  -9.7279     32.5130    211.5715   1.3485517290e+02   2.6491059091e+01    0.1312619   0.09575929  51.01 0.0001425731    1.108    0.098
        14 -10.5282     36.6520    206.4727   1.3351203443e+02   2.7145219222e+01    0.2822503    0.1039049  38.20  0.001274086    2.037    0.509
        15 -12.0284    193.0936    194.2349   9.5109973434e+01   7.3342279073e+00    0.9103976    0.5019267 -57.28  0.003767881    4.068    0.754
        16 -11.9648    136.1198    199.2204   1.0793675337e+02   1.5109157832e+01     0.349233    0.2711133  54.92  0.001937128    1.541    0.351
        17 -11.7897    141.2260    197.8018   1.0654417353e+02   1.4579176480e+01    0.3023766    0.2802805 -40.43 0.0007758564    1.266    0.210
        18 -19.4554     13.6053    136.2772   1.3508487633e+02   4.6153758900e+01     19.86617     3.924766 -79.81   0.05510069    5.189    0.807
        19  -8.7290     87.3280    204.6563   1.2052408311e+02   2.1279849026e+01    0.2088515    0.1181335 -81.71 0.0009415215    2.581    0.613
        20  -8.6883     88.2929    201.6694   1.1992922757e+02   2.1761759098e+01    0.1769694    0.1624832   9.61 0.0009843371    1.190    0.160
        21 -11.3385    156.0270    199.8067   1.0357191306e+02   1.1951289623e+01    0.4331252    0.3236798  73.06  0.002207631    2.467    0.595
        22 -11.3233    152.8761    193.6928   1.0326347238e+02   1.3499955603e+01    0.3571431    0.2233836  51.33  0.001351861    2.026    0.506
        23 -12.6064     35.9000    199.7115   1.3324795341e+02   2.8698194560e+01     0.248289    0.1869275  38.27  0.000924257    1.156    0.135
        24 -10.9393    208.9648    197.8792   9.2833115191e+01   4.5959129785e+00    0.1968789    0.1680532 -27.83 0.0007318699    1.364    0.267
        25 -10.1756     82.1047    195.5616   1.2079038373e+02   2.3918536337e+01    0.3400421    0.2598116  -8.47  0.001816628    1.712    0.416
        26 -13.1179     68.4389    190.2244   1.2379557374e+02   2.6949892167e+01    0.8265126    0.7732471  22.99   0.00513384    1.158    0.136
        27 -11.3866     98.7602    187.8032   1.1543105607e+02   2.3155014603e+01    0.4766155    0.2144745 -51.64  0.002009811    2.455    0.593
        28 -10.0125     93.9869    186.4878   1.1649964244e+02   2.4159158238e+01    0.2735269    0.1480214  68.15 0.0008668538    3.259    0.693
        29 -10.8964    150.9762    182.4999   1.0178088452e+02   1.5825831654e+01    0.2221926    0.1976273 -68.24 0.0004207293    1.472    0.321
        30 -11.3104     99.3896    180.7861   1.1424638838e+02   2.4573926969e+01    0.3043873    0.2519771  17.34 0.0005950526    1.238    0.192
        31 -12.3110    143.9157    178.6602   1.0272547169e+02   1.7719061344e+01    0.4045241    0.2636049 -42.92  0.002041773    1.647    0.393
        32  -9.9215    198.9072    222.8685   9.8668845755e+01   2.4857072543e+00    0.1726546    0.1360344   9.61 0.0004443476    1.078    0.072
        33  -9.4015     68.4564    177.5201   1.2230957430e+02   2.9855478248e+01    0.1429209    0.1245746  50.32 0.0001584921    1.029    0.028
        34  -9.9642    165.3818    172.2164   9.6729707498e+01   1.5297042667e+01    0.2204211    0.1984925 -89.04 0.0006390919    1.564    0.361
        35 -10.2010    202.0305    169.7575   8.9030606791e+01   9.7560621157e+00    0.3125682    0.2020737 -46.42  0.001598169    1.806    0.446
        36 -10.3587    203.7945    165.0824   8.7822882820e+01   1.0208531149e+01    0.5158617    0.2633231 -42.80  0.002528165    2.026    0.506
        37 -12.1343    133.3844    204.0562   1.0929707714e+02   1.4641895824e+01    0.3942076    0.2598219 -77.53   0.00184577    2.798    0.643
        38 -11.4550    194.2648    167.3827   9.0003393029e+01   1.1354351807e+01    0.3127962    0.2740352 -22.52 0.0009144782    1.138    0.122
        39 -10.4766    229.7867    165.6084   8.3598499362e+01   6.2622210117e+00    0.1470196    0.1122593  43.62 0.0005178935    1.647    0.393
        40 -10.5789    159.6171    164.1537   9.6441280756e+01   1.7765339703e+01    0.2735247    0.2309463 -77.79  0.001321345    1.676    0.404
        41 -10.4841    190.2288    160.8897   8.9499977848e+01   1.3075410812e+01    0.2821091    0.2382613 -61.49 0.0009859075    1.621    0.383
        42 -11.1414    188.9501    154.8451   8.8534483760e+01   1.4301397335e+01    0.4054605    0.3736658 -62.39  0.002497385    1.396    0.283
        43  -9.3358    117.5251    161.9727   1.0627363324e+02   2.5688479256e+01     0.202456    0.1489269 -56.43 0.0004986837    1.505    0.335
        44 -13.1307     59.7142    204.2400   1.2749172506e+02   2.4988548145e+01    0.8832438    0.8108671 -17.20   0.00174565    1.351    0.260
        45 -12.9917     96.3844    154.1237   1.1071439421e+02   3.1123413853e+01    0.7953479    0.6218962 -29.82  0.003948268    1.519    0.341
        46 -11.7490    133.7769    144.7878   9.8619794818e+01   2.6403126238e+01      1.25422    0.3589556 -54.47    0.0031704    5.610    0.822
        47 -10.2914    113.1047    151.4051   1.0546350402e+02   2.8821040855e+01    0.2690526    0.2222175 -68.07 0.0006448935    1.377    0.274
        48 -10.8761    174.3551    148.8772   9.0189931870e+01   1.7924883154e+01    0.3038344    0.2581185  35.11 0.0008741296    1.183    0.154
        49 -11.6201    144.0712    146.8703   9.6514042967e+01   2.3996334068e+01    0.4141364    0.3233585 -69.47  0.002043473    1.669    0.401
        50 -10.4269    115.5308    144.2485   1.0335285109e+02   2.9989368106e+01    0.2890176    0.1891406  67.37 0.0008115384    2.227    0.551
        51 -12.2532    107.7119    139.9721   1.0467525888e+02   3.2426076336e+01    0.6043079    0.4094314 -27.96  0.002617465    1.921    0.479
        52 -12.5171     95.7230    140.1073   1.0825201712e+02   3.4570115614e+01    0.3369358    0.3216866  -8.32  0.000435749    1.127    0.113
        53 -11.2049    105.9994    130.7788   1.0319483798e+02   3.4890931663e+01    0.3910811    0.3526168 -88.02  0.001195825    1.220    0.180
        54 -11.2788    102.5030    126.4786   1.0327723898e+02   3.6570265026e+01    0.3103282    0.2668024 -21.19 0.0006885487    1.331    0.249
        55 -11.3210    114.8138    130.3274   1.0053317114e+02   3.3284220645e+01    0.3593593    0.2995362  -8.76  0.000964763    1.435    0.303
        56 -10.9331    136.0945    127.8338   9.4230513135e+01   2.9531480304e+01    0.4889095    0.2741214 -44.98   0.00204425    1.828    0.453
        57  -9.6036    128.0346    139.5048   9.8965014690e+01   2.8648261696e+01    0.2346171    0.1444228  39.99 0.0006619864    1.555    0.357
        58 -10.1765    160.3658    127.9067   8.8522659824e+01   2.4532861774e+01    0.2823381    0.2629236  88.06   0.00157053    1.242    0.195
        59 -11.1624    120.2168    123.9136   9.7516399413e+01   3.3643887623e+01    0.5755054    0.3484801 -16.08  0.001928342    3.360    0.702
        60  -9.7638    135.0000    119.9510   9.2610738405e+01   3.1420426881e+01    0.2534412   0.08752336 -45.06 0.0008044974    2.957    0.662
        61 -10.2184    110.0592    119.2109   9.9294348539e+01   3.6774647497e+01    0.2382302    0.2217808 -47.89 0.0003101898    1.111    0.100
        62  -9.9968    168.0993    112.9190   8.3307165014e+01   2.5741158155e+01     0.301831    0.2105287 -76.29   0.00131166    2.245    0.555
        63 -10.2295    134.8584    112.2161   9.0701419649e+01   3.3069425205e+01    0.3906736    0.1058842 -42.06  0.001090811    3.880    0.742
        64 -10.2681    205.4901    110.1496   7.5997142494e+01   1.8655894210e+01    0.2621647    0.1904873  38.89 0.0008135779    1.538    0.350
        65 -11.3738    119.2550    110.3748   9.4403848635e+01   3.6841437976e+01    0.6187649    0.3937675  50.76  0.002656222    1.591    0.371
        66 -12.4166     53.2710     91.1930   1.1247494302e+02   5.3802047647e+01     0.532883    0.3358511 -62.69  0.001729708    1.612    0.380
        67 -11.4665     41.6526     91.5584   1.1760245377e+02   5.5255384788e+01    0.3145421    0.2422767 -71.79 0.0004903652    1.318    0.242
        68  -9.6863     69.9486     72.1150   9.9824204403e+01   5.5592578691e+01    0.2251529    0.1957753  60.16 0.0004607532    1.247    0.198
        69 -11.6133    165.3992     65.7944   7.1311343312e+01   3.4463094584e+01    0.5077655    0.3065066 -71.50 0.0005691384    2.287    0.563
        70 -10.0964     81.1050    220.6538   1.2376129082e+02   1.8920280215e+01    0.2322427    0.1257022  34.81 0.0006008788    1.472    0.321
        71 -10.3418     35.7676     57.0764   1.1102776595e+02   6.4442152522e+01    0.2431228    0.1910015  25.13 0.0006505239    1.278    0.217
        72 -13.0160     53.8953    210.0654   1.2946114941e+02   2.4450990344e+01    0.4917906     0.194011  49.51  0.001746655    2.275    0.561
        73  -9.3898     62.7618    234.3682   1.2924017843e+02   1.8576522032e+01     0.159536   0.09745122  29.50 0.0004583134    1.373    0.272
        74 -10.3481     53.5179    230.0748   1.3105466505e+02   2.0464028430e+01    0.3450548    0.1849825 -87.74  0.001758842    2.310    0.567
        75  -9.5649     72.0119    229.9814   1.2675873179e+02   1.8286286721e+01    0.1802097    0.1308067  42.65  0.000337595    1.107    0.097
