#   1 NUMBER                 Running object number                                     
#   2 MAG_AUTO               Kron-like elliptical aperture magnitude                    [mag]
#   3 X_IMAGE                Object position along x                                    [pixel]
#   4 Y_IMAGE                Object position along y                                    [pixel]
#   5 X_WORLD                Barycenter position along world x axis                     [deg]
#   6 Y_WORLD                Barycenter position along world y axis                     [deg]
#   7 A_WORLD                Profile RMS along major axis (world units)                 [deg]
#   8 B_WORLD                Profile RMS along minor axis (world units)                 [deg]
#   9 THETA_WORLD            Position angle (CCW/world-x)                               [deg]
#  10 FWHM_WORLD             FWHM assuming a gaussian core                              [deg]
#  11 ELONGATION             A_IMAGE/B_IMAGE                                           
#  12 ELLIPTICITY            1 - B_IMAGE/A_IMAGE                                       
         1 -13.8278    178.1743     42.4526   6.5135109234e+01   3.5375312604e+01       1.2068    0.9679694 -17.86  0.002860229    1.246    0.197
         2 -14.1557    188.7655     33.4519   6.0455723869e+01   3.3786639857e+01     1.622001     1.166179 -19.31  0.003542169    1.392    0.282
         3 -15.0246    196.6238     22.9388   5.5942444163e+01   3.2976674692e+01     2.904866     1.868188  16.86   0.00144724    2.003    0.501
         4 -12.2395     41.9085     15.3939   9.2046527596e+01   6.8555032069e+01    0.5043431    0.2114044 -26.27  0.001917611    3.492    0.714
         5 -12.4201     50.2505      8.0558   8.4525565233e+01   6.8583726830e+01    0.3524844    0.2720692   1.51  0.002214592    1.264    0.209
         6  -9.7872    114.3671      3.9470   6.2298618373e+01   5.6397481317e+01    0.1983955    0.1678769  -4.99 0.0004011501    1.116    0.104
         7 -11.4365     44.2199    228.2387   1.2910114543e+02   2.4468233204e+01     0.395877    0.1156461  52.17  0.002212841    2.400    0.583
         8 -14.1878     61.4279    209.9775   1.2511668824e+02   2.5477896174e+01     1.576617     0.523751  49.12  0.008432618    2.296    0.565
         9 -15.8994    115.6133    237.8364   1.1844900671e+02   1.3989670072e+01     5.715641     2.514296  38.96   0.03300449    2.059    0.514
        10 -10.4012     50.2662    232.2893   1.2838668492e+02   2.3153722167e+01    0.3382451    0.1997011 -72.46  0.002567926    1.830    0.454
        11 -19.3837     11.5313    133.3970   1.2894300932e+02   4.5660020113e+01      16.7716     1.642236 -76.46   0.03949753   10.190    0.902
        12 -12.2221    116.4177    211.4422   1.1569754875e+02   1.7765494859e+01     0.343189    0.2204758  85.87  0.001778841    1.952    0.488
        13  -9.7047     97.1411    213.4218   1.1925622038e+02   2.0232915275e+01     0.217306   0.09432191  38.48  0.001146339    2.257    0.557
        14 -10.5098     39.1949    212.6226   1.2902334971e+02   2.7583900511e+01    0.1675952   0.09007044  56.72 0.0005740889    1.394    0.283
        15 -12.3737    106.6225    208.9908   1.1715786785e+02   1.9597955663e+01    0.4659097    0.3405326  66.23  0.003262178    1.191    0.160
        16 -12.2675    104.6132    199.9182   1.1654727386e+02   2.1394917900e+01    0.4193989    0.2960597  67.82   0.00196268    1.287    0.223
        17 -10.9228     44.2549    210.2580   1.2804077683e+02   2.7429885855e+01    0.2045966    0.1036761  57.00 0.0006675273    1.506    0.336
        18 -11.4003     45.3149    225.6685   1.2878573497e+02   2.4756687844e+01    0.3034533    0.1081662  63.03 0.0006652838    2.528    0.604
        19 -10.8723     37.1246    206.6698   1.2901745429e+02   2.8829782241e+01    0.1792623   0.09587417  56.89 0.0008658452    1.422    0.297
        20 -12.3655    193.8368    194.2182   9.9713847794e+01   7.6498577958e+00    0.8455119    0.5692991 -62.91  0.004575363    2.585    0.613
        21 -11.3359    204.3166    199.3465   9.8760627186e+01   5.2172964256e+00    0.3551853    0.1524405  32.23  0.001637285    2.454    0.592
        22 -10.4810     85.8744    201.3691   1.2009254520e+02   2.3806113081e+01    0.4053966    0.1573619  60.80  0.001825969    3.045    0.672
        23 -11.8443    120.5430    200.2235   1.1368173161e+02   1.8939221855e+01    0.3158352    0.2479832 -19.35  0.001824638    2.164    0.538
        24 -13.2859    113.4302    197.3741   1.1464394886e+02   2.0504580872e+01    0.4753329    0.4015584 -89.76  0.003401273    1.207    0.171
        25 -10.6800     36.9994    200.0649   1.2863646154e+02   3.0006048467e+01    0.1458855    0.1082918  74.85 0.0002975421    1.061    0.058
        26 -13.3270     67.6923    194.4736   1.2275752991e+02   2.7424924123e+01    0.6111102    0.5014096 -83.17  0.002694333    1.265    0.210
        27  -9.9408     65.5074    187.4839   1.2253710627e+02   2.8985567334e+01    0.1564358    0.1427425  59.86 1.938407e-05    1.354    0.262
        28  -9.8807     45.8095    198.8871   1.2702584223e+02   2.9247654718e+01      0.22593    0.1625266  20.57  0.001503444    2.434    0.589
        29 -10.3548     81.9539    195.2035   1.2020882631e+02   2.5423138438e+01    0.2462703    0.2136663 -45.07  0.001783051    1.702    0.412
        30 -10.1051     41.0826    194.2530   1.2754183182e+02   3.0611502376e+01    0.2739973    0.1626362  37.77  0.001833373    1.853    0.460
        31  -9.5488     75.1465    200.8400   1.2197123477e+02   2.5331148404e+01     0.174859    0.1145003  67.23 0.0006592856    1.274    0.215
        32  -9.6014    180.1656    192.8471   1.0188157533e+02   1.0193217291e+01    0.1833468    0.1542005  58.87 0.0009762131    1.296    0.229
        33  -8.5223     30.6898    232.2228   1.3138029115e+02   2.5291940637e+01    0.1595637    0.0908956 -83.01  0.001087333    1.643    0.391
        34 -11.3278    211.1289    179.8837   9.4280852539e+01   6.5135374360e+00     0.408255    0.2704586 -11.39  0.001786064    1.762    0.433
        35 -11.2224    207.6189    183.7198   9.5566129383e+01   6.6326079520e+00    0.3328986    0.2344372 -44.59  0.001460229    1.780    0.438
        36 -11.1841     99.5322    180.6799   1.1527183662e+02   2.5562646796e+01     0.223692    0.1978647  59.80 0.0006749541    1.152    0.132
        37 -11.2279     80.9955    169.5059   1.1762533215e+02   3.0388237091e+01    0.2702534    0.1978969  70.24 0.0004445254    1.202    0.168
        38 -12.2106     79.1171    179.0548   1.1908503910e+02   2.8792125724e+01    0.3363507    0.2357216 -46.73  0.002065473    1.990    0.498
        39 -12.1939     82.5563    174.0216   1.1783916579e+02   2.9286366759e+01    0.2823076    0.2676526  44.81  0.000842472    1.380    0.275
        40  -9.9131     70.4696    178.8388   1.2075475884e+02   2.9986797702e+01    0.2302541    0.1407497  67.87 0.0007721874    1.490    0.329
        41 -10.4550    193.8622    165.4116   9.4634014733e+01   1.1697288136e+01    0.3280156    0.2718481 -53.92   0.00148336    1.501    0.334
        42 -10.3919    198.1895    176.5701   9.5930509545e+01   9.2836763219e+00    0.3123415    0.2139522  60.57  0.001667857    1.852    0.460
        43 -11.1776    196.1449    171.1459   9.5301404567e+01   1.0429637704e+01    0.3449249     0.320864  18.22  0.001106436    1.082    0.075
        44 -10.9836    230.2979    166.4385   8.8518215985e+01   4.8192817132e+00    0.2057229    0.1527297 -46.23 0.0008737032    1.800    0.445
        45  -8.2037     36.2634    233.7217   1.3060838259e+02   2.4471520581e+01    0.1498129   0.08378492  65.26 0.0005115846    1.272    0.214
        46 -10.6518    165.5140    153.4943   9.7715690326e+01   1.9066388240e+01     0.306749    0.2108443  85.54  0.001384962    2.494    0.599
        47 -10.8195    134.0000    148.0053   1.0316359276e+02   2.6064599726e+01    0.4320759    0.1913989 -59.12    0.0016953    2.842    0.648
        48 -11.4161    133.6833    143.2171   1.0232789260e+02   2.7058283175e+01     0.786215    0.2764369 -57.66  0.002558945    4.008    0.751
        49 -10.9550    174.5807    148.7220   9.4975538648e+01   1.8103468871e+01    0.2641539    0.2587091  28.50  0.001036226    1.054    0.051
        50 -11.1663    144.6424    146.7223   1.0066332898e+02   2.4317240902e+01    0.3594905    0.2309826 -87.02  0.001502976    2.785    0.641
        51 -12.4773     95.3077    141.8707   1.1065294806e+02   3.3949494696e+01    0.2986684    0.2364133 -63.20 0.0005507352    1.232    0.188
        52 -11.8398    107.3077    141.2269   1.0781417075e+02   3.2139016217e+01    0.5197059    0.3326563 -34.57  0.002471642    2.292    0.564
        53 -12.7273     34.6748    229.5015   1.3064453429e+02   2.5302193106e+01    0.2029006    0.1287725  61.72 0.0006463206    1.099    0.090
        54 -10.5837    141.8765    138.6560   9.9652093861e+01   2.6395260759e+01    0.2428054    0.1905837 -37.86  0.000748863    1.395    0.283
        55 -11.0835    114.7143    131.3812   1.0428453929e+02   3.2928393975e+01     0.338208    0.2942355  14.23  0.000777706    1.492    0.330
        56 -11.1692    119.5483    128.8679   1.0265830914e+02   3.2586174606e+01    0.3699294    0.2887155 -82.22  0.001161522    1.411    0.291
        57 -11.1266    119.4950    125.0124   1.0187158905e+02   3.3406157150e+01    0.5133443    0.3219101 -20.62  0.001964295    3.334    0.700
        58 -10.8523    105.9958    130.8470   1.0622140357e+02   3.4556160686e+01    0.3211491    0.2683016 -81.79  0.001105594    1.160    0.138
        59 -11.2020    102.3489    127.6684   1.0648069243e+02   3.5855738224e+01    0.2471617    0.2419083 -29.25 0.0005035055    1.234    0.189
        60 -10.6444    160.4415    127.9951   9.3382502235e+01   2.4698005093e+01    0.4058158    0.3121273 -43.06   0.00210596    1.322    0.244
        61 -11.2117    135.4217    122.3233   9.7590741964e+01   3.0915399973e+01    0.6067288    0.1356025 -48.96  0.001657094    4.697    0.787
        62 -10.3700    110.1014    119.9653   1.0305225214e+02   3.6184919598e+01    0.2154007    0.1951025  62.05 0.0002700609    1.115    0.103
        63 -11.6973     36.8464    225.8045   1.3012251421e+02   2.5660396423e+01    0.1764391    0.1135596  83.60 0.0003498275    1.284    0.221
        64 -10.3050    167.9539    112.7262   8.8145574000e+01   2.5933259245e+01     0.300066    0.2451425 -72.10 0.0008727403    1.496    0.332
        65 -10.0050    125.3978    127.1405   1.0094509435e+02   3.1861816577e+01    0.2747607    0.1717581 -66.22  0.001023854    1.882    0.469
        66 -11.0389    119.5222    110.5718   9.8643614644e+01   3.6468398928e+01    0.5086296    0.2496898  63.92  0.001687793    3.678    0.728
        67 -10.0342    205.5636    110.1950   8.0202067405e+01   1.7950797118e+01    0.2595033    0.2042359  46.92 0.0006211752    1.300    0.231
        68  -9.8019    134.4561    103.1794   9.3194669465e+01   3.5039298649e+01    0.2827504     0.141874 -40.47 0.0009945817    2.011    0.503
        69 -16.0112     72.9579    149.8784   1.1687569017e+02   3.5511964978e+01     5.150868     2.559477  79.73   0.01365587    3.085    0.676
        70  -9.0429    154.2857     79.3047   8.1843321075e+01   3.5324036604e+01    0.1539376    0.1214552   7.45 0.0002353202    1.563    0.360
        71  -9.4552     69.5249     72.0135   1.0267392545e+02   5.3460169219e+01     0.186025    0.1797129  58.03 0.0005033666    1.195    0.163
        72 -10.9945    167.1066     67.3331   7.5381487089e+01   3.4339047730e+01    0.5544083     0.348911 -76.84  0.001571667    2.848    0.649
        73  -9.5242    105.3000     61.4332   8.8416719453e+01   4.9573052727e+01    0.1881063     0.145386  61.53 0.0009345508    1.544    0.352
        74 -13.6682     50.8648    218.7536   1.2748152755e+02   2.5253630753e+01    0.6012355    0.1930597  58.92  0.002670068    2.782    0.641
        75 -10.9358     70.8729    228.7596   1.2490721952e+02   2.1258014424e+01    0.1773872    0.1192543  72.97 0.0005682106    1.228    0.186
        76 -11.3292     85.1258    235.6702   1.2313358900e+02   1.8405799071e+01    0.3139348    0.1508818 -75.53 0.0009748714    2.461    0.594
        77  -9.8937    177.7308    237.4113   1.0846250859e+02   4.9282053997e+00    0.1521367    0.1306679 -68.45 0.0006639343    1.670    0.401
        78 -11.3329     93.1240    236.5153   1.2192785117e+02   1.7237679403e+01    0.2010435    0.1470301  63.50 0.0004731832    1.070    0.065
        79 -11.6053     52.1696    228.2330   1.2785267541e+02   2.3572721342e+01    0.6040987    0.1926879  62.03  0.003007764    3.150    0.683
