#   1 NUMBER                 Running object number                                     
#   2 MAG_AUTO               Kron-like elliptical aperture magnitude                    [mag]
#   3 X_IMAGE                Object position along x                                    [pixel]
#   4 Y_IMAGE                Object position along y                                    [pixel]
#   5 X_WORLD                Barycenter position along world x axis                     [deg]
#   6 Y_WORLD                Barycenter position along world y axis                     [deg]
#   7 A_WORLD                Profile RMS along major axis (world units)                 [deg]
#   8 B_WORLD                Profile RMS along minor axis (world units)                 [deg]
#   9 THETA_WORLD            Position angle (CCW/world-x)                               [deg]
#  10 FWHM_WORLD             FWHM assuming a gaussian core                              [deg]
#  11 ELONGATION             A_IMAGE/B_IMAGE                                           
#  12 ELLIPTICITY            1 - B_IMAGE/A_IMAGE                                       
         1 -15.3454      2.7343    123.9351   1.2908776298e+02   4.8683309704e+01     10.25291    0.3304178 -74.83   0.02704053    8.253    0.879
         2 -14.2810      2.1690     25.6156   1.1463394706e+02   7.0169070707e+01     4.576347     0.355217 -63.74   0.01248074    7.224    0.862
         3 -14.4424     80.7598     74.2085   9.8341016170e+01   5.1479773788e+01     1.948266     1.410242 -19.07  0.009724815    1.896    0.473
         4 -13.4602    198.0488     28.3438   5.6258053577e+01   3.1994736838e+01     1.075622    0.8456641   5.48  0.005399511    1.473    0.321
         5 -12.1407    205.6587     19.4245   5.2575849939e+01   3.1029000388e+01    0.6222861    0.3994237  39.96  0.001128797    1.784    0.440
         6 -13.0902    211.9429     11.2394   4.9450344321e+01   3.0269043495e+01    0.7650044    0.7118077 -56.24  0.002893674    1.016    0.016
         7 -13.6750    106.4659     60.8509   8.6428183228e+01   4.9586269704e+01     1.260549     1.223497   8.71   0.00730451    1.078    0.072
         8 -12.1064    246.8679    249.1274   9.7350405442e+01  -6.3112152967e+00    0.4848644    0.2805068  39.14  0.002617974    1.412    0.292
         9 -11.7164    249.7647    246.2460   9.6534773206e+01  -6.4703983678e+00    0.4762661    0.1670016 -26.78  0.002689146    3.383    0.704
        10 -14.4210    129.4374    229.6304   1.1361807821e+02   1.3227384356e+01     3.856616     2.027039  64.37   0.02141166    2.319    0.569
        11 -12.6826    118.3955    216.5922   1.1415473265e+02   1.6810970052e+01    0.8844554    0.6744842  16.99  0.005739434    2.026    0.507
        12 -13.1520    125.8804    192.6297   1.0995453274e+02   1.9521366360e+01     1.668589    0.7233567 -38.47   0.00633755    4.942    0.798
        13 -13.4170    128.0032    172.8532   1.0676058002e+02   2.2642936556e+01      1.03409    0.9299219 -54.18  0.005681653    1.279    0.218
        14 -12.8955    115.3515    228.7296   1.1591247803e+02   1.5431286154e+01    0.7585558    0.3870764 -61.11  0.004666251    2.414    0.586
        15 -13.3576    102.9607    248.6786   1.1968475445e+02   1.4333405366e+01    0.7238472    0.3350477  48.96  0.003187246    1.546    0.353
        16 -13.4785    121.0331    249.7758   1.1691473047e+02   1.1702830655e+01     1.185417    0.3509244  39.41  0.005607731    2.977    0.664
        17 -13.5361    112.9920    246.8796   1.1794440780e+02   1.3207267973e+01     0.586409    0.5006172  83.54  0.003581699    1.329    0.248
        18  -8.4476     84.0138    242.0000   1.2219105692e+02   1.7783128318e+01    0.7246456    0.2674066 -74.65  0.003830668    3.718    0.731
        19  -9.7147     87.4947    240.4985   1.2152338051e+02   1.7549599133e+01    0.1817389    0.1237601  62.09  0.000670885    1.118    0.106
        20 -11.9230     48.1856    217.8410   1.2644124833e+02   2.5981769060e+01    0.8428866     0.231713  56.94  0.003976288    3.173    0.685
        21 -15.6096     18.1242    213.1042   1.3117892580e+02   2.9977247613e+01     2.433672    0.8306305  54.30   0.01480679    2.065    0.516
        22 -15.9925     64.5531    204.0908   1.2262191029e+02   2.6381881965e+01     3.398768     1.954711  62.69    0.0221685    1.425    0.298
        23 -10.6324    110.7681    188.3827   1.1232540288e+02   2.2669245847e+01    0.3777325    0.2122189  35.77  0.002016426    1.909    0.476
        24 -10.3076    119.3247    182.3496   1.0986211864e+02   2.2379211065e+01    0.2495973    0.2259686 -77.77    0.0014201    1.206    0.171
        25 -11.6653     32.6342    179.3366   1.2671153782e+02   3.4649881949e+01    0.5114504    0.3048229  49.17  0.002457933    1.481    0.325
        26 -13.2367     91.7303    144.5719   1.1025985448e+02   3.4219801926e+01     1.414386    0.4534205  43.35 0.0008427846    2.928    0.658
        27 -12.8733     82.1346    104.9258   1.0546908139e+02   4.4424556215e+01     1.096268    0.9490583 -78.30  0.005888463    1.062    0.058
        28 -13.0424    102.0986    171.6091   1.1190384029e+02   2.7131494994e+01      1.59433    0.6691801  35.54  0.006884565    2.761    0.638
        29 -13.8760    107.1587    156.4391   1.0863999365e+02   2.9303733701e+01     1.700874    0.9368675  54.11  0.008451713    1.755    0.430
        30 -12.9612     67.0895    143.1101   1.1578283124e+02   3.8065824423e+01    0.7951272    0.4084468  59.84   0.00393651    2.061    0.515
        31 -14.1172     60.9358    135.3638   1.1619846926e+02   4.0546353232e+01     1.083686    0.8376341 -70.51  0.004440774    1.194    0.163
        32 -14.5971     79.3744    158.5590   1.1503051233e+02   3.3125131104e+01     1.872967     1.085238  60.83    0.0101311    1.682    0.406
        33 -13.0984    129.1275    154.0875   1.0348305245e+02   2.5971844458e+01    0.7719979    0.5473573  55.02  0.003328811    1.329    0.247
        34 -13.4139    134.9726    146.3091   1.0081195717e+02   2.6404790100e+01     1.111725    0.7679463 -52.86  0.005843898    1.522    0.343
        35 -11.3243    150.5175    153.4803   9.8848844060e+01   2.2095240328e+01    0.7717669    0.4308754  34.65  0.003507941    2.000    0.500
        36 -12.7910    115.0884    140.6259   1.0420592648e+02   3.1174494092e+01    0.7376764    0.6091655  53.25  0.003878487    1.159    0.137
        37 -10.6768    229.3813    249.6301   9.9994555060e+01  -3.9526795295e+00    0.2655436   0.06688789  39.08  0.001248124    2.897    0.655
        38 -16.7494     15.1589    240.5636   1.3272641739e+02   2.5830066324e+01     2.192955    0.9344133  45.55   0.01587784    1.761    0.432
        39 -13.3394    105.1466    226.4538   1.1743143034e+02   1.7235711929e+01     1.233607    0.4913868 -55.91  0.006742129    3.093    0.677
        40 -10.2558     99.7126    128.9475   1.0568830799e+02   3.6285359628e+01    0.2896533    0.2290384 -26.43  0.001552132    1.782    0.439
        41 -14.5892     67.6842    103.1000   1.0911880066e+02   4.6923771529e+01      3.36617    0.9606832 -55.08    0.0123809    2.967    0.663
        42 -10.2668     59.0302    164.5119   1.2010283922e+02   3.4599302419e+01    0.2391936    0.1618258 -79.06  0.001517759    1.332    0.249
        43 -12.6688     70.9303    164.7508   1.1760433029e+02   3.3019626685e+01      0.38699     0.309848 -56.33    0.0010329    1.504    0.335
        44 -11.2828    130.1343    116.2263   9.5657783792e+01   3.3408138065e+01    0.4829931    0.3009894  52.88  0.002232911    1.638    0.390
        45 -10.0064    167.5030    112.3397   8.6309513488e+01   2.6211728237e+01    0.3165576    0.2302107 -75.93 0.0009442444    1.955    0.489
        46 -11.0910    134.8418    110.9365   9.3290152484e+01   3.3540353920e+01    0.5377848    0.1985845 -44.27   0.00188792    2.731    0.634
        47 -11.6366    115.2294    100.4997   9.5580824395e+01   3.9653159895e+01    0.4060636     0.372755 -62.58  0.002291294    1.041    0.039
        48 -11.6699     95.9264     89.6394   9.8027276373e+01   4.5567461446e+01    0.4453301    0.4068012  -7.29  0.002555321    1.308    0.236
        49 -11.7805     57.9907     85.8222   1.0837898470e+02   5.2122779097e+01    0.4489177    0.3868759  80.34  0.002813046    1.217    0.178
        50 -12.6989     74.7108     82.4960   1.0243120698e+02   5.0587665226e+01    0.8840924     0.615194  33.01   0.00469974    1.685    0.407
        51 -14.5334     62.5281    242.4329   1.2561457038e+02   2.0396037348e+01     1.200124    0.7530706  38.36  0.008553652    1.714    0.416
        52 -11.8542    140.4732    138.6222   9.8112524606e+01   2.6850874983e+01    0.5948331    0.4263096  83.54  0.002881687    1.872    0.466
        53  -8.8795    160.6717     54.3123   7.0939278532e+01   3.8161356013e+01     0.160306    0.1186196 -67.27 0.0007042576    1.668    0.401
        54 -12.1328    111.4937     43.6619   7.8832002106e+01   5.1679228474e+01    0.7055686    0.3767794  59.84  0.002886415    2.294    0.564
        55 -10.9810    151.5722     83.1605   8.1936129462e+01   3.5339184362e+01    0.3796166    0.2599213 -56.83  0.001680296    1.666    0.400
        56 -12.3412    189.6500     34.5776   5.9400074660e+01   3.3435074969e+01    0.5347016    0.3858796  56.22  0.001752043    1.386    0.278
        57  -9.1262     21.9598    193.5101   1.2956119689e+02   3.3062281303e+01     0.146001   0.07802062  49.34 0.0009933872    1.546    0.353
        58 -11.2912    249.9651    228.6163   9.3972796272e+01  -5.0143462806e+00    0.3391173    0.1487741 -25.22  0.002010918    2.558    0.609
        59 -10.4438     27.6812    194.1218   1.2857349633e+02   3.2377834840e+01    0.2600591    0.1489974  55.58  0.001049826    1.371    0.271
        60 -10.6902    127.4106     26.2182   6.7926567975e+01   5.0676658602e+01    0.2180801    0.1279697 -38.42 0.0009556359    1.708    0.414
