#   1 NUMBER                 Running object number                                     
#   2 MAG_AUTO               Kron-like elliptical aperture magnitude                    [mag]
#   3 X_IMAGE                Object position along x                                    [pixel]
#   4 Y_IMAGE                Object position along y                                    [pixel]
#   5 X_WORLD                Barycenter position along world x axis                     [deg]
#   6 Y_WORLD                Barycenter position along world y axis                     [deg]
#   7 A_WORLD                Profile RMS along major axis (world units)                 [deg]
#   8 B_WORLD                Profile RMS along minor axis (world units)                 [deg]
#   9 THETA_WORLD            Position angle (CCW/world-x)                               [deg]
#  10 FWHM_WORLD             FWHM assuming a gaussian core                              [deg]
#  11 ELONGATION             A_IMAGE/B_IMAGE                                           
#  12 ELLIPTICITY            1 - B_IMAGE/A_IMAGE                                       
         1 -14.0550      5.9795     15.3339   1.2121712759e+02   7.2062817778e+01     2.818638     0.556802 -47.96   0.01206382    3.153    0.683
         2 -13.9331    202.8883      9.7595   6.3871992700e+01   3.3284075610e+01     1.530194    0.7929863  51.22  0.001422032    2.063    0.515
         3 -13.9969    190.3009     22.0792   6.8832620740e+01   3.5167532055e+01     2.101173     1.264622  -7.89  0.007962652    2.276    0.561
         4 -14.2328    197.9121     17.3173   6.6529228851e+01   3.3742721798e+01     1.679361     1.411108  60.49  0.008109353    1.205    0.170
         5 -10.1810    108.1972    242.2928   1.3425360981e+02   1.2301041562e+01    0.2289864    0.1474199 -70.79  0.001475965    1.810    0.447
         6 -10.5631    205.3815    249.8553   1.1823110697e+02  -3.9491769854e+00    0.2629637    0.1049194  40.33 0.0007282884    1.960    0.490
         7 -11.6987    146.1893    240.7230   1.2733245936e+02   6.6273667807e+00    0.3247916    0.2219811  46.62 0.0004145191    1.155    0.134
         8 -10.4605    152.4828    243.7994   1.2658591554e+02   5.1703680672e+00    0.2228574    0.1501871 -56.83  0.001427024    1.907    0.476
         9 -11.0490    143.3952    249.1750   1.2880880813e+02   5.8357356391e+00    0.4999773    0.2999603 -87.66  0.002560172    3.242    0.692
        10 -11.2511    150.3855    248.2523   1.2748397338e+02   4.8690923637e+00    0.4038471    0.2202102  45.71  0.002078512    1.425    0.298
        11 -11.0900    135.5154    241.0537   1.2927550693e+02   8.2788831335e+00    0.2779114    0.2090229  59.74  0.001110824    1.196    0.164
        12 -11.8663    135.1783    236.6699   1.2882925699e+02   9.0097209852e+00     0.380953     0.251386  51.74  0.001715025    1.237    0.192
        13 -11.1254    134.4174    249.5047   1.3040747604e+02   7.1852400774e+00    0.5522161    0.1840642  50.06  0.002498352    2.596    0.615
        14 -11.7647     96.3939    239.3009   1.3604804407e+02   1.4536997904e+01    0.6528961    0.3468891  84.98  0.003436512    2.591    0.614
        15 -10.5942    104.6242    238.0073   1.3446494002e+02   1.3536599736e+01    0.3080412    0.1820948  39.20  0.001200834    1.605    0.377
        16 -11.3097     98.6270    231.4629   1.3489614318e+02   1.5538015132e+01    0.4358296    0.2726189  79.96   0.00162148    1.746    0.427
        17 -12.1894    109.7074    230.3665   1.3276212316e+02   1.4048562149e+01    0.7377925    0.3009324  44.40  0.003131856    1.981    0.495
        18 -10.1228     89.1628    219.2782   1.3542477136e+02   1.9110443362e+01     0.281225    0.1699412 -47.50  0.001559769    2.411    0.585
        19 -12.6642    125.0140    243.6530   1.3142663660e+02   9.5233875068e+00    0.6962134    0.5743847 -41.64  0.004251597    1.704    0.413
        20 -11.8750    111.4514    248.6652   1.3430475315e+02   1.0805762971e+01    0.8397394    0.3034499  44.78  0.004224593    2.107    0.525
        21 -11.9683    100.2893    246.5305   1.3603312423e+02   1.2786909234e+01    0.5520555    0.4453079  56.29  0.004118923    1.126    0.112
        22  -9.8904     93.7999    216.9023   1.3430157032e+02   1.8861793067e+01    0.2715361    0.1709142 -89.71  0.001246685    1.742    0.426
        23 -10.8189     92.5200    226.0941   1.3548103715e+02   1.7382587797e+01    0.4837173    0.2769744  58.93  0.002393637    1.493    0.330
        24 -10.9182    110.4735    222.4281   1.3174895971e+02   1.5304674828e+01    0.2755629    0.2591338  60.51 0.0007831202    1.255    0.203
        25 -11.8118     98.9458    223.1894   1.3399389333e+02   1.6943590029e+01    0.5421053    0.2647628  43.60 0.0002341672    1.741    0.426
        26 -10.8466    104.9912    218.9577   1.3239633759e+02   1.6778905804e+01    0.2220674    0.1738769  80.09 0.0003069747    1.219    0.180
        27 -10.8681     84.9273    230.0271   1.3723835859e+02   1.7783113970e+01    0.5496845    0.3648214  75.04  0.003235904    1.385    0.278
        28 -11.4660     81.3050    246.5005   1.3928122958e+02   1.5478936432e+01    0.4666826    0.3003546  88.30  0.002660231    1.571    0.363
        29 -11.4156     84.5883    241.8882   1.3833981019e+02   1.5790039942e+01    0.7785104    0.5263078   6.23  0.003175728    6.256    0.840
        30 -10.6252     87.8444    250.5532   1.3850349943e+02   1.3915257723e+01    0.4772073    0.1742282  39.30   0.00173955    2.517    0.603
        31 -10.2532     88.0330    247.1557   1.3819075996e+02   1.4437641711e+01    0.2778896    0.1385438  39.35  0.001214955    1.884    0.469
        32  -9.8411     83.5131    238.4215   1.3823211620e+02   1.6526163447e+01    0.2742253    0.1358639  44.97   0.00159907    1.645    0.392
        33 -10.1597     86.2554    237.0146   1.3762855353e+02   1.6380312810e+01    0.2503018    0.2103268  32.93  0.001172323    1.589    0.371
        34  -9.8245     74.4873    250.5705   1.4073868346e+02   1.5735712454e+01    0.2545106   0.08857367  40.22  0.001279721    2.529    0.605
        35 -13.4785     45.5255    246.5362   1.4521390989e+02   2.0072815208e+01    0.7319711    0.6630874  43.02  0.004238524    1.678    0.404
        36 -12.9346     42.2293    237.0362   1.4518211228e+02   2.2098934148e+01     0.597972    0.2646445  48.51 0.0008498725    1.736    0.424
        37 -13.2046     47.1901    228.5176   1.4379353436e+02   2.3027676178e+01    0.5296486    0.3994382  48.36  0.001830687    1.384    0.278
        38 -15.0756     56.0483    217.2170   1.4138852797e+02   2.4028951796e+01     2.768425     1.842941  85.55   0.01861101    1.299    0.230
        39 -10.8413    121.6435    232.8501   1.3085017226e+02   1.1772851695e+01    0.2480774    0.2324445  -4.38 0.0005516866    1.513    0.339
        40  -9.5514     93.0464    244.5066   1.3710313516e+02   1.4159938748e+01    0.1674234   0.08807716  46.38 0.0004162209    1.498    0.333
        41 -15.2285     12.4637    207.3348   1.4855374235e+02   3.0806266481e+01     2.809181     1.313033 -78.17   0.01682614    1.806    0.446
        42 -10.7957    156.7430    231.5046   1.2426602034e+02   6.2868940223e+00    0.2083591    0.1913694  45.80  0.000280767    1.134    0.118
        43 -11.3250    142.0415    230.2341   1.2679722991e+02   8.9098218404e+00    0.3385844    0.2437752 -31.81  0.001389179    2.028    0.507
        44 -10.9760    132.6750    224.2533   1.2778963389e+02   1.1421245213e+01    0.2592507    0.1876865  44.65 0.0009198883    1.178    0.151
        45 -11.0941    136.2044    227.8524   1.2757884506e+02   1.0249263057e+01    0.2256504    0.1933545  79.63  0.000991376    1.241    0.194
        46  -9.5535    180.9601    229.6154   1.1961150947e+02   2.5317155176e+00    0.1746092    0.1301885  37.86 0.0005691355    1.096    0.087
        47  -9.7414    164.2956    220.7185   1.2138220756e+02   6.6646514961e+00    0.2550329    0.1881002 -25.87 0.0008965827    1.801    0.445
        48  -9.4950    150.7991    229.6171   1.2510691922e+02   7.5610018606e+00    0.1877643   0.09298518  50.11 0.0009547473    1.768    0.434
        49 -10.4100    173.4264    240.0678   1.2240729166e+02   2.3198940211e+00    0.2494056    0.1994988 -75.27 0.0009260908    1.807    0.447
        50 -10.0481    190.9222    228.0977   1.1760216549e+02   1.0863143457e+00    0.1789491    0.1468287  35.97 0.0002991929    1.041    0.040
        51  -9.0081    184.6437    228.6738   1.1881209923e+02   2.0502143195e+00    0.1257252   0.08500732  16.35 0.0007045273    1.775    0.437
        52 -10.9095    165.3900    227.3252   1.2211639949e+02   5.4714247185e+00     0.324491    0.2290343 -74.53  0.001567654    2.166    0.538
        53 -10.7642    117.1104    224.4734   1.3073580557e+02   1.3900749146e+01    0.2983215    0.1979391  37.70 0.0006870874    1.494    0.331
        54  -8.9423    220.0083    223.6990   1.1180861253e+02  -3.0915974388e+00      0.14432   0.09138211  36.75 0.0008603014    1.330    0.248
        55  -9.2341    155.7630    223.5685   1.2337640614e+02   7.6731830167e+00    0.1676639   0.09988528  50.47 0.0002504006    1.479    0.324
        56 -10.4844    150.0332    222.3737   1.2428495032e+02   8.8327793497e+00    0.1970066    0.1863149  10.28 0.0003050149    1.266    0.210
        57  -9.7897    149.5479    218.5484   1.2385164959e+02   9.5363408528e+00     0.220819    0.1795547 -45.00 0.0004639225    1.488    0.328
        58 -10.2322    141.6856    212.8050   1.2456074268e+02   1.1847626271e+01    0.3565781    0.2379248  44.68  0.001292776    1.279    0.218
        59 -12.1692    142.1994    220.7789   1.2554692870e+02   1.0414739804e+01    0.3805389    0.3020498 -56.69  0.001623078    1.491    0.329
        60 -10.2294    137.3775    214.6356   1.2564473987e+02   1.2267737719e+01    0.2905174    0.2052425  88.45  0.001504795    1.840    0.456
        61 -10.4307    245.8125    219.1441   1.0671240207e+02  -6.5638271883e+00     0.172025    0.1163468  11.08  0.001088527    1.360    0.265
        62  -9.7075    177.4827    219.5195   1.1875479112e+02   4.5826414718e+00    0.1262595     0.105246  35.62 0.0008099324    1.030    0.029
        63 -10.1338    233.7922    217.8070   1.0848486487e+02  -4.5530128112e+00    0.2434085    0.1482775 -57.79  0.000754787    4.195    0.762
        64  -9.1304    133.7686    217.7975   1.2675836267e+02   1.2332060402e+01    0.1715214    0.1257611  63.19 0.0004663203    1.310    0.237
        65 -10.9158     88.1935    213.1306   1.3497655137e+02   2.0400458298e+01    0.2558215    0.2364451 -86.24 0.0004443856    1.302    0.232
        66  -9.4977    183.0160    213.9890   1.1687548352e+02   4.4539360880e+00    0.1553547    0.1268715  37.20 0.0003113665    1.039    0.037
        67 -10.6623    102.0206    212.1461   1.3219496491e+02   1.8491574842e+01    0.3923897    0.2297778  55.44  0.001637501    1.477    0.323
        68 -12.6579    131.8483    211.6384   1.2631322633e+02   1.3728376439e+01    0.3278428    0.2854683   8.45 0.0005541922    1.548    0.354
        69  -9.4596    152.1422    211.9313   1.2241506084e+02   1.0186121656e+01     0.193719    0.1552808  64.98 0.0005385805    1.284    0.221
        70  -9.0188    109.4718    210.4732   1.3054284171e+02   1.7628456101e+01    0.1759841    0.1142024 -79.27 0.0001364695    1.762    0.432
        71 -10.5593    115.7813    240.1629   1.3269605784e+02   1.1495403652e+01     0.219075     0.162172  66.51  0.001158837    1.223    0.182
        72 -13.4339     13.9465    239.0948   1.4984811031e+02   2.4848150510e+01    0.4040937    0.2204415  41.27  0.001045091    1.824    0.452
        73  -9.0598    197.7060    208.0348   1.1319118387e+02   2.7705095236e+00    0.1637748    0.1470215  17.17 0.0002480746    1.077    0.072
        74 -10.3180    174.7260    206.2677   1.1720550763e+02   7.1179661799e+00    0.3114798    0.2234238 -17.58  0.001259497    1.881    0.468
        75 -11.7874     93.1910    205.1159   1.3312303340e+02   2.1189488029e+01    0.6305742    0.2859507  49.18  0.001609792    1.891    0.471
        76 -11.8032    247.1975    205.5202   1.0410939658e+02  -5.1564222910e+00     0.460995    0.2747785  24.49  0.002655391    1.569    0.362
        77  -9.5679    115.0597    200.6325   1.2817612548e+02   1.8577442371e+01    0.2021787    0.1607074  87.63 0.0007427055    1.278    0.218
        78  -9.3645    114.2769    206.6763   1.2912212978e+02   1.7560415883e+01    0.1658059     0.111004  38.94  0.000240727    1.479    0.324
        79  -8.8888    113.3530    203.7023   1.2892399817e+02   1.8272927623e+01    0.1757158    0.1225835 -88.08 0.0009831194    1.618    0.382
        80  -8.7868    163.3313    205.3133   1.1924776902e+02   9.3158057908e+00    0.1292659   0.09797153  13.57 0.0007044658    1.677    0.404
        81  -9.9599    149.5347    204.3172   1.2179480705e+02   1.1948682880e+01    0.2623506    0.2028935  -4.18 0.0009291981    1.941    0.485
        82 -10.7869    103.4492    203.1486   1.3084142851e+02   1.9977405630e+01    0.2937926     0.214399  49.59  0.001108132    1.214    0.176
        83  -9.5491    224.9236    202.6346   1.0737299486e+02  -1.1594755097e+00    0.1739433    0.1369037  30.65 0.0004452017    1.128    0.114
        84  -9.9200    166.9528    203.2692   1.1822019335e+02   9.0055827991e+00    0.1838748    0.1468863  43.30  0.000278328    1.091    0.083
        85 -10.1510    169.8470    200.3766   1.1718757493e+02   8.9634591140e+00    0.2088483    0.1977907  23.63 0.0003329597    1.105    0.095
        86  -9.8799    133.1137    202.8870   1.2484935742e+02   1.5088438408e+01    0.1935892    0.1680141  63.02 0.0003179095    1.048    0.046
        87 -11.0815    134.1556    197.7851   1.2389622223e+02   1.5850227907e+01    0.3215145    0.2380397 -73.88 0.0002552299    1.559    0.358
        88 -10.0272     75.3692    203.6054   1.3648544222e+02   2.4093652522e+01    0.3261045    0.2044107  31.55  0.001537301    2.017    0.504
        89  -9.8472    192.0419    198.0062   1.1252761877e+02   5.2994306792e+00     0.214351    0.1757131  46.95            0    1.195    0.163
        90 -10.7312    197.3634    200.8737   1.1203129937e+02   3.8980337289e+00    0.3196121    0.1925155  44.89  0.001685429    1.519    0.342
        91  -9.3229    122.5918    201.0994   1.2671506088e+02   1.7225168980e+01    0.2145632    0.1428824  41.31 0.0006535907    1.408    0.290
        92 -14.5954     27.3085    248.0358   1.4818029814e+02   2.1907304539e+01     1.160286    0.6994469  43.71  0.006836427    1.615    0.381
        93 -10.0109    126.0590    205.8796   1.2667470972e+02   1.5747296061e+01    0.2010331    0.1498925  63.12 0.0004441354    1.251    0.201
        94 -10.0501    100.6587    198.0709   1.3077441846e+02   2.1413105231e+01    0.2272841    0.2037566 -56.41 0.0008390367    1.378    0.274
        95 -10.0961    100.3596    193.8247   1.3029499787e+02   2.2307849224e+01    0.3698403    0.2762343 -12.10  0.001851789    2.744    0.636
        96 -10.4903     83.9201    193.9186   1.3370400140e+02   2.4812400810e+01    0.4374993    0.2653584  46.46  0.001840352    1.498    0.332
        97  -9.2940     86.1742    198.8970   1.3381837453e+02   2.3471390174e+01    0.2843223    0.1473976 -56.32 0.0003767969    2.132    0.531
        98 -12.1123     71.2537    194.1739   1.3632595826e+02   2.6571574468e+01    0.5265298    0.2857691 -61.09  0.002867605    1.902    0.474
        99 -11.9812     75.9327    187.9290   1.3466819958e+02   2.7210581947e+01    0.2894078    0.2544451 -65.91 0.0008596182    1.341    0.254
       100  -9.7964    113.0089    192.0304   1.2742193943e+02   2.0599863891e+01    0.1963182    0.1702818  66.23            0    1.015    0.014
       101  -9.4562    107.3518    195.9338   1.2912617077e+02   2.0760718101e+01     0.201894    0.1469223  87.48 0.0007809484    1.443    0.307
       102  -9.7297    113.4535    196.0783   1.2788944393e+02   1.9726914189e+01    0.3121106    0.1667122  61.06  0.001459192    2.044    0.511
       103 -10.8313     38.6774    192.8357   1.4272116105e+02   3.0946445731e+01    0.2999778    0.1749169 -71.16  0.001847038    1.586    0.370
       104 -10.4713    159.3718    194.0968   1.1822058908e+02   1.1966469293e+01    0.3857376    0.1926978  50.12 0.0009856391    1.900    0.474
       105 -10.5995    120.4816    194.2344   1.2618189471e+02   1.8900869940e+01    0.4121934    0.2279976  52.18  0.002043736    1.651    0.394
       106 -15.6722      6.5228    244.7209   1.5121757232e+02   2.4632015820e+01     2.039838     1.003101 -75.58   0.01455504    1.960    0.490
       107 -10.1642    173.0529    192.7037   1.1526601048e+02   9.6685616059e+00     0.289534    0.2137794 -24.16 0.0009338944    1.676    0.403
       108  -9.8351     47.2397    192.9827   1.4104412601e+02   2.9917767951e+01    0.1642904    0.1357455 -79.69  0.000499968    1.271    0.213
       109 -10.5335    191.4315    191.4602   1.1148143572e+02   6.4500397566e+00    0.2583548    0.2296419  26.09  0.000612871    1.027    0.026
       110  -9.8908    135.5369    189.9529   1.2241793988e+02   1.7086656648e+01    0.2206872    0.1956359  -9.64  0.001061455    1.490    0.329
       111 -11.2008    249.9248    187.8717   1.0039551882e+02  -3.3576280809e+00    0.3284321    0.2018393 -13.40  0.001801652    1.697    0.411
       112 -11.7254    128.7695    233.0746   1.2957451645e+02   1.0605518368e+01    0.4947701    0.2878169 -78.05  0.002523194    2.563    0.610
       113  -9.8914    175.8600    186.9844   1.1370401817e+02   1.0122935469e+01    0.1999432    0.1844996  44.75 0.0003990694    1.052    0.049
       114  -9.2776     67.4657    186.8465   1.3631801549e+02   2.8615350149e+01    0.1786796    0.1370201  44.59   0.00039435    1.376    0.273
       115 -10.3384     44.5342    188.4255   1.4118430889e+02   3.1184996463e+01    0.4121092     0.236501  20.42  0.002062728    3.196    0.687
       116  -9.1473    154.5090    185.4624   1.1775222698e+02   1.4439483033e+01    0.1369356    0.1240299  45.37  9.10841e-05    1.036    0.035
       117 -11.3871    140.9597    183.7417   1.2028100497e+02   1.7295027024e+01    0.4371581    0.2318389  58.25   0.00148679    2.157    0.536
       118  -9.8192    217.4063    183.2091   1.0510497890e+02   2.9395409574e+00     0.221741    0.1681167  37.66 0.0002979355    1.235    0.190
       119 -10.1862    166.0087    241.6324   1.2392376088e+02   3.3034081513e+00    0.3095793     0.150216  32.19  0.001194834    2.139    0.533
       120 -11.1075    249.2859    179.3598   9.8851412288e+01  -2.1189422426e+00    0.4432537    0.2268384 -47.12  0.002012348    2.804    0.643
       121  -9.8883     65.9900    182.0004   1.3609364126e+02   2.9843497987e+01    0.1845613    0.1526739  77.11  0.001205646    1.036    0.035
       122  -9.8445     86.8831    183.4930   1.3180609227e+02   2.6534925838e+01    0.3857066    0.2004077  37.68  0.001879852    2.012    0.503
       123  -9.5495    114.7986    180.0127   1.2527927369e+02   2.2733169498e+01    0.3188056    0.1899366  79.52 0.0008628639    2.457    0.593
       124  -9.5967    115.2756    176.6694   1.2465572470e+02   2.3344827740e+01      0.22865    0.1738558  77.75 0.0006857224    1.365    0.267
       125 -10.9022    104.2569    180.7906   1.2768437171e+02   2.4351875117e+01    0.2313823    0.1958034  70.59 0.0002927667    1.039    0.038
       126  -9.8604    175.5228    179.8053   1.1245852601e+02   1.1445610829e+01    0.3239039    0.1564661  42.22  0.001187275    1.917    0.478
       127  -9.3503     38.0443    184.3105   1.4213873559e+02   3.2792775022e+01    0.1650954    0.1249321  66.10 0.0008212344    1.138    0.121
       128 -10.2865    129.0957    179.5046   1.2210645541e+02   2.0305763775e+01    0.2208306    0.1900537 -67.71   0.00036789    1.215    0.177
       129  -9.5778     48.1673    179.8561   1.3963924814e+02   3.2569300650e+01    0.1802856    0.1289619  69.41 0.0004347726    1.181    0.153
       130  -8.2433     37.4569    180.4661   1.4192560565e+02   3.3672681056e+01    0.1651893   0.09043733  52.03 0.0005420166    1.641    0.391
       131 -10.6339     29.8520    177.3361   1.4322621281e+02   3.5157583602e+01    0.5172242    0.1151637  42.65  0.002082258    3.473    0.712
       132 -10.6191    181.8837    177.1126   1.1067838465e+02   1.0682932837e+01    0.3585221    0.2419263  41.19  0.001834835    1.375    0.273
       133 -11.8758     84.8945    175.8954   1.3124236827e+02   2.8459510586e+01    0.4192106    0.3325153  75.25   0.00162661    1.119    0.106
       134  -9.8795    109.2163    176.4173   1.2594835745e+02   2.4439733019e+01    0.2718372    0.1966801 -89.14 0.0006688876    1.502    0.334
       135  -9.3398     95.4230    175.8810   1.2891384164e+02   2.6827506340e+01    0.1994733    0.1821273  38.17 0.0007099085    1.312    0.238
       136 -10.0427     77.1308    175.6527   1.3292213855e+02   2.9658714477e+01    0.2162915    0.1624215 -88.87 0.0004282071    1.212    0.175
       137 -12.4297     71.2351    174.3337   1.3405548252e+02   3.0782529062e+01    0.3250708    0.2847192  39.50 0.0008604626    1.384    0.277
       138 -11.1700     68.9054    167.8314   1.3375836027e+02   3.2537837926e+01    0.3506241    0.2154799 -62.39 0.0007463545    1.564    0.361
       139 -12.3389    248.2755    171.9045   9.7533739622e+01  -9.2175638607e-01    0.5419058    0.3730021  24.18  0.003087923    1.432    0.302
       140  -9.6824    154.3203    173.0163   1.1557351802e+02   1.6836915845e+01    0.3501463    0.2247995  19.85  0.001315697    2.397    0.583
       141 -11.7321     11.8007    172.1461   1.4652714097e+02   3.8002397436e+01    0.3928104      0.22788 -73.09  0.002525897    1.471    0.320
       142  -9.8228     89.1364    156.8575   1.2748541420e+02   3.2020966083e+01    0.2758906    0.1971428 -23.48 0.0003968268    2.467    0.595
       143 -11.1074     80.6674    163.4998   1.3047810991e+02   3.1822320998e+01    0.2801108    0.2259091  78.17 0.0002101171    1.115    0.103
       144 -10.1389     91.1780    172.5799   1.2938649037e+02   2.8211855113e+01    0.2103873    0.1725269 -52.85 0.0007357963    1.409    0.290
       145 -12.5840     90.4057    167.1870   1.2877642119e+02   2.9514004694e+01    0.6736484    0.6247962  48.66  0.002698967    1.242    0.195
       146  -9.9950     85.1110    165.1848   1.2969623590e+02   3.0777105177e+01    0.2079091    0.1718296  75.76  0.000334468    1.080    0.074
       147 -11.5012     25.3228    164.5266   1.4308986913e+02   3.8386308623e+01     0.507917    0.1888101 -72.53  0.002482545    2.195    0.544
       148 -12.0129     34.0294    159.5651   1.4069968595e+02   3.8604134636e+01    0.4951932    0.3101704  15.51  0.002698505    2.674    0.626
       149 -11.4648     28.2845    169.7690   1.4291187646e+02   3.6948108379e+01    0.4164527    0.3046499 -68.03  0.002803386    1.372    0.271
       150 -12.4321     23.8642    149.3241   1.4200336795e+02   4.1901501777e+01    0.6276581    0.2446088 -82.95  0.002847175    2.460    0.594
       151 -12.9300     23.3362    156.0151   1.4276200351e+02   4.0454909988e+01    0.5957737    0.4153565 -35.77  0.003603753    2.251    0.556
       152  -8.8216    132.6963    171.2882   1.1993193100e+02   2.1315604072e+01    0.1412451    0.1037433  75.27 0.0002550415    1.566    0.361
       153  -8.9186    167.2086    169.9778   1.1229136493e+02   1.4877445348e+01    0.1829207    0.1148949 -45.68   0.00086174    1.701    0.412
       154  -9.1152    100.5269    170.5224   1.2698179132e+02   2.7155103749e+01    0.1372802    0.1194853  76.83 0.0008096127    1.014    0.014
       155 -11.3906     45.0594    169.0957   1.3922289487e+02   3.5275353612e+01    0.4485981    0.2868686  29.63  0.002065607    2.000    0.500
       156  -9.6881    107.1784    168.2597   1.2512343434e+02   2.6528803117e+01    0.1924315     0.177834  59.25 0.0004732939    1.129    0.114
       157  -9.4113     58.5902    167.7150   1.3606770428e+02   3.3932490804e+01    0.1703324    0.1054194 -83.98 0.0003755357    1.498    0.332
       158 -12.4323    249.1590    150.1367   9.2857196615e+01   2.0561128487e+00    0.7538458    0.6174247  44.25  0.004512549    1.348    0.258
       159 -12.5949    244.9558    162.3396   9.6122400643e+01   1.0272297448e+00    0.5884344    0.4092685 -24.51  0.003294676    1.347    0.257
       160 -12.1952    245.3083    156.3407   9.4805316285e+01   1.8436920533e+00     1.119157     0.737963  77.26   0.00466687    3.594    0.722
       161  -9.1721    175.5769    166.4284   1.0986372330e+02   1.3862015397e+01    0.1399677    0.1325075  44.37 4.640665e-05    1.027    0.026
       162 -11.4961     29.1221    156.2850   1.4148208406e+02   3.9836014316e+01    0.3588933    0.2573262 -75.35  0.001467467    1.195    0.163
       163  -8.9524    136.4627    165.5480   1.1806947287e+02   2.1786680437e+01    0.1427549    0.1306204  67.96 0.0001285477    1.024    0.024
       164  -8.8877    124.4573    165.4570   1.2074024833e+02   2.4060672582e+01    0.1418423    0.1280705  72.63  4.66139e-05    1.023    0.023
       165 -10.2708     47.0923    163.3063   1.3815006130e+02   3.6323278793e+01    0.2224919    0.1506224 -85.63  0.000154569    1.263    0.208
       166  -9.9638     37.0740    162.7970   1.4034358513e+02   3.7561757020e+01    0.1897602     0.131918  72.13 0.0006345899    1.260    0.206
       167 -10.4260     32.9025    153.8982   1.4037530935e+02   3.9990975101e+01    0.2361412    0.1635713 -77.83 0.0003707774    1.190    0.159
       168  -9.6380    123.3661    160.8052   1.2015512783e+02   2.5254767485e+01    0.2323045    0.2228207   8.37 0.0009916407    1.256    0.204
       169  -8.9480    119.9664    159.0696   1.2062196571e+02   2.6256095674e+01    0.1769665    0.1689851  -1.84            0    1.288    0.223
       170 -11.1469     96.3018    159.0502   1.2614418036e+02   3.0376762573e+01    0.3554973    0.2600713 -54.65   0.00192125    1.419    0.295
       171 -11.4046     73.5294    158.6847   1.3145666027e+02   3.3945288077e+01    0.4377051    0.3037291 -86.90  0.002417151    1.390    0.281
       172  -9.6465     79.0311    158.9892   1.3020447290e+02   3.3079623177e+01    0.2045057    0.1699936  83.18 0.0003818634    1.063    0.059
       173  -9.3826     52.3770    158.2728   1.3635630784e+02   3.6825718059e+01    0.1632516    0.1413081  81.35 0.0006388696    1.099    0.090
       174  -9.6106     47.2302    157.6841   1.3748009451e+02   3.7570817141e+01    0.1820747    0.1362396 -89.72  0.001131375    1.115    0.103
       175  -9.8114    134.2060    155.8378   1.1674007639e+02   2.4258053304e+01    0.2695234    0.2333195  39.64 0.0006296783    1.197    0.165
       176  -9.7384    132.0650    152.3480   1.1654748775e+02   2.5420164100e+01    0.2443932    0.1947371 -71.44 0.0003560151    1.330    0.248
       177  -8.8413     31.5187    171.5606   1.4238203030e+02   3.6226534854e+01    0.1624671   0.09248392 -89.61 5.222442e-05    1.508    0.337
       178  -9.5309     62.1962    152.8778   1.3333952915e+02   3.6817357190e+01    0.3314642    0.1447655 -71.80 0.0009549664    2.237    0.553
       179 -10.8166     13.8521    154.2197   1.4472249571e+02   4.1702064247e+01    0.1864347    0.1255437  79.45 0.0005391967    1.217    0.178
       180 -10.8753    112.6277    152.3895   1.2111920258e+02   2.9057381541e+01    0.3351059    0.2781039  60.86  0.000560509    1.157    0.135
       181 -10.8648    102.5452    151.1242   1.2330436533e+02   3.1112309778e+01    0.3394623    0.2906333  87.88  0.001274176    1.106    0.096
       182 -10.1309    105.2652    146.3152   1.2176470533e+02   3.1728641054e+01     0.289124    0.2300697 -25.75  0.001480103    1.739    0.425
       183 -10.3360     95.7729    152.6792   1.2520814061e+02   3.1898101888e+01    0.2704708    0.2085381   3.96 0.0008322563    2.132    0.531
       184  -9.8408     91.0742    150.3609   1.2595199760e+02   3.3189013505e+01    0.2422654    0.1843644 -75.05 0.0004162465    1.250    0.200
       185 -10.9981     56.2052    150.3923   1.3444525807e+02   3.8153177320e+01    0.3615975    0.2536911  86.56  0.001319352    1.326    0.246
       186  -9.9159     52.9952    146.2864   1.3467508674e+02   3.9493686402e+01    0.2226855    0.1613065 -72.90  0.000210492    1.193    0.161
       187 -12.7340     74.6236    139.4239   1.2820831356e+02   3.8227476675e+01     1.239817    0.5860894  57.70  0.005084966    2.637    0.621
       188 -10.4921     61.0469    137.3508   1.3135339354e+02   4.0567642788e+01    0.2884247    0.2723017 -25.44  0.001315189    1.379    0.275
       189 -11.5998     59.0484    133.4768   1.3126244936e+02   4.1731360636e+01    0.3669071    0.3005316  47.40  0.001943996    1.327    0.247
       190 -10.4695     67.0051    147.7633   1.3143909706e+02   3.7354462891e+01    0.1905139    0.1859375  49.18 0.0003655285    1.285    0.222
       191 -13.1440     67.1221    143.4351   1.3075413615e+02   3.8342569970e+01     0.819105    0.4827764  70.41  0.003720578    2.009    0.502
       192 -10.3936     46.5743    150.6241   1.3679004723e+02   3.9252621950e+01    0.2918468   0.09822375  39.32  0.001257499    2.889    0.654
       193 -10.8091    134.0000    145.0258   1.1460865412e+02   2.6618277837e+01    0.7366578    0.2080116 -51.48  0.002225348    3.727    0.732
       194 -10.8345    132.9727    140.5751   1.1391031803e+02   2.7790150380e+01    0.4468935    0.3385679 -54.31  0.001620347    1.324    0.245
       195 -12.7590     32.6790    142.5143   1.3917787800e+02   4.2600802162e+01    0.7584476    0.3008951 -66.77  0.003567162    2.037    0.509
       196 -11.9334      2.9293    138.7476   1.4592356056e+02   4.5980126900e+01    0.8994721     0.196927  48.99  0.003546589    4.542    0.780
       197 -12.6348      2.5483    144.8017   1.4649730697e+02   4.4670577165e+01    0.5657098    0.4002995  60.18  0.004001661    1.372    0.271
       198  -9.3870    141.2779    148.0155   1.1354337142e+02   2.4516520855e+01    0.3120297    0.1973031  18.25  0.001189674    2.833    0.647
       199 -10.4079    236.7033    145.9686   9.3994682347e+01   5.0435093526e+00     0.644098    0.2239436  36.37  0.002095937    4.015    0.751
       200 -10.9553    241.9204    130.5392   8.9681387820e+01   6.4380233483e+00     0.627288    0.2984799  29.48  0.002272638    3.403    0.706
       201 -12.3596    248.3532    101.7130   8.1978342683e+01   9.6418946657e+00      1.02633    0.4416259 -31.09  0.004159121    2.174    0.540
       202 -11.5461    247.4828    123.1918   8.7128768855e+01   6.4781163612e+00     0.765211    0.5476816 -85.18  0.003632836    2.379    0.580
       203 -10.2443    249.6020    117.7522   8.5554980109e+01   6.8982325043e+00    0.2695989    0.2205691 -40.80 0.0007263299    1.179    0.152
       204 -11.5303    248.1035    113.0772   8.4692372956e+01   7.9266355586e+00     0.564634    0.4066592  35.74  0.002984678    1.558    0.358
       205 -11.5512    248.0769    141.2276   9.1092699381e+01   3.5922745312e+00    0.8118991    0.2853988  40.39  0.003016217    3.243    0.692
       206 -12.3611    248.2771    134.6487   8.9601507150e+01   4.5554670980e+00    0.8981651    0.5930383 -16.60  0.004564709    1.589    0.371
       207 -10.7074     46.0662    143.0348   1.3595114379e+02   4.1057006331e+01      0.29578    0.1273832  49.66  0.001364816    2.410    0.585
       208 -11.2332     26.7989    140.5517   1.4039005211e+02   4.3616826942e+01     0.351776    0.1880087 -84.26  0.001731453    1.646    0.392
       209 -10.0220    164.0997    139.4598   1.0654484682e+02   2.1501849875e+01    0.2544221    0.2119354 -55.05 0.0003343955    1.248    0.199
       210  -9.3580     53.7077    140.0700   1.3363209887e+02   4.0850144672e+01    0.1962089    0.1518795  81.23 0.0004559549    1.196    0.164
       211 -11.3341     47.7191    138.6175   1.3494320023e+02   4.1893744015e+01    0.4761431    0.2485773  23.74  0.002264252    2.739    0.635
       212 -10.1183    119.5474    137.8878   1.1658442438e+02   3.1014598709e+01    0.3760214    0.2897622  -1.12   0.00174885    2.040    0.510
       213 -11.1077    112.7646    136.3034   1.1793394555e+02   3.2647884944e+01    0.4524406    0.3161027  45.92   0.00160645    1.444    0.308
       214 -12.1964      2.2694    130.6669   1.4538875979e+02   4.7824291353e+01    0.4923877     0.209682 -73.22  0.002681456    1.753    0.430
       215  -8.8805    184.5140    136.4491   1.0152390737e+02   1.7627685252e+01     0.146651    0.1453956  57.49 0.0001790771    1.036    0.035
       216  -9.5476    133.7658    135.4222   1.1259772606e+02   2.8754382086e+01    0.2010439    0.1436222  35.90 0.0005968663    1.532    0.347
       217 -12.5433     45.9264    131.5904   1.3440980140e+02   4.3736386272e+01    0.6327165    0.4026985  59.43  0.002882787    1.661    0.398
       218 -12.4120      2.0782    109.7085   1.4337304173e+02   5.2544064966e+01     1.041701    0.1543963 -75.36  0.002939443    6.346    0.842
       219  -9.2752    106.4620    129.8429   1.1817370202e+02   3.5275527800e+01    0.3308964    0.1494271  55.02  0.001195655    2.772    0.639
       220 -11.4169     66.3084    128.1188   1.2844333872e+02   4.2042510682e+01    0.4839816    0.2860284 -72.06  0.001352867    1.623    0.384
       221 -12.1489     31.8368    126.7784   1.3744362264e+02   4.6316478151e+01    0.3954503    0.2347042  44.79  0.002188606    1.819    0.450
       222 -10.4336    209.7786    125.9095   9.4110836364e+01   1.3975514178e+01    0.2908249     0.234322 -27.97 0.0005907143    1.221    0.181
       223  -9.5022     86.0090    126.6917   1.2289190799e+02   3.9485032518e+01    0.2596614    0.2070218 -18.10  0.001328123    1.785    0.440
       224 -11.9041      9.7912    124.5568   1.4292000476e+02   4.8672450198e+01    0.2626826    0.1547409  38.67 0.0008873302    1.928    0.481
       225 -12.0611     38.3026    124.0663   1.3534218335e+02   4.6310790733e+01    0.4045274     0.286694 -50.28  0.002413142    1.474    0.322
       226 -10.0135    117.8396    128.9564   1.1507968067e+02   3.3350334247e+01    0.2400452    0.1682107 -27.62  0.001064481    1.966    0.491
       227  -9.0493    114.6314    122.8589   1.1451968138e+02   3.5345027377e+01    0.2025092    0.1352134 -63.13 0.0001789389    1.570    0.363
       228  -9.6304     50.3852    122.7302   1.3184886615e+02   4.5309557784e+01    0.2098035    0.1365758  78.88  0.001092465    1.731    0.422
       229  -9.4669    159.7030    126.3433   1.0443944680e+02   2.5141533118e+01    0.1572815     0.121165 -81.72  0.000305731    1.668    0.400
       230  -9.2688    143.4225    121.2377   1.0696313564e+02   2.9794919298e+01    0.2225273    0.1429248 -57.72  0.000945964    1.702    0.412
       231 -10.4670     21.6226    120.1657   1.3930556446e+02   4.8758307511e+01    0.1817616   0.08490653 -62.37  0.000504903    1.713    0.416
       232  -9.4249    238.5781    122.2138   8.8295908494e+01   8.4366554645e+00    0.2037863    0.1277304 -21.99 0.0009483984    1.671    0.402
       233 -11.6112     30.4866    117.5295   1.3653243853e+02   4.8593872589e+01    0.3235472    0.2092793  67.07   0.00161399    1.686    0.407
       234 -11.0341    168.1403    113.4402   9.9332389990e+01   2.5837200435e+01    0.3793125    0.3071413 -75.57 0.0008419315    1.469    0.319
       235  -9.9060     72.9232    115.0418   1.2413097112e+02   4.4200550970e+01    0.2044277    0.1840562 -70.34  0.001217083    1.027    0.026
       236 -11.4738     33.2402    114.9951   1.3539139624e+02   4.8927253288e+01    0.3320997    0.1491291 -66.41  0.001618117    1.792    0.442
       237  -9.2704    134.3212    114.3312   1.0745456758e+02   3.3242151242e+01     0.154724    0.1242356  -3.07  0.000704921    1.696    0.410
       238  -9.0316     82.1577    114.3765   1.2138383706e+02   4.2972199579e+01    0.1862935    0.1269386  53.28 0.0001439073    1.600    0.375
       239  -9.1725    203.4800    111.4843   9.1716880636e+01   1.7962649287e+01    0.1505932    0.1439581 -10.09 0.0008095847    1.052    0.050
       240 -10.1184     69.9830    111.3224   1.2420003670e+02   4.5491389604e+01    0.1823637    0.1698256  66.79 0.0002994662    1.150    0.131
       241 -10.9955     55.9631    110.6793   1.2813427807e+02   4.7482763563e+01    0.3223643    0.2156991 -14.91  0.001543173    2.533    0.605
       242 -11.2467     62.4776    106.5511   1.2539579297e+02   4.7626930504e+01    0.3370288    0.1416007 -53.64  0.001430947    2.054    0.513
       243 -10.3018    134.5621    105.2328   1.0502443107e+02   3.5147702962e+01    0.3848191    0.1485345 -42.31  0.001294358    2.598    0.615
       244 -10.2195     28.5304    106.3224   1.3540436634e+02   5.1373752033e+01     0.179291    0.1173351  27.94 0.0001847503    1.885    0.469
       245  -9.0487    112.4759    104.4905   1.1059049980e+02   3.9892229078e+01    0.1496502    0.1422863 -61.21   0.00081011    1.009    0.009
       246  -8.8427     42.6769    103.7185   1.3075234093e+02   5.0619925366e+01    0.1268461   0.08865687 -39.52 0.0002892715    1.592    0.372
       247  -9.5101     35.9516    102.4858   1.3255528271e+02   5.1582323268e+01    0.1539981    0.1286198  29.64 0.0003370545    1.464    0.317
       248 -10.1258     62.9675     99.8999   1.2381436531e+02   4.9111406315e+01    0.2426269     0.177277 -57.53 0.0006574829    1.194    0.163
       249  -8.8671    136.6967     94.3029   1.0147015762e+02   3.6969454023e+01    0.1554587    0.1220773 -81.56  0.000251551    1.594    0.373
       250  -9.3953     44.7949     90.3540   1.2741426693e+02   5.3485374917e+01    0.1552448    0.1241793   4.94 0.0002933986    1.607    0.378
       251 -11.1227      1.5669     87.8895   1.4082881284e+02   5.7471287215e+01    0.3670374   0.08120385 -70.02   0.00144452    3.170    0.684
       252  -8.9260    101.9882     88.0193   1.0902459880e+02   4.5523600781e+01    0.1724997    0.1602747 -48.75            0    1.014    0.014
       253  -8.4204     64.3049     76.7053   1.1757153216e+02   5.4161602301e+01    0.1290282     0.104033  88.53 0.0005689011    1.581    0.367
       254 -11.1692    222.4743    245.0038   1.1468100454e+02  -5.9800184439e+00     0.303333     0.113722  32.74  0.001457089    2.427    0.588
       255  -8.7784    199.5218    245.5203   1.1861933330e+02  -2.5352033990e+00    0.1159188   0.09080023  34.07 7.575211e-05    1.047    0.045
       256 -12.5824    248.9216    239.9416   1.0959996000e+02  -9.2812425796e+00    0.5212763    0.3607908 -10.52  0.003705836    1.409    0.290
