#   1 NUMBER                 Running object number                                     
#   2 MAG_AUTO               Kron-like elliptical aperture magnitude                    [mag]
#   3 X_IMAGE                Object position along x                                    [pixel]
#   4 Y_IMAGE                Object position along y                                    [pixel]
#   5 X_WORLD                Barycenter position along world x axis                     [deg]
#   6 Y_WORLD                Barycenter position along world y axis                     [deg]
#   7 A_WORLD                Profile RMS along major axis (world units)                 [deg]
#   8 B_WORLD                Profile RMS along minor axis (world units)                 [deg]
#   9 THETA_WORLD            Position angle (CCW/world-x)                               [deg]
#  10 FWHM_WORLD             FWHM assuming a gaussian core                              [deg]
#  11 ELONGATION             A_IMAGE/B_IMAGE                                           
#  12 ELLIPTICITY            1 - B_IMAGE/A_IMAGE                                       
         1  -8.2627     80.4728     12.3562   8.0108789428e+01   6.2275168562e+01    0.2735998    0.1947431 -54.75  0.001000383    1.951    0.487
         2  -7.8040    143.1769     10.5441   6.3279586291e+01   4.8398193547e+01    0.3130146    0.1660439  25.68  0.001216757    2.369    0.578
         3  -8.9152    225.2607    248.9034   1.0398428843e+02  -1.3230166693e+00     0.187009    0.1459008  74.59   0.00131467    2.717    0.632
         4  -9.9074    187.9188    244.2515   1.0901885469e+02   4.5474248389e+00    0.2292992    0.1313852  42.86  0.001600112    1.251    0.200
         5 -10.6728    194.7563    248.5725   1.0848015119e+02   3.1208797883e+00    0.5434127    0.2275682  36.37  0.003234481    1.873    0.466
         6  -9.7754    167.9576    248.5854   1.1254877107e+02   7.0332595341e+00    0.3190091    0.1535664 -46.58  0.002081339    2.958    0.662
         7  -8.6503    163.6745    250.2415   1.1337295984e+02   7.4775974858e+00    0.1929546    0.1067813  28.86 0.0007401496    2.049    0.512
         8  -8.1107    142.9937    250.0100   1.1650259384e+02   1.0456552148e+01    0.1236119   0.08857837  48.18 0.0004144892    1.020    0.019
         9  -8.4905    175.2417    249.5839   1.1154558989e+02   5.8697409263e+00    0.1501917   0.07135821  38.08 0.0009459499    1.610    0.379
        10  -8.8916    217.8305    248.2063   1.0499103402e+02  -1.9931481455e-01    0.1436038   0.09058344  25.77  0.001062356    1.332    0.249
        11 -10.0007    205.0965    249.1762   1.0700037576e+02   1.5583525188e+00    0.3309545    0.1115254  41.21  0.001299114    2.074    0.518
        12  -8.9972    154.4319    246.1413   1.1437332519e+02   9.2619445160e+00    0.2059481   0.08885629  54.48  0.001158509    2.267    0.559
        13 -11.2765    244.8208    239.7820   9.9933443354e+01  -3.3769684836e+00    0.2878645    0.2152155  34.15 0.0007357066    1.244    0.196
        14  -8.1176    185.3021    240.3291   1.0896509862e+02   5.3348225176e+00      0.10409   0.06675899  24.19 0.0007033237    1.647    0.393
        15  -8.1307    143.2271    238.0162   1.1530748349e+02   1.1837194276e+01    0.2139914    0.1114396  29.05  0.001190487    2.626    0.619
        16  -9.4601      9.8981    235.8288   1.3551512786e+02   2.8208400983e+01    0.1730824    0.1305375  89.45 0.0009431958    1.436    0.304
        17  -9.8755    188.7692    234.2390   1.0769582856e+02   5.4431491830e+00    0.2269908    0.2016101  87.54  0.001635752    1.671    0.402
        18  -9.6880    179.8482    242.9149   1.1010537976e+02   5.8806020670e+00    0.2404816    0.1535685  27.39 0.0008545023    1.564    0.361
        19  -6.7858    222.5674    234.4411   1.0251139549e+02   3.1091152295e-01    0.1099743   0.07434583  28.72 0.0001405793    1.122    0.109
        20  -9.6417    176.0540    242.4435   1.1063830111e+02   6.4934885293e+00    0.1898245    0.1432935  -1.70  0.001061933    1.872    0.466
        21 -11.0191    105.8871    219.4688   1.1959156714e+02   1.9649157512e+01    0.4363241     0.355335  45.65  0.003466613    1.259    0.206
        22 -11.0711    104.5314    227.7214   1.2055025612e+02   1.8657448025e+01    0.6913923    0.4625157  21.83  0.004371087    2.615    0.618
        23  -7.5872     83.3181    231.3305   1.2423659541e+02   2.0923572249e+01   0.08440321   0.07561667  28.65 0.0004307659    1.687    0.407
        24  -9.1917     90.1916    231.1098   1.2313025851e+02   2.0079445884e+01    0.2168995    0.1213634 -88.44  0.001458195    2.183    0.542
        25  -7.8103    135.6548    227.6774   1.1547412303e+02   1.4246930150e+01    0.1019195   0.07524694  24.49  0.000705005    1.735    0.424
        26  -8.0730    123.1473    221.8445   1.1694287874e+02   1.6860611121e+01    0.2041885    0.1361295  23.10  0.001271638    2.285    0.562
        27  -7.2268    217.9974    221.7646   1.0146861383e+02   2.1922032179e+00     0.143251   0.07102636  41.42  0.000468674    1.525    0.344
        28  -8.0801     86.1738    220.3874   1.2294083465e+02   2.2156174217e+01    0.1570448    0.0681298  51.18 0.0009467708    1.751    0.429
        29  -8.7168    157.4989    217.9195   1.1077158582e+02   1.2186455491e+01    0.2046369    0.1616747  46.75 0.0006357053    1.038    0.037
        30  -7.7184     56.0065    216.7887   1.2761713839e+02   2.6377974957e+01    0.1338928   0.09349308  63.24            0    1.027    0.026
        31  -9.9308    104.3480    212.0171   1.1915229707e+02   2.0965963523e+01    0.4933367    0.1536151  49.16   0.00239083    2.556    0.609
        32  -9.6351    124.5830    208.1408   1.1525737173e+02   1.8604502986e+01    0.3477796    0.2804034  81.50  0.002586232    1.324    0.245
        33  -7.2720    195.5884    207.7836   1.0306900488e+02   7.2730119522e+00    0.1265447    0.1119846 -52.16 0.0003994648    1.574    0.365
        34  -6.9787    158.6863    203.2583   1.0871477435e+02   1.3930517385e+01    0.1122966   0.07764159  61.36 0.0001880299    1.532    0.347
        35  -8.9915    102.6289    201.8702   1.1845059424e+02   2.2773438266e+01    0.1523102    0.1229528  48.65   0.00112854    1.191    0.160
        36  -7.0598    165.6735    200.6297   1.0714147397e+02   1.3134325929e+01    0.1178343    0.0835091  17.21 0.0007032767    1.816    0.449
        37  -7.4968    243.4215    180.6415   9.0864957777e+01   2.2117778700e+00    0.2108423   0.09362734 -41.44 0.0009640168    3.377    0.704
        38  -8.3595    249.1643    161.8855   8.6459255018e+01   3.2159753940e+00    0.1742887     0.156998   9.67 0.0004643073    1.226    0.184
        39  -8.2184    105.9997    159.9944   1.1277539114e+02   2.9454745390e+01    0.1748887    0.1531405  67.21  0.001177206    1.023    0.022
        40  -8.6240    250.0520    156.8096   8.5323002395e+01   3.6138437343e+00    0.1972516    0.1582141  -3.00 0.0003147985    1.148    0.129
        41  -8.5097    249.9826    152.0033   8.4370039120e+01   4.1598445453e+00    0.1955322    0.1600342  14.28 0.0005015942    1.011    0.011
        42  -8.5053    218.3534    150.3624   8.9221019075e+01   1.0307142563e+01    0.2415888    0.2288041  79.45 0.0009858801    1.419    0.295
        43  -7.7793     68.9811    145.4676   1.1874244022e+02   3.7519326748e+01    0.1721092     0.107222  43.96 0.0009103834    1.572    0.364
        44  -7.1794    104.3327    144.7654   1.1085631902e+02   3.2598797532e+01    0.1265904    0.0866868  67.01 0.0002298982    1.533    0.348
        45  -7.9111    237.6795    132.0302   8.2107246299e+01   8.8585781423e+00    0.1819234    0.1559515   3.82 0.0005311011    1.051    0.049
        46  -7.6805      2.4698     89.4813   1.2858419192e+02   5.5511712029e+01      0.11013   0.08217986 -77.15 0.0008090687    1.052    0.049
        47  -7.5833    177.4772     86.1747   8.1647464068e+01   2.8880262727e+01    0.2040251    0.1471209 -31.44 0.0003404858    1.396    0.284
        48  -7.1439    140.1779     86.6312   8.9953341100e+01   3.7310078264e+01    0.1899542    0.1346181  37.59 0.0001022345    1.487    0.327
        49  -7.6458    184.5161     78.0526   7.7981154800e+01   2.8498962735e+01    0.2289501    0.1469865 -31.54 0.0005187804    1.550    0.355
        50  -8.9975    233.3671     76.8392   6.9402464558e+01   1.6959268121e+01    0.2555656    0.2324606  33.36 0.0002771365    1.106    0.096
        51  -7.1261    110.3161     69.7006   9.2697358824e+01   4.6700290371e+01    0.1408316    0.1128312 -83.12  0.000272889    1.613    0.380
        52  -8.0801      9.0000     65.9931   1.2365299500e+02   6.0148754185e+01      0.19176   0.05005758 -70.48 0.0007988575    2.918    0.657
        53  -8.3921     94.8763     52.4242   9.1628895328e+01   5.2923151600e+01    0.2457322    0.1816356 -55.15 0.0006511539    1.449    0.310
        54  -9.5812    131.7765     47.2037   7.9656056033e+01   4.6201485776e+01    0.2622443    0.2416601 -34.31 0.0002824373    1.089    0.081
        55  -7.5938      9.3223     45.6909   1.1990432442e+02   6.4455159469e+01    0.1079812   0.07704836  79.45 0.0004617579    1.647    0.393
        56  -7.5927     91.5264     36.4812   8.6874183863e+01   5.6427054222e+01    0.2487611    0.1180704 -47.43 0.0006816905    2.272    0.560
        57  -7.6038     52.4963     36.5252   1.0052097558e+02   6.2477541963e+01    0.1281539    0.1061527 -37.51 -5.347365e-05    1.029    0.028
        58  -8.9285    227.2635     28.2191   5.6779128120e+01   2.4371221001e+01     0.386007    0.2496526 -21.74  0.001185051    1.504    0.335
        59  -8.5579     77.8516     29.3102   8.8499391612e+01   6.0083380171e+01    0.3532299    0.1645997 -26.31  0.001296716    2.693    0.629
        60  -8.4709     79.3504     22.8471   8.5256351373e+01   6.0895254640e+01    0.2127439    0.1559207 -43.21 0.0008473417    1.395    0.283
        61  -7.5555      3.5576     23.5089   1.1701691886e+02   6.9346564603e+01    0.1126544   0.08281787 -55.67 0.0002331727    1.008    0.008
        62  -8.8193     84.7217     21.4744   8.2862972189e+01   6.0143260995e+01    0.2567737    0.2409364 -37.99 0.0005700868    1.214    0.177
        63  -7.2286     50.3532     21.2247   9.5440115650e+01   6.5597300285e+01     0.172481    0.1024487 -49.53 0.0003942428    1.627    0.385
        64  -9.2276     75.1717     17.9009   8.4500360890e+01   6.2400984006e+01    0.2790669    0.2094537 -31.57 0.0004916909    1.203    0.169
        65  -8.0032    230.6788    249.3696   1.0325207758e+02  -2.1301607480e+00   0.09017911   0.07188827  55.13 0.0007035302    1.798    0.444
