#   1 NUMBER                 Running object number                                     
#   2 MAG_AUTO               Kron-like elliptical aperture magnitude                    [mag]
#   3 X_IMAGE                Object position along x                                    [pixel]
#   4 Y_IMAGE                Object position along y                                    [pixel]
#   5 X_WORLD                Barycenter position along world x axis                     [deg]
#   6 Y_WORLD                Barycenter position along world y axis                     [deg]
#   7 A_WORLD                Profile RMS along major axis (world units)                 [deg]
#   8 B_WORLD                Profile RMS along minor axis (world units)                 [deg]
#   9 THETA_WORLD            Position angle (CCW/world-x)                               [deg]
#  10 FWHM_WORLD             FWHM assuming a gaussian core                              [deg]
#  11 ELONGATION             A_IMAGE/B_IMAGE                                           
#  12 ELLIPTICITY            1 - B_IMAGE/A_IMAGE                                       
         1 -12.7200     72.2178      9.1180   7.3832732646e+00   6.5690955083e+01     0.542501    0.2058871 -26.32  0.001914102    2.850    0.649
         2 -11.1740     78.5100      6.5329   4.2556773505e+00   6.4392859838e+01    0.1372251    0.1199527  57.68 6.203337e-05    1.028    0.027
         3 -13.2442     36.7915      4.7936   1.9501273477e+01   7.4093136402e+01    0.2682717    0.2416822  33.80 0.0006882349    1.084    0.078
         4 -11.1038     92.4375      8.0512   1.7384276391e+00   6.0735388295e+01    0.1922906    0.1368354 -22.76  0.001023494    1.587    0.370
         5 -10.8128     25.3744      1.7608   2.4599311324e+01   7.6620027234e+01    0.1596997    0.1124067 -15.26 0.0003819026    1.497    0.332
         6 -10.4062    114.3086      1.6924   3.5529757884e+02   5.5643976206e+01     0.140873   0.08951028 -64.67 0.0004970689    1.614    0.380
         7 -11.2222    178.5130    247.1751   4.2893123587e+01   1.4917527660e+00    0.1762988    0.1176412   2.59 0.0004167689    1.271    0.213
         8 -12.4817    238.3238    250.4780   3.3185199893e+01  -4.7816206147e+00    0.1863878   0.09861568  21.09  0.001330682    1.642    0.391
         9 -10.5593    170.8394    250.3967   4.4753809805e+01   1.8970121021e+00     0.149447   0.08477522  15.20 0.0003548397    1.492    0.330
        10 -12.5114    140.1142    248.8479   5.0627200427e+01   5.5928078309e+00    0.3128695    0.2864431  61.74  0.002311602    1.577    0.366
        11 -11.6129    143.6112    242.8128   4.9187037571e+01   6.0956244460e+00       0.2919    0.1980619 -25.36  0.001845493    1.604    0.377
        12 -10.8882    125.0653    249.4973   5.3823178174e+01   7.2493931028e+00     0.164108    0.1469676   5.65 0.0005212301    1.182    0.154
        13 -11.6735    114.5166    248.7463   5.5980987706e+01   8.6061208081e+00    0.2641019    0.2129152  64.44   0.00135863    1.657    0.396
        14 -10.9136    106.6712    250.7476   5.7866587115e+01   9.1984535926e+00    0.2353224   0.07917089  30.00   0.00106096    2.251    0.556
        15 -12.9307     36.7579    247.8334   7.3026320967e+01   1.7372024807e+01    0.9817546    0.3864977  81.01  0.004419408    3.562    0.719
        16 -13.5613     29.9269    247.9094   7.4526243861e+01   1.8020366097e+01    0.7650473    0.7395853  -6.09  0.005966509    1.366    0.268
        17 -13.5161     24.6970    242.0943   7.5429257205e+01   1.9610831201e+01    0.6330056    0.3706147   9.19  0.003523503    2.140    0.533
        18 -14.6135     15.7553    228.6814   7.6920070332e+01   2.3074892593e+01     1.306661     0.665139  86.18  0.007186569    2.057    0.514
        19 -13.0058     13.8882    244.0948   7.7873303820e+01   2.0209885252e+01    0.4484331    0.1939569  44.77  0.001477606    1.649    0.394
        20 -13.5599     17.4030    237.6414   7.6878507795e+01   2.1140495618e+01    0.3069258    0.2581283  50.42 0.0007735346    1.108    0.098
        21 -14.5890      5.1550    234.9944   7.9516922552e+01   2.2719766729e+01    0.5739597    0.4594647  38.72  0.004044132    1.144    0.126
        22 -13.1371      1.4686    250.0682   8.0671438739e+01   2.0148471353e+01    0.1702956    0.1063695  61.83 0.0006895016    1.332    0.249
        23 -15.0524      5.1217    246.8903   7.9831482591e+01   2.0435735398e+01    0.8665084    0.3161964  40.53  0.003422059    1.812    0.448
        24 -13.8485      8.9542    240.9575   7.8849808443e+01   2.1237396389e+01    0.3258711    0.2198781  46.29 0.0008806149    1.102    0.092
        25 -13.0165     12.0241    238.0417   7.8087490433e+01   2.1537656508e+01    0.2108297    0.1441732  44.38 0.0006328767    1.101    0.091
        26 -11.2770     99.5821    246.8291   5.9025637168e+01   1.0676879860e+01    0.2054964     0.137694  19.41 0.0005063739    1.310    0.236
        27 -11.1944    246.3455    245.2151   3.1243263307e+01  -4.9087111478e+00    0.1202008   0.07504968 -29.42 0.0002327188    1.562    0.360
        28 -11.2412    131.8718    244.5035   5.1830349176e+01   7.2282222197e+00    0.2297456    0.1610779  52.66  0.001396361    1.888    0.470
        29 -11.2485    127.9331    242.9919   5.2488010062e+01   7.9381146731e+00    0.2610674    0.1193693  43.54 0.0006992048    2.354    0.575
        30 -11.4870    206.7781    244.2473   3.7436688711e+01  -1.1010248296e+00    0.2709124    0.1158361  31.02  0.001459946    2.166    0.538
        31 -11.5451    222.7984    242.9505   3.4584556666e+01  -2.5192830241e+00    0.1699954    0.1155396   8.87  0.000311495    1.162    0.139
        32 -12.0233    117.4690    241.4938   5.4567722131e+01   9.4417966440e+00      0.23127    0.2036507  -2.82 0.0007726324    1.191    0.160
        33 -10.8631     94.2921    242.9962   5.9829276925e+01   1.1957407147e+01     0.161936    0.1435869  34.17 0.0005512933    1.128    0.113
        34 -11.3215     53.1566    243.1068   6.9104287245e+01   1.6574737727e+01    0.4019775       0.1275  19.88  0.001249153    3.908    0.744
        35 -10.4727     75.9720    242.7328   6.3919471047e+01   1.4130491910e+01    0.1500819   0.08763883  28.53  0.000341688    1.378    0.274
        36 -12.4561     67.6804    240.5022   6.5624216296e+01   1.5476458655e+01    0.4218696    0.2135389  27.44  0.002020973    1.622    0.384
        37 -12.2250     69.9159    234.8345   6.4660799442e+01   1.6289163168e+01    0.4620558    0.2801396  -0.14  0.001494558    2.383    0.580
        38 -11.2424     73.0794    229.1807   6.3440720799e+01   1.7011115358e+01    0.2186863    0.1792293  73.47 0.0007582724    1.364    0.267
        39 -10.5503    184.5767    240.2011   4.0829470966e+01   1.7633609995e+00    0.1583629   0.08916863 -24.89 0.0009559204    1.761    0.432
        40 -10.5619    179.9148    240.7684   4.1774353723e+01   2.2025335075e+00    0.1502021   0.07766157  23.73 0.0008699958    1.619    0.382
        41 -11.0265    207.9828    236.4816   3.6136254088e+01  -2.5684825581e-01    0.1586052   0.08857342  22.16 0.0004700657    1.547    0.353
        42 -10.9178    137.8182    236.1294   4.9569649156e+01   7.8398416987e+00     0.177807    0.1435845  33.90 0.0005594284    1.255    0.203
        43 -12.1047    165.6305    234.3222   4.3642428113e+01   4.7594416033e+00    0.2305257    0.1720508  23.26 0.0002245914    1.191    0.160
        44 -11.6831    158.4307    233.4422   4.4959265354e+01   5.7514095295e+00    0.1997681     0.163672   5.00 0.0004593446    1.057    0.054
        45 -11.5380    101.0356    233.9879   5.7410613509e+01   1.2742078591e+01    0.2059943    0.1249796  47.94  0.001129558    1.685    0.406
        46 -10.8134     51.4942    234.0123   6.8890488253e+01   1.8490692721e+01    0.1552807   0.09147491 -41.64 0.0005605386    2.400    0.583
        47 -12.7949     34.1196    223.1263   7.2333020914e+01   2.2490795088e+01    0.7365113    0.2477378  21.20  0.002941674    3.051    0.672
        48 -13.0437     35.6009    230.1901   7.2373729404e+01   2.0896382508e+01    0.3975194    0.2601998 -76.25 0.0008864137    1.731    0.422
        49 -12.9686     38.8375    226.0298   7.1371024196e+01   2.1415377028e+01    0.2796167    0.2365617  -5.16  0.001827914    1.485    0.326
        50 -10.2790    243.4215    233.4509   2.9999230054e+01  -3.3510289186e+00    0.1028231    0.0720768  -7.73 0.0001154881    1.041    0.039
        51 -11.6847     57.0828    231.6743   6.7418477685e+01   1.8342346251e+01     0.365379    0.2003256 -63.79   0.00199469    2.125    0.529
        52 -11.8741     25.6214    230.7924   7.4728741626e+01   2.1743816049e+01    0.5087387    0.1426441 -79.84  0.002044849    4.021    0.751
        53 -11.3164     28.9679    226.4744   7.3739168103e+01   2.2303217247e+01    0.2968794    0.0923423  28.43  0.001276374    2.482    0.597
        54 -12.8887    147.9661    224.2642   4.5868228067e+01   8.4975182587e+00    0.2765088    0.2198406  23.18 0.0004191296    1.114    0.103
        55 -11.6596    153.5260    231.4674   4.5691110714e+01   6.6513841125e+00    0.2371262    0.1544962 -19.20 0.0009289432    1.650    0.394
        56 -11.9566    150.0759    229.1036   4.6085509806e+01   7.4498572400e+00    0.3132831    0.2272042  30.33 0.0009589709    1.262    0.208
        57 -11.2039    216.6062    231.1712   3.3908578024e+01  -4.7913143556e-01    0.1661762    0.1217725  15.67 0.0005613828    1.272    0.214
        58 -10.6612    181.6401    231.2122   4.0119624612e+01   3.3366252547e+00    0.1524074   0.09271203 -26.08 0.0003725443    1.598    0.374
        59 -11.8111     61.6494    230.2124   6.6231272306e+01   1.8121997967e+01    0.3279202    0.1938603 -75.15  0.001819645    2.020    0.505
        60 -12.3196    194.4703    228.4864   3.7356517561e+01   2.2545224390e+00    0.2743373    0.1938799 -22.10  0.001011982    1.285    0.222
        61 -11.0838    138.3020    227.6829   4.8387476305e+01   9.1609025759e+00    0.1886285    0.1554421 -63.31 0.0007796388    1.676    0.403
        62 -12.7180    105.5720    226.5804   5.5561886439e+01   1.3523829584e+01    0.3114122    0.2850728 -20.88  0.001424103    1.231    0.187
        63 -12.6219     80.9540    226.8169   6.1357598038e+01   1.6533566394e+01     0.394881    0.2549501  42.30  0.002252923    1.335    0.251
        64 -12.9423     19.2368    204.0889   7.5014178540e+01   2.8041219543e+01     0.648287    0.3309547   1.17  0.002796468    3.101    0.678
        65 -13.9068     21.4282    196.4735   7.4046745598e+01   2.9587774050e+01    0.6961355    0.4913978   7.93  0.003420006    1.683    0.406
        66 -13.1404     22.6183    215.4569   7.4723123211e+01   2.5223636246e+01    0.5857627    0.5138659  62.00  0.003389925    1.113    0.102
        67 -14.5791     24.2789    187.0327   7.2716698834e+01   3.1559904574e+01    0.9704845    0.7846608  38.44  0.003767772    1.140    0.123
        68 -12.6872     32.6211    183.4331   7.0127649738e+01   3.1627368634e+01     0.420009     0.195766  49.83 0.0008469474    1.935    0.483
        69 -12.6094     12.6478    216.6215   7.7194605864e+01   2.5864984338e+01    0.5340212    0.3833052  27.58   0.00304899    1.320    0.243
        70 -12.9955     14.0889    209.9375   7.6575872042e+01   2.7191596329e+01    0.6014731    0.3256459  14.53  0.001606852    2.075    0.518
        71 -11.5694      1.7734    226.9147   8.0061297627e+01   2.4617909869e+01    0.1947481    0.1624775 -82.35 0.0006381005    1.383    0.277
        72 -12.9359     13.5148    194.7940   7.6054483079e+01   3.0673892898e+01    0.2853494    0.2678856  42.73 0.0005906364    1.177    0.150
        73 -13.7938     10.1456    190.3598   7.6748486052e+01   3.1994152220e+01     1.001975    0.4736723  -0.87   0.00403283    3.518    0.716
        74 -14.0908      2.1450    218.8262   7.9760243204e+01   2.6266690481e+01    0.7879894    0.3891394 -80.93  0.003357788    2.099    0.523
        75 -12.9715      4.6786    207.0888   7.8796693589e+01   2.8603024670e+01     0.302029    0.2503188  87.48  0.001041903    1.243    0.195
        76 -14.2662      3.1391    201.7534   7.9005091110e+01   2.9916916711e+01    0.7843761    0.6695422 -63.92  0.003038265    1.404    0.288
        77 -13.2198    115.7377    224.0127   5.2926329165e+01   1.2692779614e+01      0.46883    0.2988141 -77.73  0.002392069    2.580    0.612
        78 -11.5477     92.0314    224.2890   5.8476279991e+01   1.5660380399e+01    0.1911075    0.1876574 -55.92 0.0006822476    1.215    0.177
        79 -13.0201    160.8717    222.6775   4.2968085309e+01   7.1189505774e+00    0.3922556    0.2343276  34.72  0.002246805    1.588    0.370
        80 -11.5650    101.0706    224.0518   5.6322282674e+01   1.4565856115e+01    0.1971704    0.1632811  29.29 0.0003529689    1.015    0.015
        81 -12.2502     52.5901    223.7342   6.7911567129e+01   2.0430853602e+01    0.3718258    0.1860991 -71.88  0.001887944    2.280    0.561
        82 -13.5684     50.1642    215.9879   6.7933394026e+01   2.2315650577e+01    0.8293206    0.3028294 -60.44  0.003589366    2.964    0.663
        83 -11.1465     53.0166    215.7947   6.7207310652e+01   2.2041221821e+01    0.2302131    0.1682106  30.22 0.0006728353    1.207    0.171
        84 -13.0202    124.5103    221.9028   5.0672930889e+01   1.1933667973e+01    0.3827829    0.2477948  35.80  0.001370112    1.373    0.272
        85 -13.6673    128.5964    215.3394   4.8881861446e+01   1.2574232514e+01    0.6129565    0.3741729  42.03  0.003269305    1.637    0.389
        86 -12.7283    173.5358    220.4189   4.0107312414e+01   5.8906325327e+00    0.2779526    0.2035227 -28.23 0.0007389035    1.345    0.257
        87 -11.8503    240.0124    220.6705   2.8609831126e+01  -1.5366740609e+00    0.1499737    0.1080778   0.90 0.0006211242    1.124    0.111
        88 -12.0035     27.7109    220.3298   7.3727194988e+01   2.3703596133e+01    0.2729144    0.2228437  74.74  0.001137117    1.211    0.174
        89 -12.4516     29.9807    215.8844   7.2935675816e+01   2.4431549595e+01    0.4500202     0.255008  33.58  0.002339094    1.452    0.311
        90 -10.9668    246.6702    220.6960   2.7618113615e+01  -2.1799107541e+00     0.109437   0.06047667  -6.80 0.0007035753    1.653    0.395
        91 -10.5121    197.1888    219.8557   3.5576012275e+01   3.1406642722e+00    0.1588112    0.1080159  -6.66 0.0004020641    1.289    0.224
        92 -11.9655    193.7099    217.0137   3.5771367460e+01   3.9511422388e+00    0.3272578    0.1504354 -39.20   0.00154481    2.147    0.534
        93 -11.9596    194.0479    211.9657   3.4923855335e+01   4.6419458703e+00    0.1937954    0.1448631 -23.08 0.0003977502    1.218    0.179
        94 -11.5940    190.0854    220.1296   3.6913045435e+01   3.9322503849e+00    0.1762984    0.1370875  -1.29 0.0004609787    1.017    0.017
        95 -12.4828     76.7672    219.1535   6.1628151161e+01   1.8562338567e+01     0.410225    0.1989701  27.03 4.708217e-05    1.798    0.444
        96 -12.4007    145.5468    216.4464   4.5288269237e+01   1.0119999278e+01    0.3341857    0.3177105  67.12  0.001708619    1.436    0.303
        97 -11.8405    141.5104    212.5125   4.5602204485e+01   1.1341359571e+01    0.2545543    0.1867683  35.70  0.001002624    1.316    0.240
        98 -12.2162    140.2185    208.6173   4.5320101230e+01   1.2210024015e+01     0.343547    0.2508852 -79.78  0.001798143    2.383    0.580
        99 -11.8581     92.7424    217.1804   5.7534518936e+01   1.6957508297e+01    0.3285205    0.1760636  31.38   0.00112776    1.558    0.358
       100 -11.7543     65.9983    216.6055   6.4043217081e+01   2.0379753984e+01    0.3386062    0.2089016 -47.86  0.001656711    1.975    0.494
       101 -11.1957    161.1824    216.4225   4.1992980659e+01   8.0796123291e+00    0.1993604    0.1459579 -24.01 0.0004263158    1.349    0.259
       102 -10.8375    138.4767    217.5336   4.6980112709e+01   1.0867475827e+01    0.1285807    0.1073972  14.09 7.634698e-05    1.009    0.008
       103 -10.3508    226.2969    216.3348   3.0081408686e+01   3.9221552777e-01    0.1155394   0.06640705  -8.52 0.0003853404    1.648    0.393
       104 -11.0645    250.5844    215.5007   2.6252986956e+01  -1.9398136553e+00    0.1050297   0.07400888 -12.55 -0.0006730205    1.034    0.033
       105 -12.3670    107.8491    213.7063   5.3493189582e+01   1.5661591530e+01     0.342495      0.24225 -59.41  0.001931288    1.673    0.402
       106 -11.6833     84.8390    214.5388   5.9174957496e+01   1.8496746328e+01    0.4011814    0.1885232  37.50  0.001882773    1.763    0.433
       107 -12.0956    156.6341    213.8155   4.2548536974e+01   9.1004297202e+00    0.2224015    0.1859778  36.60 0.0003863612    1.346    0.257
       108 -12.5048    119.6917    213.7048   5.0705232754e+01   1.4073267342e+01    0.3593539    0.1566595  40.77   0.00159231    2.159    0.537
       109 -10.9628    242.6839    213.3138   2.7075189754e+01  -9.0868407838e-01    0.0892273   0.07916947 -23.11 0.0005464277    1.644    0.392
       110 -10.4834     77.3253    213.6816   6.0946600784e+01   1.9616173772e+01    0.1404731   0.08577854  53.58 0.0002844443    1.675    0.403
       111 -11.8911     34.1150    200.3555   7.0930514990e+01   2.7471937432e+01    0.2648798    0.1977998  76.64 0.0005664566    1.309    0.236
       112 -12.8886     36.3706    195.9955   7.0024978825e+01   2.8249617600e+01    0.6821211    0.2341566  33.29  0.002822381    2.281    0.562
       113 -12.9491     37.5654    207.8543   7.0538267083e+01   2.5427749846e+01    0.4192514    0.3808296 -18.41 0.0006842273    1.373    0.272
       114 -11.8128     36.2836    204.3279   7.0631378980e+01   2.6348472415e+01    0.2324685    0.1893019   2.91 0.0007762004    1.472    0.320
       115 -11.0215     72.9480    212.4694   6.1919343784e+01   2.0409605843e+01    0.1965344    0.1149503  28.36 0.0003377278    1.491    0.329
       116 -11.1478    172.5427    211.0379   3.8880537922e+01   7.4755822363e+00    0.1761523    0.1120814 -36.06  0.001020687    1.574    0.365
       117 -10.4128    206.4335    210.4373   3.2472117036e+01   3.3880809055e+00    0.1157372   0.09078008  -5.13 6.759664e-05    1.029    0.029
       118 -13.4921    180.2724    207.3974   3.6792565225e+01   7.0526850380e+00    0.2969658    0.2370867  -4.86 0.0005886445    1.058    0.055
       119 -11.1657     97.0214    209.9870   5.5656904695e+01   1.7840729327e+01    0.2238548    0.1823099 -80.24  0.001319662    1.505    0.336
       120 -11.1464     26.5071    208.9798   7.3421226415e+01   2.6273955242e+01    0.2573231    0.1706935  86.02  0.001388798    1.532    0.347
       121 -11.9980     27.0980    204.7705   7.3033919345e+01   2.7158081515e+01    0.3321525    0.1861289  25.32  0.001724729    1.659    0.397
       122 -11.2411    160.4689    203.5156   4.0164350243e+01   1.0320789446e+01    0.1745258    0.1104893  18.90 0.0001086316    1.502    0.334
       123 -11.1685    103.8620    205.4950   5.3413660172e+01   1.7829803016e+01    0.1848078    0.1797518  20.38 0.0006300232    1.117    0.105
       124 -11.7132     87.2575    193.4412   5.6090404829e+01   2.2667326761e+01    0.3824704    0.3111074  28.58  0.001221043    1.124    0.110
       125 -12.7419     91.5215    199.1042   5.5698485360e+01   2.0850357615e+01    0.6317433    0.3214488 -45.52  0.002743829    2.289    0.563
       126 -11.8093     92.2577    193.9823   5.4850548466e+01   2.1858407139e+01    0.3431371     0.268813  82.25  0.001647791    1.555    0.357
       127 -12.7461     83.1684    201.5268   5.8141626182e+01   2.1446325731e+01    0.6604518    0.4374117 -12.62  0.002377516    2.173    0.540
       128 -12.0238     82.1898    196.6065   5.7814837847e+01   2.2651526539e+01    0.3633914    0.2156557  30.41  0.001119395    1.496    0.331
       129 -12.6147    145.5996    201.3365   4.3024244916e+01   1.2774974056e+01    0.4069383    0.3251293 -80.26  0.001834451    1.977    0.494
       130 -11.6465    136.9998    200.9831   4.4901275442e+01   1.4059962634e+01    0.2263632    0.1783881  84.75 0.0007519167    2.033    0.508
       131 -12.3034    160.9758    207.1674   4.0631210588e+01   9.6336381560e+00    0.2374884    0.1789022 -42.06 0.0002778192    1.461    0.316
       132 -13.2081    121.9299    196.8277   4.7804066943e+01   1.7029415316e+01    0.4081791    0.3255946 -27.53  0.002337356    1.351    0.260
       133 -12.5103    176.7326    195.9298   3.5613965494e+01   9.3644830727e+00    0.4198201    0.1971936 -45.91  0.001548443    2.286    0.563
       134 -12.5585    172.7312    195.7930   3.6389190996e+01   9.9377641622e+00    0.2518906    0.2018225 -24.95 0.0004251179    1.185    0.156
       135 -10.9013    213.2026    200.8091   2.9751892387e+01   3.9473205270e+00    0.1560151     0.132821  88.10 0.0008708909    2.778    0.640
       136 -11.8407    138.7571    196.6346   4.3827340439e+01   1.4625123907e+01    0.1953223    0.1109127  38.65 0.0009494987    1.687    0.407
       137 -10.8141    160.4958    192.9368   3.8437736869e+01   1.2156141945e+01    0.1850364    0.1235289 -40.54 0.0005764543    1.526    0.345
       138 -11.4932    164.5444    191.9529   3.7421291961e+01   1.1748037988e+01    0.2253595    0.1699239  40.93 0.0005965184    1.479    0.324
       139 -12.4515    133.4343    190.8859   4.4147614739e+01   1.6515090297e+01    0.3562608    0.2239843 -26.09  0.001720152    1.918    0.479
       140 -10.5326    141.1794    191.4005   4.2436330578e+01   1.5264012811e+01    0.1738933    0.1168651  39.12 0.0001751648    1.468    0.319
       141 -13.0472    110.7267    188.8477   4.9376503092e+01   2.0313254656e+01     0.369356    0.2723326 -74.27  0.001473204    1.735    0.424
       142 -10.7310     50.4003    190.4892   6.5746207438e+01   2.8017710197e+01    0.1352662    0.1209449  52.91 0.0001054814    1.025    0.024
       143 -11.9565     41.5602    211.8728   6.9795616405e+01   2.4127637286e+01    0.3133012     0.235087 -26.18   0.00157418    1.810    0.447
       144 -10.9541    188.8556    191.7813   3.2571943463e+01   8.3899960699e+00    0.1737914    0.1594442  21.28 0.0003479173    1.318    0.241
       145 -12.5103    192.9359    194.5263   3.2279614932e+01   7.4146724114e+00    0.3174222    0.2033815 -18.60  0.001304446    1.512    0.338
       146 -12.2959    120.1374    188.1391   4.6914813580e+01   1.9059402953e+01     0.217756    0.1782154  -3.06 0.0005287388    1.299    0.230
       147 -11.8955    226.5145    186.5771   2.5181921564e+01   4.3620080386e+00    0.2076124    0.1838191 -13.84 0.0007022984    1.298    0.229
       148 -11.3316    186.2205    187.1434   3.2267802272e+01   9.4986648656e+00    0.1900525    0.1453562 -11.26 0.0004287937    1.184    0.155
       149 -11.7140    165.2639    186.1385   3.6274582123e+01   1.2668356269e+01    0.2724956    0.2132492  89.44  0.001128686    2.431    0.589
       150 -12.7398    127.8349    185.8967   4.4676160621e+01   1.8355710927e+01    0.3517437    0.2172767  35.74  0.001667832    1.500    0.333
       151 -11.0089    209.2360    186.0224   2.7918025774e+01   6.5911296060e+00    0.1536625   0.08714063 -34.47   0.00034562    1.563    0.360
       152 -13.2959      7.7364    176.1674   7.6764445128e+01   3.5615124115e+01    0.7350608    0.4399752  15.60  0.002161969    1.826    0.452
       153 -13.4220      3.6550    168.3330   7.7584045603e+01   3.7866866258e+01    0.6609029    0.4116766 -66.36  0.002482643    1.646    0.392
       154 -13.7436     20.6125    174.0371   7.2921399425e+01   3.5087456400e+01    0.5853569    0.5091088  47.29  0.003330013    1.078    0.073
       155 -12.5082     23.9703    167.0854   7.1427776444e+01   3.6548394813e+01    0.5380074    0.2996631  56.68  0.000932436    1.690    0.408
       156 -12.7194      7.5056    184.9787   7.7226710554e+01   3.3486333100e+01     0.497691     0.294921 -35.32  0.001237769    2.408    0.585
       157 -12.4772      5.6249    163.4830   7.6767928425e+01   3.8956557002e+01    0.6010147    0.2952001   7.58  0.002659068    2.523    0.604
       158 -12.9900      6.3640    159.0224   7.6311660157e+01   4.0049252939e+01     0.478196    0.3165251  -4.85  0.002454546    1.937    0.484
       159 -13.1661     14.9367    166.5365   7.4127686218e+01   3.7467798486e+01     0.510313    0.4704389  23.51  0.002208794    1.204    0.170
       160 -11.6827     12.5078    161.4864   7.4555512352e+01   3.8957667160e+01    0.3656522    0.1841314  43.70  0.001151285    1.758    0.431
       161 -12.7888      2.5154    184.4277   7.8563329966e+01   3.3995725699e+01    0.3658538    0.2836029 -44.23  0.001849797    1.619    0.382
       162 -11.9271      1.5613    179.4955   7.8640266620e+01   3.5254681561e+01    0.3567688    0.1682836  88.13  0.001230387    2.002    0.500
       163 -11.8837    155.9667    184.4085   3.7956436091e+01   1.4366001754e+01    0.2448848    0.1911633 -58.09  0.001370313    1.617    0.382
       164 -12.5931    105.1420    182.9721   4.9924612266e+01   2.2414658271e+01    0.3088484    0.2736502 -16.94 0.0008790419    1.215    0.177
       165 -10.7257     54.4882    184.5081   6.4023618918e+01   2.8966444052e+01    0.1389679    0.1258613  48.37 0.0008103829    1.026    0.025
       166 -12.2657     94.6559    180.5367   5.2347077001e+01   2.4517799285e+01    0.4455456    0.2551507 -60.95  0.001858457    1.914    0.477
       167 -10.4185    179.6705    180.3542   3.2329721399e+01   1.1564137509e+01    0.1193127    0.1061349  87.27  0.000704596    1.778    0.438
       168 -11.3547     49.0411    179.3692   6.5062086827e+01   3.0854419773e+01    0.4093339    0.2422171 -24.59  0.001714396    2.691    0.628
       169 -12.4309    155.7468    178.1683   3.6901854393e+01   1.5564094131e+01     0.378875    0.2842694  81.62  0.001808531    2.508    0.601
       170 -12.8222    116.3923    178.2116   4.6260870740e+01   2.1732089300e+01    0.4126398    0.2168077  23.47  0.001722357    2.086    0.521
       171 -12.8983    138.4480    176.6577   4.0569209300e+01   1.8576855384e+01    0.4516793    0.2775532  53.61  0.001963602    2.148    0.534
       172 -13.7494    128.7528    175.7408   4.2743746538e+01   2.0307469716e+01    0.4944772    0.4449836  61.54  0.001204737    1.293    0.226
       173 -11.8033     63.4083    176.6640   6.0601045087e+01   2.9767359873e+01    0.3160867    0.2396477  -6.17  0.000928215    1.672    0.402
       174 -12.7032     30.9349    175.6026   7.0006461021e+01   3.3730028304e+01     0.409026    0.2718039 -72.04  0.001562576    1.522    0.343
       175 -10.7441    216.2378    175.9993   2.4971801911e+01   7.1810668185e+00    0.1546031   0.08617378 -34.83 0.0003086635    1.550    0.355
       176 -12.4125    106.8534    175.4952   4.8299914191e+01   2.3813871945e+01    0.3105798     0.212157  43.82 0.0008451135    1.427    0.299
       177 -12.4178    145.4518    173.7425   3.8413804347e+01   1.8042383023e+01    0.3045048    0.2381174  46.49  0.001071604    1.410    0.291
       178 -12.6780     78.8982    172.9621   5.5646291819e+01   2.8575200191e+01    0.5204343    0.2449667  35.77  0.001739001    1.895    0.472
       179 -10.9009     50.4785    174.0210   6.4089671906e+01   3.2012165092e+01    0.2017916    0.1375722 -76.54 0.0003487604    1.519    0.342
       180 -11.3815     53.3940    170.5938   6.2843931634e+01   3.2523649137e+01    0.3147641    0.1752124 -55.46  0.001019614    1.897    0.473
       181 -13.4497     90.7664    170.8761   5.1963715336e+01   2.7340066805e+01    0.4584242    0.3812408 -65.12  0.001398145    1.289    0.224
       182 -12.4548    197.6912    170.4739   2.7133868124e+01   1.0594488038e+01    0.3007012    0.2134493  40.87  0.001242881    1.632    0.387
       183 -12.3944    153.1564    169.9694   3.5971577173e+01   1.7541998648e+01    0.3002799     0.223418  56.70  0.001274114    1.764    0.433
       184 -11.6684    101.6364    170.2205   4.8844011046e+01   2.5825261414e+01     0.196783    0.1314528 -45.33 0.0003667246    1.602    0.376
       185 -11.2433     62.8699    170.2023   5.9965446687e+01   3.1432698785e+01    0.2137151    0.1780313  54.27 0.0002546931    1.131    0.116
       186 -12.0536     39.1652    168.9717   6.6969275209e+01   3.4559358744e+01    0.3304082    0.1845699  49.10  0.001524564    1.663    0.399
       187 -11.3404    207.9408    168.9964   2.5074227621e+01   9.3753040779e+00    0.1728628    0.1544466 -64.09  0.001128164    1.653    0.395
       188 -12.1787     31.2969    168.1126   6.9282074727e+01   3.5589388064e+01    0.3089875    0.2105819  49.85  0.001447564    1.331    0.249
       189 -12.2771    121.1469    167.6636   4.3226896398e+01   2.3266116915e+01    0.3494232    0.1822686  42.57  0.001479691    1.898    0.473
       190 -11.6347    122.7837    164.6345   4.2256547704e+01   2.3658752410e+01    0.2222598    0.1938838 -39.58 0.0007604548    1.178    0.151
       191 -12.0895    127.6631    166.4675   4.1356264807e+01   2.2449653000e+01    0.2633226    0.2307594 -25.02 0.0009963751    1.167    0.143
       192 -12.8061    153.1518    165.2829   3.5084804798e+01   1.8456845676e+01     0.389666    0.2447322  53.87  0.001789533    2.118    0.528
       193 -12.3743    103.2127    165.3246   4.7589605591e+01   2.6709431267e+01    0.3883013    0.2372723  31.33  0.001756974    1.570    0.363
       194 -12.2131     64.8946    165.9171   5.8803299319e+01   3.2240288841e+01    0.2852788    0.2326594  61.15  0.001510941    1.209    0.173
       195 -12.4051    110.4217    164.9280   4.5558054072e+01   2.5634537376e+01    0.3565422    0.2587198  26.84 0.0007890429    1.359    0.264
       196 -11.6861    112.8587    161.1259   4.4218742416e+01   2.6098913841e+01    0.2221688    0.2088718  15.71            0    1.040    0.039
       197 -10.6032    218.0027    164.7249   2.2625458096e+01   8.6431663455e+00    0.1341151    0.1025331  26.28 0.0004536407    1.411    0.291
       198 -11.5711    199.0375    164.0544   2.5684759056e+01   1.1445608464e+01      0.19671     0.164921 -17.10 0.0004591877    1.010    0.010
       199 -13.3640     92.5637    162.7120   5.0143305362e+01   2.9012879762e+01    0.5078833    0.2913713  49.27  0.002168539    1.837    0.456
       200 -11.0755     45.9866    164.0190   6.4365746436e+01   3.5072546370e+01    0.2204391    0.1635725 -32.82  0.000521323    1.666    0.400
       201 -10.9430     48.9916    161.0145   6.3085827204e+01   3.5498419642e+01    0.1974123    0.1700046 -33.56 0.0004493137    1.351    0.260
       202 -10.6277    145.3383    169.2857   3.7620012954e+01   1.8948060031e+01     0.143916     0.104584  -3.70 0.0002081379    1.632    0.387
       203 -11.0840     41.1975    161.6574   6.5604734159e+01   3.6221597089e+01    0.2469346    0.1819016  12.19 0.0009410638    1.535    0.348
       204 -12.7220     25.2091    159.8448   7.0471171097e+01   3.8307661403e+01    0.3947748    0.2618641  34.02 0.0009804374    1.420    0.296
       205 -12.4036    170.2063    160.3642   3.0465689900e+01   1.6585556741e+01     0.289961    0.2394434 -30.85  0.001229695    1.137    0.121
       206 -11.7817     75.7046    161.0542   5.4844968746e+01   3.1960621870e+01     0.203588    0.1948104 -80.32 0.0003893318    1.081    0.075
       207 -11.6992     37.1728    160.8457   6.6787346283e+01   3.6866126559e+01     0.224478    0.1729513  60.57 0.0004335965    1.220    0.180
       208 -10.7752    196.3710    160.2846   2.5433747237e+01   1.2466897404e+01    0.1333423   0.09115002  -1.81 0.0007017561    1.705    0.413
       209 -11.7043    250.1005    158.2836   1.6774957110e+01   5.4249889620e+00     0.198774    0.1277399 -33.67 0.0003983172    1.247    0.198
       210 -12.2441    152.5275    158.7671   3.3953837282e+01   1.9848045718e+01     0.268134    0.2337137  43.18 0.0002216808    1.238    0.192
       211 -12.3476    104.7069    158.2568   4.5927648344e+01   2.8118138288e+01    0.4299013    0.2861472  63.59  0.001873162    1.974    0.493
       212 -12.1510     31.6516    158.0345   6.8264997301e+01   3.8166442638e+01    0.3429761    0.1753799 -54.20  0.001196847    2.070    0.517
       213 -11.8528    190.9293    156.8548   2.5746897867e+01   1.3884482672e+01    0.2849877    0.1723047 -45.87 0.0007176366    1.681    0.405
       214 -12.5949    133.5373    156.5291   3.7996723289e+01   2.3584711613e+01    0.4550003     0.366772  74.52  0.001195737    1.660    0.398
       215 -12.7820    118.9467    157.4018   4.1899875332e+01   2.5913833179e+01     0.368119    0.3297037  19.03   0.00175804    1.102    0.093
       216 -11.6258    213.1427    156.8836   2.1925443449e+01   1.0534394481e+01    0.1785385    0.1551871 -35.68 0.0004759639    1.232    0.188
       217 -10.7963    160.3203    157.6380   3.2008721574e+01   1.8746627821e+01    0.1363961    0.1133608 -89.70 0.0007041945    1.774    0.436
       218 -11.5876    141.1718    155.8720   3.6009801496e+01   2.2394727505e+01    0.2020774    0.1961495  78.55 0.0003246098    1.180    0.152
       219 -12.0738     61.4669    155.1839   5.8387740979e+01   3.5440480177e+01    0.2740396    0.1782066  -6.52  0.001141455    2.275    0.560
       220 -13.5631      4.5285    150.2238   7.6413844186e+01   4.2465474232e+01    0.5966568    0.3912204 -52.47  0.002814381    1.666    0.400
       221 -13.9719     10.4993    144.0963   7.4060405312e+01   4.3679392689e+01     0.596721    0.4549931 -66.35  0.001163608    1.301    0.231
       222 -12.0740    172.4966    153.5535   2.8635673040e+01   1.7466112760e+01    0.2674367    0.1248022 -38.64  0.000945192    2.051    0.513
       223 -13.4801     82.9937    151.6128   5.1098636920e+01   3.3237334184e+01    0.6578237    0.3771483 -27.33  0.002414381    2.836    0.647
       224 -10.9240     20.0304    154.5185   7.1692807010e+01   4.0163817669e+01    0.2081755    0.1303523  27.06  0.001023755    1.577    0.366
       225 -10.6277    195.2009    154.3815   2.4485533660e+01   1.3636379551e+01    0.1556794    0.1233258  46.12 0.0002785765    1.520    0.342
       226 -11.5024     67.4888    153.5092   5.6234307075e+01   3.5049902618e+01    0.1471386    0.1427309  52.74 0.0002855874    1.040    0.039
       227 -12.6634     27.6157    150.6032   6.8872081961e+01   4.0522706239e+01    0.3683438    0.2855771  -9.02 0.0008023912    1.590    0.371
       228 -11.8059    109.1187    149.2535   4.2991180312e+01   2.9487082539e+01    0.3115295    0.2516362  58.54 0.0009344759    1.355    0.262
       229 -11.7361    146.8647    147.6695   3.2984983573e+01   2.3088036897e+01     0.429646    0.1738364 -46.56  0.001612404    2.446    0.591
       230 -12.1185     95.7994    148.9640   4.6766980337e+01   3.1828563837e+01    0.2718986    0.2132298  35.09 0.0007434246    1.233    0.189
       231 -10.5440     19.9417    148.0211   7.1193082725e+01   4.1895897721e+01    0.1676306    0.1512927  61.29 0.0004443157    1.041    0.040
       232 -11.2526    121.8793    145.3082   3.8710131850e+01   2.8130507409e+01    0.2329497    0.2045819 -64.46 0.0003317342    1.232    0.188
       233 -10.6134    182.2241    145.4135   2.5051652780e+01   1.7308967707e+01    0.1642597    0.1307648  50.54 0.0002358446    1.491    0.329
       234 -10.9200    158.1389    145.1085   2.9899854602e+01   2.1577182980e+01    0.2175611    0.1824674  -3.90 0.0004307344    1.264    0.209
       235 -12.5686    103.1770    143.5692   4.3553559238e+01   3.1877639014e+01    0.4839378    0.3344526  78.38   0.00114367    2.125    0.529
       236 -13.7574     74.3926    151.0202   5.3665655267e+01   3.4694353600e+01    0.7228348    0.3180255  34.53  0.002760262    2.103    0.525
       237 -11.8676    143.3986    143.2232   3.2855156393e+01   2.4643373871e+01    0.3703031    0.2578634 -18.95   0.00125491    1.803    0.445
       238 -12.2482      1.5607    139.2783   7.6787824662e+01   4.5546795305e+01     0.433054    0.1231744 -82.37  0.001484142    3.210    0.688
       239 -13.8133     50.7722    141.4039   5.9933947264e+01   4.0464315163e+01     0.561104     0.435667  30.27  0.002648639    1.286    0.223
       240 -11.5163     37.9057    142.9586   6.4567803342e+01   4.1539716006e+01    0.2196483    0.2016937  74.77 0.0003934019    1.014    0.014
       241 -11.8270     30.1245    142.1651   6.7164768847e+01   4.2550102111e+01    0.3063739    0.1926256 -77.20  0.001448362    1.533    0.348
       242 -11.5186     26.2211    140.5961   6.8355870892e+01   4.3343417404e+01    0.2484006    0.1416372   0.11  0.001039911    2.358    0.576
       243 -13.1489     72.9157    139.1095   5.2091985299e+01   3.7996562227e+01    0.3988166    0.3378469 -81.64 0.0003828099    1.227    0.185
       244 -13.2325     68.5328    137.2032   5.3209162563e+01   3.9155508193e+01    0.3877156    0.3356986  42.63 0.0004112028    1.123    0.109
       245 -11.0129    165.1234    141.1740   2.7563163053e+01   2.1088673618e+01    0.1864093     0.169545 -72.72 0.0006125065    1.322    0.244
       246 -11.0398    150.8730    141.4864   3.0742271953e+01   2.3625892464e+01    0.2064627     0.141752  38.05 0.0003628186    1.487    0.327
       247 -11.9156     58.0598    132.9811   5.6075061809e+01   4.1774709351e+01    0.3052254    0.2107492  35.79 0.0008031711    1.410    0.291
       248 -12.5850     60.3395    139.6339   5.6393882408e+01   3.9683018624e+01    0.3099285    0.2672218 -55.32 0.0004169642    1.193    0.162
       249 -12.2666     61.0043    136.0000   5.5562979937e+01   4.0559318517e+01    0.3414584     0.206478  36.06  0.001491946    1.588    0.370
       250 -12.3761    206.4086    139.1948   1.9509912735e+01   1.4389983130e+01    0.2289461    0.1978873 -14.74 0.0002583733    1.083    0.076
       251 -10.8477    159.6067    139.2460   2.8317636559e+01   2.2468066623e+01    0.1935863    0.1288819 -33.58 0.0003871068    1.501    0.334
       252 -12.3110    102.4738    133.4833   4.1653034439e+01   3.4444106627e+01    0.3239468    0.1496754  37.39 0.0009012122    2.122    0.529
       253 -12.8926     96.2494    138.5401   4.4588415761e+01   3.4314440522e+01    0.6520109    0.2815918  22.44  0.001905842    3.900    0.744
       254 -12.8810     41.0820    137.8156   6.2803915139e+01   4.2583553957e+01    0.3941204    0.2703085  43.07  0.001902668    1.405    0.288
       255 -12.5277     19.3179    138.5469   7.0574356781e+01   4.4498562818e+01    0.3205365    0.2207686 -30.73 0.0007242562    1.775    0.437
       256 -10.8884    179.9758    138.7647   2.4075361822e+01   1.8896830356e+01    0.1723869      0.11471  40.44 0.0008772409    1.615    0.381
       257 -11.6765    133.0473    137.0143   3.4031952031e+01   2.7906816069e+01    0.4240974    0.2616663 -25.01  0.001719001    2.224    0.550
       258 -11.4067     32.0405    136.3344   6.5827628701e+01   4.3945988461e+01    0.2565136    0.1852767 -46.88 0.0007001454    1.494    0.331
       259 -11.4151    110.9052    135.8764   3.9719022081e+01   3.2323904072e+01    0.2302755    0.2079341  -5.67 0.0003539186    1.210    0.174
       260 -13.1407    126.6588    133.5712   3.4903512474e+01   2.9885269072e+01    0.4369254    0.3382047 -87.04  0.002030741    1.756    0.431
       261 -11.3798     53.1301    135.3293   5.8193624889e+01   4.1799522806e+01    0.3507079    0.1337383  48.91  0.001145488    2.987    0.665
       262 -10.8435    196.7983    134.5930   2.0150214361e+01   1.6733956360e+01    0.1655188    0.1289578  58.23 0.0007999341    1.644    0.392
       263 -11.7322     83.7939    127.5749   4.6235091923e+01   3.9223469908e+01     0.244728    0.2224401 -28.26 0.0007312216    1.197    0.164
       264 -12.5873     78.1008    133.1620   4.9258077700e+01   3.8729786547e+01    0.3681006    0.2775378 -35.80 0.0009852059    1.511    0.338
       265 -12.6384     82.3764    131.1501   4.7446552866e+01   3.8546845340e+01    0.3084441    0.2618103  82.50 0.0009960396    1.286    0.223
       266 -11.7658      6.7120    133.7645   7.4644853889e+01   4.6711955541e+01    0.2996894    0.1287622  70.70  0.001167029    2.481    0.597
       267 -13.0131     19.3117    131.7829   6.9931636349e+01   4.6341193532e+01    0.5036927    0.2716678  32.51 0.0007555269    1.792    0.442
       268 -11.8274    108.0031    132.4470   3.9800484474e+01   3.3676112502e+01    0.2373741    0.1496562  37.80  0.000715082    1.568    0.362
       269 -12.6429     49.2374    130.7417   5.8852449930e+01   4.3537659605e+01    0.3963434    0.2181476  12.04  0.001548522    2.348    0.574
       270 -11.4259     88.9027    130.1730   4.5130268581e+01   3.7683093634e+01     0.232671    0.2067503  66.54 0.0003424861    1.169    0.145
       271 -10.9456      9.6653    130.7079   7.3353556832e+01   4.7347643190e+01    0.1430768   0.09717564 -42.56 0.0005898245    1.638    0.389
       272 -13.1040     57.2906    127.6740   5.5424998437e+01   4.3308178462e+01    0.5674317    0.3575067 -16.32  0.002232707    2.447    0.591
       273 -12.1809    176.4565    127.1149   2.2188797239e+01   2.1664045665e+01    0.2357347    0.2145869  29.21 0.0002995218    1.173    0.148
       274 -12.5584    123.3376    135.2504   3.6157068604e+01   3.0139780727e+01     0.251824    0.2246554  33.60  0.000220641    1.119    0.106
       275 -11.5730     41.4146    127.7229   6.1253292311e+01   4.5299757763e+01    0.2569618    0.1727662 -60.60 0.0005632733    1.440    0.305
       276 -10.6411     65.3082    127.3336   5.2500425675e+01   4.2249092541e+01    0.1594574    0.1169438 -28.88 0.0007041565    1.671    0.402
       277 -12.9850      3.9646    121.2850   7.4747429623e+01   5.0263426620e+01    0.4271471    0.2166446 -86.55  0.001078691    1.828    0.453
       278 -11.1746    116.0535    126.2788   3.6099136905e+01   3.3595656431e+01    0.2211068    0.1954453  38.89 0.0006648664    1.130    0.115
       279 -11.9353     26.9715    125.4550   6.6374383421e+01   4.7416200797e+01    0.2669845    0.2040028 -78.17 0.0003369601    1.237    0.192
       280 -12.8849     68.3754    110.1664   4.7776829565e+01   4.6312342188e+01    0.4876935     0.285162 -39.12   0.00102915    2.009    0.502
       281 -13.1374     68.4707    115.4511   4.8930261960e+01   4.4909960188e+01    0.5343136    0.3460476  68.35  0.002174477    2.039    0.510
       282 -12.0131     82.4118    111.4060   4.3021834123e+01   4.3586974746e+01    0.4352781    0.2273621 -43.66  0.001261214    2.078    0.519
       283 -13.6089     81.9531    117.0734   4.4524720889e+01   4.2227420205e+01    0.9102764    0.5580775 -26.54   0.00115334    2.486    0.598
       284 -13.7576     74.8409    115.1250   4.6559425464e+01   4.3951625930e+01    0.6190053     0.505013 -70.50  0.001213615    1.267    0.210
       285 -11.8800     77.5288    113.4251   4.5213396356e+01   4.3932640789e+01    0.2837092    0.2400747  73.88 3.597592e-05    1.291    0.225
       286 -11.1351     49.1894    124.0641   5.7768464232e+01   4.5360723337e+01    0.2173388    0.1928961 -38.15 0.0003400265    1.215    0.177
       287 -13.5354     12.1958    112.5504   7.0709380415e+01   5.2152516481e+01    0.7097303    0.2211237  48.45  0.002331844    3.544    0.718
       288 -13.7804     14.5486    119.8782   7.0532191340e+01   4.9972745715e+01    0.6641837    0.5973855  24.02  0.003857951    1.200    0.166
       289 -12.4900      9.9557    118.0001   7.2149228714e+01   5.0801720843e+01    0.2790069    0.2262303  22.71 0.0004322304    1.326    0.246
       290 -10.5865     91.2301    122.9660   4.2797871801e+01   3.9082170831e+01    0.2028539    0.1300942 -56.53 0.0004735508    1.578    0.366
       291 -11.1843    124.1871    122.1688   3.2895918058e+01   3.2927512164e+01    0.2057409    0.1799936  84.21 0.0002233077    1.313    0.238
       292 -10.8505    188.9766    121.0104   1.8535851398e+01   2.0449996992e+01    0.1610869    0.1471398 -30.61 0.0003239615    1.028    0.027
       293 -11.4334    104.9401    121.1756   3.8113419018e+01   3.6953865749e+01    0.2494806    0.2106295  69.50  0.001215582    1.317    0.241
       294 -10.9944     28.8731    121.0547   6.5076058841e+01   4.8451221559e+01    0.2249198    0.1794448  60.83  0.001166927    1.250    0.200
       295 -10.8421    211.2112    118.9932   1.4527845053e+01   1.6873244744e+01    0.1768719   0.08966929 -37.48 0.0003710137    1.668    0.401
       296 -11.0649     95.5418    119.5059   4.0616047011e+01   3.9147533512e+01    0.2717339    0.1551403 -55.38 4.495242e-06    1.781    0.439
       297 -12.0687    100.5033    113.5408   3.7601355206e+01   3.9650396620e+01    0.2540485    0.2414121  43.12 0.0007457582    1.052    0.049
       298 -12.3667     96.8470    115.8692   3.9326610707e+01   3.9792961710e+01    0.3388517    0.2805292  16.73 0.0005556305    1.379    0.275
       299 -12.8536     93.4935    116.4543   4.0541128943e+01   4.0284393606e+01    0.6769561    0.2542472  43.60  0.002227845    2.662    0.624
       300 -10.3936     46.4088    119.4252   5.8021680151e+01   4.6975788687e+01    0.1521176    0.1376947  72.06 1.403212e-05    1.092    0.084
       301 -10.5857    214.4764    114.4213   1.3073879783e+01   1.7046802628e+01    0.1276334    0.1081433 -34.07 6.520237e-05    1.012    0.012
       302 -11.5704    201.9127    114.0875   1.4868510948e+01   1.9285917402e+01    0.1961561    0.1698916 -37.08 0.0003693048    1.018    0.017
       303 -13.3150     62.6715    110.8855   5.0088301457e+01   4.7023391128e+01    0.6254506    0.3920669 -60.23  0.002030249    1.568    0.362
       304 -12.0231     63.4406    103.5643   4.8106560729e+01   4.8832146439e+01      0.46472    0.2769448  80.56  0.001630271    2.903    0.655
       305 -11.5343     99.9549    108.9435   3.6600228367e+01   4.0861279897e+01    0.4495417    0.2828857  77.93  0.001043015    2.925    0.658
       306 -11.9783     20.0879    109.9988   6.7148596264e+01   5.2276021430e+01     0.299066    0.2255986  37.95 0.0006326393    1.353    0.261
       307 -12.4868      2.3631    108.8325   7.4396102580e+01   5.3744803457e+01    0.2759747    0.2131739  67.20  0.001251105    1.261    0.207
       308 -11.2365    210.2379    107.7617   1.2231752047e+01   1.8831963703e+01    0.1739986    0.1400948 -16.14 0.0007231345    1.324    0.245
       309 -10.9074     87.4801    108.4790   4.0555546083e+01   4.3389122613e+01    0.1563186    0.1526576  77.59 6.773333e-05    1.012    0.012
       310 -11.0563    139.5048    107.0490   2.5210074653e+01   3.3016110252e+01    0.2380845    0.2091018  51.03  0.001178915    1.172    0.147
       311 -11.3988     12.8377    104.1636   6.9494220180e+01   5.4416431930e+01    0.2109764    0.1822336  67.32 0.0004151413    1.155    0.134
       312 -11.9279     55.9936    101.4758   5.0581605715e+01   5.0521865206e+01    0.3190025      0.25306 -87.82 0.0007248491    1.398    0.285
       313 -11.8661     57.8407     97.6242   4.8904662695e+01   5.1258181000e+01    0.2718847    0.2649476  53.09 0.0008455318    1.034    0.033
       314 -10.5504    104.9436    102.0559   3.3216830650e+01   4.1465672110e+01    0.1855853    0.1816333 -84.98 0.0003586878    1.011    0.011
       315 -12.1987     78.4856    101.8245   4.1994910639e+01   4.6713032509e+01    0.3228265    0.2468036  65.33  0.001477436    1.510    0.338
       316 -10.7515     16.6326    101.5280   6.7501121405e+01   5.4874476466e+01    0.1428514    0.1270284 -71.91 0.0007944515    1.042    0.040
       317 -12.6204      5.4382    100.2524   7.2285395775e+01   5.5930335230e+01    0.5064925    0.2154677  24.21    0.0021189    2.381    0.580
       318 -10.5981    129.7719     99.9153   2.5699342478e+01   3.6608706488e+01    0.2091428     0.125368 -42.65 0.0008743918    1.651    0.394
       319 -10.4943     85.3270    100.3068   3.9154436557e+01   4.5812980253e+01    0.1594375    0.1256083 -11.68 0.0003689436    1.653    0.395
       320 -12.2268     94.1775     98.4716   3.5643244415e+01   4.4513537292e+01    0.3646302    0.2774775  59.13 0.0008188335    1.427    0.299
       321 -11.1705    122.9579     97.8826   2.6909126012e+01   3.8533488719e+01    0.3969957    0.2424503  28.62  0.001552395    2.243    0.554
       322 -10.6774    199.4639     96.5792   1.1260533350e+01   2.2600965274e+01    0.1327908    0.1160543 -42.90 0.0001072278    1.010    0.010
       323 -11.8293      6.8865     94.4420   7.0992859147e+01   5.7436943468e+01    0.5038843    0.2423967  21.87  0.002213984    2.162    0.537
       324 -13.0518    121.0987     91.6564   2.5636244633e+01   4.0266519421e+01    0.4966711    0.3761334 -10.12  0.001694092    1.861    0.463
       325 -11.3203    125.4779     86.9592   2.3115789022e+01   4.0247674080e+01    0.2838001    0.2344594 -11.23 0.0006232982    1.519    0.342
       326 -12.0500     82.4863     94.0096   3.8415167652e+01   4.7892541617e+01    0.2377069    0.1540823 -52.49 -7.571652e-05    1.544    0.352
       327 -10.9180     90.6643     93.7047   3.5467035304e+01   4.6350258442e+01    0.1581917     0.126386  -4.26 0.0002703853    1.647    0.393
       328 -11.1865     57.8346     91.3839   4.7316593165e+01   5.2878013413e+01    0.2961171     0.229095 -47.74  0.001197053    1.286    0.223
       329 -12.0719     55.9160     85.2990   4.6486168170e+01   5.4731831883e+01    0.5012967    0.3804399 -56.12  0.001748389    1.294    0.227
       330 -11.2350     52.3196     86.3447   4.8350911371e+01   5.5015067697e+01    0.2737208    0.1990927 -46.77  0.000905876    1.365    0.268
       331 -10.6600     41.1831     91.6834   5.4665908194e+01   5.5139633861e+01    0.2280663    0.1700277  48.18 0.0005572887    1.415    0.293
       332 -11.3753     25.0899     91.9623   6.2139942583e+01   5.6795677283e+01    0.3505876    0.1744903  34.24  0.001478713    2.013    0.503
       333 -13.0762     74.2342     90.0641   4.0349733123e+01   5.0409566531e+01    0.3595945    0.3119755  75.18  0.001266746    1.274    0.215
       334 -12.2730      2.9747     88.5804   7.2151581852e+01   5.9222074378e+01    0.4334353    0.2203934 -76.71  0.001957567    1.766    0.434
       335 -14.3786     94.4291     83.3584   3.1086810989e+01   4.7939858915e+01    0.6552951    0.5289009  86.52  0.001138299    1.505    0.335
       336 -11.1205    164.3368     84.6866   1.4035766525e+01   3.1862231812e+01    0.1508741    0.1074733 -71.48 0.0005052866    1.691    0.409
       337 -10.5265    144.4927     82.5179   1.7360705028e+01   3.6740299541e+01    0.1496761    0.1410209 -67.56 -5.447658e-06    1.013    0.013
       338 -11.2942     10.2616     81.8984   6.7665032502e+01   6.0635393958e+01    0.2356066    0.1769227 -88.63  0.001247747    1.330    0.248
       339 -11.3654      9.3981     77.3487   6.7387886105e+01   6.1900822217e+01    0.2610916    0.2268908  77.69  0.001508611    1.202    0.168
       340 -11.7603     65.8002     81.2700   4.1098772227e+01   5.4079286130e+01    0.3167374    0.2168319  25.94   0.00141069    1.607    0.378
       341 -11.6928    112.4024     78.9408   2.4182370072e+01   4.4878556470e+01    0.5155412    0.2737051  65.38  0.001816354    2.677    0.626
       342 -11.2971    108.1091     78.6903   2.5336691890e+01   4.5912985541e+01     0.256782    0.2148233 -45.33 0.0005134834    1.205    0.170
       343 -11.1575      5.1094     79.8910   7.0001511848e+01   6.1454369649e+01    0.2211027     0.175974  68.02  0.001226156    1.332    0.249
       344 -10.5364     76.5365     75.4682   3.4939623271e+01   5.3420611396e+01    0.1527096    0.1489488   0.78 1.481087e-05    1.057    0.054
       345 -11.8322    104.7826     73.4783   2.4627696006e+01   4.7741741600e+01    0.3464393      0.25967  44.57 0.0005063522    1.343    0.256
       346 -11.9398      1.6922     73.2752   7.0884700136e+01   6.3363840182e+01    0.2856474    0.1533892 -60.93 0.0007674429    1.598    0.374
       347 -10.4869     45.4736     73.4689   4.7862144443e+01   5.9268744468e+01     0.146934    0.1416525  73.88 0.0002232806    1.101    0.092
       348 -11.9306     52.4518     71.7415   4.3991921769e+01   5.8636111343e+01    0.2945017    0.2607112 -20.47 0.0004223737    1.186    0.157
       349 -10.8686     11.7314     87.0181   6.7711331781e+01   5.9166691158e+01    0.1949854    0.1651218 -73.87 0.0002041721    1.092    0.085
       350 -11.8349     71.6048     69.0831   3.4711784248e+01   5.5831277817e+01    0.4314161     0.283402 -14.22  0.001673278    2.533    0.605
       351 -11.1655    154.4258     68.0133   1.1205988077e+01   3.6981312236e+01    0.2044729    0.1915958 -84.44  0.000370105    1.047    0.045
       352 -12.3438     60.5554     67.0055   3.8685939715e+01   5.8377882667e+01    0.2824147    0.2431831  57.60 0.0007071957    1.255    0.203
       353 -10.9737    124.8609     66.8389   1.7042138815e+01   4.4265094652e+01    0.2161242    0.2043681  28.36 0.0003121005    1.184    0.155
       354 -12.8897     48.8134     66.2812   4.3941229956e+01   6.0515752072e+01    0.5295669     0.320186  39.05 0.0004278316    1.664    0.399
       355 -11.1622     46.7009     62.7218   4.3774365519e+01   6.1681518267e+01    0.2603363    0.1716087  21.07 0.0005252741    1.667    0.400
       356 -11.2454      7.7206     67.0290   6.6516385774e+01   6.4707891244e+01    0.1991978    0.1646272 -61.33 0.0004314972    1.095    0.087
       357 -11.8136     12.7898     59.9131   6.2022016138e+01   6.6213926588e+01    0.3267893      0.24431  16.68 0.0007627805    1.404    0.287
       358 -11.0905     21.1545     61.1693   5.7338653957e+01   6.5219580834e+01    0.3806182    0.2367682  53.56 0.0003533572    2.006    0.501
       359 -11.4879     17.5610     61.5239   5.9555127004e+01   6.5443267661e+01    0.3195672    0.2474817 -74.01  0.001061356    1.320    0.242
       360 -11.4852     42.1017     59.1751   4.4908474335e+01   6.3200110452e+01    0.3175598    0.1872603 -41.26  0.001417068    1.730    0.422
       361 -11.1889     27.3967     60.5024   5.3509560666e+01   6.4759536083e+01    0.1750373    0.1324379  35.12 0.0009091194    1.384    0.278
       362 -11.2549    135.5299     59.4576   1.2275918499e+01   4.2946523730e+01    0.1476428    0.1386721 -81.39 1.922765e-05    1.007    0.006
       363 -11.9589     34.0226     58.5824   4.9120599519e+01   6.4444419812e+01     0.423165    0.2895647  62.64  0.001258166    2.001    0.500
       364 -12.6404     37.6462     54.0613   4.5487262273e+01   6.5019257686e+01    0.4356604     0.257882 -57.53  0.001374725    1.734    0.423
       365 -10.3430    197.2832     58.3170   2.3265974716e+00   2.8869891848e+01     0.119529    0.1025503   6.89 0.0002535466    1.582    0.368
       366 -11.5476    153.2717     57.0948   8.1985115139e+00   3.9013186659e+01     0.228694    0.1967803  75.20 0.0004374447    1.153    0.133
       367 -11.6655     97.0449     56.6147   2.1047475446e+01   5.2808730205e+01    0.2463614     0.207714 -58.61 0.0005500139    1.250    0.200
       368 -11.0044    179.8286     56.1304   3.9252315221e+00   3.2973173849e+01    0.2048017    0.1596723 -61.50 0.0003305732    1.181    0.153
       369 -12.4754    113.3525     51.3047   1.4556067403e+01   4.9775908702e+01    0.7850603    0.4613456  -9.89  0.002753104    3.412    0.707
       370 -11.6346    110.1125     50.8592   1.5217856456e+01   5.0650864771e+01    0.2542892    0.2427536  21.15 0.0003016455    1.168    0.144
       371 -12.4581    106.0724     51.0244   1.6348500527e+01   5.1617150731e+01    0.3607113    0.2731352  83.04 0.0003269452    1.507    0.337
       372 -12.3225    195.4360     52.3886   1.0581741253e+00   3.0085276968e+01    0.2295295    0.2018341 -54.68 0.0003827415    1.062    0.058
       373 -11.0069    122.5315     51.9443   1.2596734572e+01   4.7390495945e+01    0.2219884    0.1454323 -37.09 0.0004504873    1.562    0.360
       374 -11.6561    174.2333     50.4482   3.1262890927e+00   3.5058242900e+01    0.2483985    0.1738234 -40.32  0.000618485    1.320    0.242
       375 -11.2268    151.1591     51.1650   6.7667198708e+00   4.0427309023e+01    0.2039713    0.1977642  56.20 0.0004988929    1.173    0.147
       376 -13.1670     30.1513     49.9821   4.8353054580e+01   6.6944887193e+01    0.3858927    0.2998104 -22.63  0.001635079    1.322    0.244
       377 -11.9156     16.3970     49.8134   5.7002499236e+01   6.8427452236e+01    0.2688954    0.2019877   6.16 0.0002880008    1.369    0.269
       378 -10.4350    127.6983     49.2700   1.0549969431e+01   4.6523997435e+01    0.1478766    0.1082941 -74.80            0    1.529    0.346
       379 -12.3323     96.2055     45.7960   1.7130242979e+01   5.4895896931e+01    0.3523708    0.2363875 -75.53  0.001498811    2.141    0.533
       380 -11.5273     41.5332     47.1286   4.0573130390e+01   6.5983192497e+01    0.4541447    0.1667323  43.28  0.001607025    2.982    0.665
       381 -10.8929    142.3154     45.6869   6.5614868819e+00   4.3410641077e+01    0.1525327    0.1020324 -68.12 0.0002202741    1.641    0.390
       382 -11.3440     89.0494     44.5344   1.8822977607e+01   5.6823315754e+01    0.2622671     0.213991  61.17 0.0005470737    1.195    0.163
       383 -11.7398     49.6686     43.9631   3.4817828911e+01   6.5278424689e+01    0.2346244    0.1963033  39.69 0.0003154087    1.186    0.157
       384 -11.1225      3.5158     44.1270   6.4228458111e+01   7.0678977746e+01    0.1920084    0.1216066 -69.36 0.0009214136    1.512    0.339
       385 -10.6200     69.6718     43.2719   2.5291131438e+01   6.1449137872e+01    0.1425425    0.1153854  84.12 0.0002844887    1.584    0.369
       386 -13.4005     33.8566     40.1860   4.2090248692e+01   6.8607918122e+01    0.4561554    0.3411674  45.07  0.002035113    1.482    0.325
       387 -11.0032    111.4772     41.4688   1.1384418509e+01   5.1793252018e+01    0.1468116    0.1371537  79.22 0.0005620288    1.002    0.002
       388 -12.1064     93.8086     40.3667   1.5638835571e+01   5.6351985079e+01     0.279572    0.2058429  30.28 0.0005585202    1.607    0.378
       389 -11.8062    120.8188     39.3964   8.5264654611e+00   4.9732382331e+01    0.2457914    0.2292033  56.02 0.0005126816    1.124    0.110
       390 -12.1633     80.7307     37.3545   1.8509130306e+01   5.9957486587e+01    0.4968705    0.4143277 -70.02  0.002630829    1.397    0.284
       391 -12.1801     77.6415     30.7676   1.6559167168e+01   6.1691297990e+01    0.2920223    0.2573198 -40.46 0.0004647338    1.215    0.177
       392 -12.5006      9.7992     36.8919   5.7406232010e+01   7.1992192450e+01    0.2608604     0.219237 -25.44 0.0003889981    1.081    0.075
       393 -12.2310     41.8106     34.2824   3.4532456103e+01   6.8535227918e+01    0.3174641    0.2419312  -2.27  0.001670302    1.502    0.334
       394 -11.7248     16.0778     33.7750   5.1457146048e+01   7.2147774016e+01    0.3419791    0.1465862  33.56  0.001449673    2.369    0.578
       395 -11.4743    127.6418     32.4892   4.7185506841e+00   4.8935261357e+01    0.2237636     0.223682  10.39 0.0003666142    1.155    0.134
       396 -12.3685     30.9233     31.7986   4.0003456953e+01   7.0742114255e+01    0.3103673    0.1879237  31.21  0.001004868    1.608    0.378
       397 -11.3477      2.0342     30.6869   6.1446248930e+01   7.3912166850e+01    0.1773467    0.1501729 -19.20 0.0003770692    1.094    0.086
       398 -10.5642    146.1755     30.6053   1.0982882524e+00   4.4478764427e+01    0.1828904     0.119973  60.21 0.0001500381    1.510    0.338
       399 -11.1467     96.5254     30.4770   1.0734005091e+01   5.7127059814e+01    0.1441716    0.1335074  72.29 0.0008096366    1.016    0.016
       400 -11.0811     64.3041     30.3092   2.1394256829e+01   6.4796916375e+01    0.1438045     0.106435  18.40 0.0002719907    1.608    0.378
       401 -10.5236     72.5448     31.4562   1.8710321659e+01   6.2772662046e+01    0.1420701    0.1329905  46.90 0.0003189149    1.010    0.010
       402 -10.7266    137.6845     29.7010   2.0685689890e+00   4.6731491993e+01    0.1383955    0.1043911  38.95 0.0002972076    1.611    0.379
       403 -11.3054     67.6576     29.2321   1.9495549772e+01   6.4219120515e+01    0.1912586    0.1338007 -22.28 0.0007801872    1.638    0.390
       404 -11.0925     61.0070     29.7308   2.2508601758e+01   6.5601996878e+01     0.182488    0.1167844  48.67 0.0003655005    1.470    0.320
       405 -10.4915    116.5341     26.4369   4.5710045467e+00   5.2549817182e+01    0.1422751    0.1288552  81.61 6.655038e-05    1.009    0.009
       406 -11.5668     45.1242     25.2338   2.7870167912e+01   6.9542044492e+01    0.2557273    0.1843614 -66.86  0.001244122    2.160    0.537
       407 -10.7807      1.3598     25.7794   6.0301692374e+01   7.5052787065e+01    0.1870964   0.09714796 -53.15 0.0009475423    1.650    0.394
       408 -10.8519    125.2684     25.6518   2.6845769390e+00   5.0398132878e+01    0.1479299   0.09687515 -62.17 0.0002231034    1.619    0.382
       409 -12.4097     85.3645     24.2191   1.1043023563e+01   6.0730378156e+01     0.273614    0.2476461  47.39  0.001190148    1.072    0.067
       410 -11.5002     70.8863     20.9685   1.4089992291e+01   6.4638978535e+01    0.2094367    0.1966492  47.62 0.0005612973    1.027    0.026
       411 -11.4408     98.6680     20.1142   5.7604934025e+00   5.7887283909e+01    0.2360482    0.1812492  78.61  0.000424374    1.260    0.206
       412 -11.5968    132.2883     17.1236   3.5854643822e+02   4.9558617900e+01    0.2247252    0.1691632  63.71  0.000431042    1.277    0.217
       413 -11.5168     66.4403     16.4609   1.3294494504e+01   6.6247644440e+01    0.2936063    0.1894538  56.00 0.0009551026    1.409    0.290
       414 -10.3098    127.3078     15.7280   3.5876267405e+02   5.0984317521e+01    0.1415507   0.09378831 -68.61 0.0002577079    1.544    0.352
       415 -10.5663    190.1941    249.1461   4.1014518215e+01  -1.0153459055e-02    0.1287608     0.105607   8.93            0    1.258    0.205
       416 -11.8002     50.0873    248.1752   7.0103196495e+01   1.5960135791e+01    0.2645158    0.1829959  68.01   0.00109859    1.514    0.340
       417 -12.7593    162.5236    247.4701   4.5980344064e+01   3.2238100049e+00    0.2092156    0.1636272  14.14 0.0002803326    1.078    0.072
       418 -11.1803     68.2699    246.7819   6.5964513933e+01   1.4263162170e+01    0.2459991    0.1549987  64.35  0.001454554    1.804    0.446
       419 -11.3938     58.1967    248.1317   6.8301996109e+01   1.5113828914e+01    0.2061127    0.1370219  31.88 0.0004898424    1.183    0.155
