#   1 NUMBER                 Running object number                                     
#   2 MAG_AUTO               Kron-like elliptical aperture magnitude                    [mag]
#   3 X_IMAGE                Object position along x                                    [pixel]
#   4 Y_IMAGE                Object position along y                                    [pixel]
#   5 X_WORLD                Barycenter position along world x axis                     [deg]
#   6 Y_WORLD                Barycenter position along world y axis                     [deg]
#   7 A_WORLD                Profile RMS along major axis (world units)                 [deg]
#   8 B_WORLD                Profile RMS along minor axis (world units)                 [deg]
#   9 THETA_WORLD            Position angle (CCW/world-x)                               [deg]
#  10 FWHM_WORLD             FWHM assuming a gaussian core                              [deg]
#  11 ELONGATION             A_IMAGE/B_IMAGE                                           
#  12 ELLIPTICITY            1 - B_IMAGE/A_IMAGE                                       
         1 -14.9917    166.1056     47.6268   7.0715928171e+01   3.7569316556e+01     1.388919     1.133099  -7.49  0.003981704    1.344    0.256
         2 -15.2437    182.7248     15.9519   5.7916575999e+01   3.7225060531e+01     1.761555     1.333865  80.67   0.00646375    1.322    0.243
         3 -11.3741     29.8721    246.0764   1.3626265595e+02   2.2489492977e+01    0.1177108   0.05351316 -81.65 0.0007805955    2.092    0.522
         4 -19.8801     71.3204    164.3776   1.2196586451e+02   3.2727724933e+01     15.77602     6.847062 -68.53   0.07338636    2.284    0.562
         5 -12.4031    150.8975    188.6726   1.0864748823e+02   1.5084239918e+01    0.4124545     0.197891 -50.15  0.001768751    2.388    0.581
         6 -12.7907    153.2457    184.1348   1.0743541879e+02   1.5448983762e+01    0.3100273    0.2685488 -73.65   0.00148561    1.345    0.257
         7  -9.7231     12.5237    239.4640   1.3858751166e+02   2.5320226060e+01   0.09992086   0.06328934  67.67 0.0005805262    1.061    0.058
         8 -10.5763    151.0870    236.3017   1.1525044078e+02   7.6079335700e+00    0.1538228    0.1192968  46.82 0.0006856689    1.034    0.033
         9 -10.6650     25.0239    185.4559   1.3356653104e+02   3.3771635153e+01    0.1507405     0.113144  88.23 0.0003481788    1.105    0.095
        10 -11.9726    164.8551    187.1116   1.0562045505e+02   1.2819007381e+01    0.2026603      0.17164  64.54 0.0006632766    1.290    0.225
        11 -11.0066     30.5854    182.9334   1.3231519144e+02   3.3710052044e+01    0.1998845     0.170056   0.56 0.0006620017    2.001    0.500
        12 -12.4660    162.5452    181.1717   1.0506219444e+02   1.4250911985e+01    0.2905042    0.2291644 -75.20   0.00161927    1.672    0.402
        13 -13.0535    124.9494    171.9416   1.1131553589e+02   2.2785875377e+01    0.7791722    0.4861764  51.01  0.002800979    1.497    0.332
        14 -14.6694    142.1466    175.2892   1.0822854892e+02   1.9069028622e+01     1.306002     0.599231  51.41   0.00556703    2.191    0.544
        15 -14.4016    140.2985    169.4521   1.0761364111e+02   2.0505292177e+01     1.062752    0.3750324  43.35  0.000852574    2.605    0.616
        16 -13.6638    188.1431    175.6918   9.9020480140e+01   1.0329964388e+01    0.7138793     0.448061 -53.48  0.001679797    2.099    0.524
        17 -11.8659    186.9690    165.9485   9.7364156839e+01   1.2150249692e+01    0.4368787    0.2744838 -51.44    0.0017001    1.963    0.490
        18 -12.2674    194.5472    172.3235   9.7145185002e+01   9.6426932266e+00    0.3408609    0.2593687 -48.99  0.001117081    1.572    0.364
        19 -10.8791     26.4435    173.1487   1.3237742312e+02   3.6095317061e+01    0.1998474    0.1939403  -6.23 0.0006717395    1.573    0.364
        20 -12.4251    176.8085    169.0929   9.9992156644e+01   1.3607121541e+01     0.277254    0.1915818 -54.43  0.001410309    1.766    0.434
        21 -12.7998    104.4380    249.2992   1.2457623927e+02   1.2719661749e+01    0.2767973    0.2270958 -16.90  0.001972099    2.266    0.559
        22 -11.5779     25.3699    165.1045   1.3194859855e+02   3.7854668452e+01    0.1847367    0.1676638  57.11 0.0005905646    1.340    0.254
        23 -11.5217    110.8759    230.8318   1.2172345654e+02   1.4604795061e+01     0.269601    0.1467824 -64.69  0.001602917    2.206    0.547
        24 -10.9467    106.1309    229.4252   1.2242065017e+02   1.5527704481e+01    0.1893605   0.09267701  41.57 0.0004836469    1.730    0.422
        25 -10.0609    140.0989    219.0657   1.1508503121e+02   1.1916157459e+01    0.3612702     0.164375 -62.39  0.001668857    3.318    0.699
        26 -11.8906    187.6715    154.6054   9.4911127538e+01   1.3925059777e+01    0.6084436    0.2860755  40.96  0.002529264    2.043    0.511
        27 -10.8147    152.5824    219.6593   1.1286840327e+02   9.7800581000e+00    0.2222349    0.1655995  55.94  0.001214623    1.270    0.213
        28 -12.1752    163.4668    151.4547   9.9228480291e+01   1.9417523253e+01    0.2885107    0.2496289  77.46 0.0007453204    1.341    0.254
        29 -12.8303    103.9303    236.6777   1.2351247674e+02   1.4699819490e+01    0.2656823    0.1676493  57.43  0.001168849    1.295    0.228
        30 -11.2986    174.5382    149.1084   9.6412357644e+01   1.7584925149e+01    0.2782038    0.2041127  51.95 0.0005971661    1.371    0.270
        31 -11.7136      8.2120    138.1284   1.3342285219e+02   4.5039325692e+01    0.2729819    0.1975467 -56.29  0.001250456    1.512    0.339
        32 -12.7332    160.4179    127.7014   9.4646116023e+01   2.4600840806e+01    0.4404583    0.3668473 -78.48  0.001382092    1.469    0.319
        33 -11.2720    217.5508    217.9680   1.0103756914e+02  -7.7400499931e-01    0.1608331    0.1133841 -26.55  0.001028136    1.592    0.372
        34 -12.5131    100.6862    245.2898   1.2484903221e+02   1.3841115589e+01    0.3095188    0.2221488  74.53  0.002270627    1.349    0.259
        35 -10.9392     23.7762    216.9229   1.3573603288e+02   2.8017983576e+01    0.1101307   0.06805009 -85.18 0.0004827862    1.408    0.290
        36 -11.5590    168.2680    113.3257   8.9401044849e+01   2.5635397481e+01    0.4233074    0.3114538 -73.88   0.00115874    1.917    0.478
        37 -11.0891    231.2520    113.7745   7.7542988721e+01   1.1432537460e+01    0.2520926    0.2236886  28.15 0.0007158068    1.137    0.120
        38 -12.4571    102.4939    240.4879   1.2411334595e+02   1.4315809305e+01    0.2267435    0.1766988  77.10  0.001643533    1.252    0.201
        39 -10.9671    205.4581    110.1711   8.1140314219e+01   1.7702671733e+01    0.3272879    0.2078494  41.63 0.0009997244    1.609    0.379
        40 -10.0903    113.1132    206.7372   1.1862609057e+02   1.8280984278e+01    0.1629352    0.1281799  51.15 0.0004751245    1.088    0.081
        41 -11.8046    101.7771    199.6552   1.1997275394e+02   2.1302974459e+01    0.3652655    0.2046454  37.20  0.001967668    1.800    0.444
        42 -12.7319    107.5772    203.6598   1.1932194963e+02   1.9686930415e+01    0.3406686    0.2352813 -66.66   0.00125001    1.588    0.370
        43 -12.2160    104.2740    202.6460   1.1984150327e+02   2.0376938199e+01    0.2082794    0.1747251 -89.28  0.000549679    1.200    0.167
        44 -12.9825     11.6337    206.0428   1.3720516517e+02   3.1158478121e+01     0.337474    0.1974974  36.79  0.002398891    1.898    0.473
        45 -11.9466    219.6581    196.5977   9.7056117950e+01   1.5560560695e+00    0.2280053    0.1518038 -33.02  0.001327846    1.654    0.396
        46  -8.4097    112.9617    195.0847   1.1718683650e+02   2.0397760043e+01    0.3694128    0.2939746 -37.38   0.00184787    1.701    0.412
        47 -12.2485    134.3794    239.7048   1.1855072828e+02   9.7202285815e+00    0.2098865    0.1646184 -53.66 0.0009885569    1.633    0.388
        48 -14.3566    154.2341     61.5380   7.7626653798e+01   3.8390318703e+01     1.191245     1.000177  17.16 0.0009043129    1.308    0.236
        49 -10.9950    163.0519    245.4873   1.1429293503e+02   4.5078162303e+00    0.2665814    0.1385804  45.95  0.001581936    1.509    0.337
        50 -13.2887    170.8612     39.3776   6.7185647059e+01   3.7502360958e+01    0.4734991    0.4397837  56.68 0.0007909784    1.054    0.051
        51 -12.3137    156.4970    189.5310   1.0767266726e+02   1.3930837632e+01    0.2517672    0.2256336  51.63 0.0005698505    1.063    0.059
        52 -11.6329    147.3447    183.9369   1.0859626629e+02   1.6553474060e+01    0.2641503    0.1695991  56.10 0.0009832397    1.576    0.365
        53 -11.3120     13.5162     59.9697   1.2116058309e+02   6.1852823134e+01    0.2047083      0.15588  48.98 0.0004016503    1.687    0.407
