#   1 NUMBER                 Running object number                                     
#   2 MAG_AUTO               Kron-like elliptical aperture magnitude                    [mag]
#   3 X_IMAGE                Object position along x                                    [pixel]
#   4 Y_IMAGE                Object position along y                                    [pixel]
#   5 X_WORLD                Barycenter position along world x axis                     [deg]
#   6 Y_WORLD                Barycenter position along world y axis                     [deg]
#   7 A_WORLD                Profile RMS along major axis (world units)                 [deg]
#   8 B_WORLD                Profile RMS along minor axis (world units)                 [deg]
#   9 THETA_WORLD            Position angle (CCW/world-x)                               [deg]
#  10 FWHM_WORLD             FWHM assuming a gaussian core                              [deg]
#  11 ELONGATION             A_IMAGE/B_IMAGE                                           
#  12 ELLIPTICITY            1 - B_IMAGE/A_IMAGE                                       
         1 -11.1627    194.6387     31.4582   5.6941481921e+01   3.2593114688e+01    0.9672574    0.7542637  46.14  0.004927908    1.356    0.262
         2 -10.6624    205.3265     21.5824   5.2851717653e+01   3.1075034646e+01     0.683579    0.4268877  20.44   0.00297993    2.444    0.591
         3 -11.3022    210.5469     15.1180   5.0548873760e+01   3.0496770183e+01     1.020133    0.7969621 -12.35  0.005785944    1.499    0.333
         4  -7.0335    224.3708      1.2717   4.5770806380e+01   2.8586605736e+01    0.1268996   0.08937538  47.01 0.0006999425    1.675    0.403
         5  -9.2536     52.4938    242.5096   1.3027013432e+02   1.9557088973e+01    0.5278383    0.1931767  71.60  0.002215052    4.303    0.768
         6  -8.0462     98.1309    250.1401   1.2299564724e+02   1.2449082273e+01    0.1536742    0.1043863  62.98 0.0005077487    1.312    0.238
         7  -8.3044     61.0722    249.2865   1.2927469891e+02   1.7404296344e+01    0.3193356    0.1375182  82.15  0.001590044    3.303    0.697
         8 -12.5923     20.5700    174.2319   1.3146129480e+02   3.6102201557e+01     2.194194       0.7776 -70.88   0.01090567    2.335    0.572
         9 -10.8943     29.2856    248.6228   1.3442894629e+02   2.1132592154e+01    0.6755674     0.453405  47.94  0.005326317    1.329    0.248
        10 -11.5939     19.4615    243.4077   1.3574198080e+02   2.3016436498e+01    0.7153285    0.4289823  72.98  0.001919969    1.261    0.207
        11 -11.6404      5.2901    249.3129   1.3817538978e+02   2.3415778173e+01    0.9191685    0.5227969  35.09   0.00684024    1.992    0.498
        12 -12.5794      2.9528    232.7606   1.3791446986e+02   2.6419874650e+01     1.928226    0.4038512 -72.34  0.009335773    3.981    0.749
        13  -7.5590    194.7906    243.0132   1.0495440187e+02  -9.5487758241e-01    0.1325255   0.09253804 -33.48 0.0008095948    1.724    0.420
        14  -7.4796    104.4867    238.0414   1.2072517191e+02   1.3485735729e+01    0.1491502    0.1114038 -67.61 0.0007582745    1.564    0.360
        15 -10.0884     45.2260    234.4552   1.3099043845e+02   2.1785572627e+01    0.3656225    0.2019204  68.18  0.001371344    1.541    0.351
        16  -8.7522     53.7311    232.0717   1.2934859504e+02   2.1210486431e+01    0.2502693    0.1571577 -88.77  0.001581104    1.520    0.342
        17 -10.1076    139.6964    230.8459   1.1337755162e+02   9.3406311845e+00    0.2104308    0.1946178  36.16 0.0004326789    1.152    0.132
        18  -9.3082    113.1238    231.2143   1.1841552560e+02   1.3348671041e+01    0.3278008    0.1656967  57.57  0.001701479    2.058    0.514
        19  -8.6031    100.0008    232.0161   1.2094778700e+02   1.5129604817e+01    0.1449035    0.1144232  54.90 0.0005088236    1.013    0.013
        20 -11.6955     10.4836    207.1866   1.3549302781e+02   3.0386834413e+01    0.6194939    0.4776618  89.31  0.002064846    1.194    0.163
        21  -9.8331     37.4308    226.5004   1.3183976611e+02   2.4073614591e+01     0.331074    0.1525078  65.54  0.001172359    1.938    0.484
        22  -9.6487    245.9173    243.9952   9.6427340457e+01  -8.4293324816e+00     0.232021    0.1581457  -9.77 0.0004740831    1.387    0.279
        23  -7.9981    110.6138    224.7711   1.1817684709e+02   1.4811236714e+01     0.154471    0.1090632 -82.61 0.0009472655    1.680    0.405
        24 -11.1539     66.7517    216.2792   1.2571495431e+02   2.2471759050e+01    0.9972559    0.3398311  55.70  0.004320286    3.041    0.671
        25 -10.2088     71.4276    212.5932   1.2448125594e+02   2.2559648947e+01    0.5269452    0.2470823  69.45  0.002469431    2.727    0.633
        26 -10.6511     46.7138    213.7850   1.2929035383e+02   2.5381838563e+01    0.4474269    0.2824489 -61.44  0.001220167    1.804    0.446
        27 -12.0021     55.4739    203.4032   1.2676702230e+02   2.6354400506e+01     1.354587    0.7702772  48.91  0.004238833    1.516    0.341
        28  -7.3309     29.3167    211.6729   1.3235494125e+02   2.7691648658e+01    0.1686398   0.06994696  76.26 0.0008380103    2.594    0.614
        29  -9.5977     29.3853    216.0800   1.3261794704e+02   2.6852765361e+01    0.4047048    0.1566467  61.21  0.001695533    2.333    0.571
        30  -8.8468     25.1393    216.1651   1.3338075634e+02   2.7274691099e+01    0.2171745    0.1209807  56.44  0.001142667    1.424    0.298
        31  -7.8122    141.6533    216.1865   1.1107618074e+02   1.1397721975e+01    0.2362299    0.1404059  57.13 0.0009936139    1.842    0.457
        32  -8.3381     25.1852    204.2023   1.3264064583e+02   2.9552207708e+01    0.1612727   0.09652295  68.03 0.0008615062    1.362    0.266
        33  -8.8058    248.9111    201.7359   8.8817861248e+01  -4.1231887776e+00    0.2238111    0.1669434  18.37 0.0004548004    1.127    0.113
        34  -8.7546    197.7349    198.8636   9.7411542563e+01   4.6143555877e+00    0.3036144    0.2631122 -68.02  0.001852066    1.692    0.409
        35 -10.1858     31.7816    188.2077   1.3023323599e+02   3.2085420315e+01    0.5337068    0.3073181 -83.57  0.003277355    1.516    0.340
        36  -9.4788    246.7907    183.5078   8.5741060897e+01  -1.4658608164e+00    0.2877362    0.2664114 -58.24 0.0008190725    1.690    0.408
        37  -9.1732     70.6684    184.2364   1.2169432861e+02   2.8329334670e+01    0.3356985    0.2245241 -41.37  0.001536104    2.110    0.526
        38  -9.1789     75.2678    178.3695   1.1998390251e+02   2.8949384021e+01    0.2645522    0.2240745 -44.12 0.0006362456    1.481    0.325
        39  -8.3669      4.7950    183.0575   1.3523400441e+02   3.5641677629e+01    0.2421631   0.07061845 -85.71  0.001043757    3.298    0.697
        40  -7.0894    159.7723    182.0421   1.0198491471e+02   1.4226187354e+01    0.1617864    0.1150305 -46.23 0.0003408888    1.541    0.351
        41  -9.1684    235.0158    178.5561   8.6777524618e+01   1.1564249252e+00     0.305782    0.2149301  40.28 0.0009151904    1.461    0.316
        42  -9.4245    235.8037    173.7385   8.5679807492e+01   1.7057335057e+00    0.3231008    0.2192129  21.51  0.001791806    1.434    0.303
        43  -8.7641      6.5987    174.7614   1.3437669701e+02   3.7202283994e+01    0.1639952    0.0821426  88.19 0.0009600932    1.665    0.400
        44  -7.1612    118.2038    176.0772   1.1001205914e+02   2.2805025036e+01    0.1666261    0.1070688 -54.54 0.0003925578    1.639    0.390
        45  -7.7503     98.5753    170.7467   1.1364058417e+02   2.7144484560e+01    0.1964144    0.1244856 -75.48 0.0009651067    1.795    0.443
        46  -9.6243     90.2425    169.9208   1.1544167066e+02   2.8608796929e+01    0.2986185    0.2239246 -63.25 0.0003621576    1.329    0.248
        47  -8.6863    245.2761    169.0004   8.3109266078e+01   7.6196909352e-01    0.1804491    0.1477917  -6.19 0.0004248669    1.042    0.040
        48  -8.5545    235.8870    168.8950   8.4682985568e+01   2.3882319721e+00    0.2050091    0.1771999 -19.62 0.0003233957    1.169    0.145
        49  -8.1665    156.8052    169.1789   1.0023313393e+02   1.7179297845e+01    0.1982735    0.1814737  59.30 0.0002966184    1.144    0.126
        50  -9.0072     83.5263    168.2434   1.1675809693e+02   2.9970160888e+01    0.2324952    0.2090303  73.38 0.0003926413    1.032    0.031
        51 -10.3209    203.7535    166.4383   9.0044256586e+01   8.6398036617e+00    0.2582535    0.2427602   9.53 0.0004457078    1.098    0.090
        52 -10.6017     71.2977    164.6862   1.1912526434e+02   3.2470539903e+01    0.3940879    0.2508959 -45.24 0.0009274448    1.913    0.477
        53  -9.4868     89.1397    161.7483   1.1447278176e+02   3.0565141573e+01    0.4049833    0.2906525 -22.49 0.0006468714    2.241    0.554
        54  -9.2498     89.7348    155.2507   1.1329767636e+02   3.1922012489e+01    0.3900269    0.2355423  64.19  0.001816771    1.985    0.496
        55 -10.8852     10.4806    155.4689   1.3219294178e+02   4.1011111202e+01    0.6766489    0.2136852 -82.61  0.002889931    2.996    0.666
        56  -8.8109    223.3510    149.1295   8.2697473608e+01   7.6929160322e+00    0.2206706    0.1885822  38.65 0.0002722659    1.234    0.190
        57  -7.3208    209.4539    147.9673   8.4995511948e+01   1.0602685644e+01     0.192443    0.1195005 -56.93 0.0008073497    2.435    0.589
        58 -10.2316     68.3020    144.6918   1.1697540684e+02   3.7405182935e+01    0.6227779    0.3842548  68.59  0.002792539    1.928    0.481
        59  -7.8652    151.8740    146.6189   9.6737056975e+01   2.2596561041e+01    0.2053012    0.1738285  44.59  0.000491222    1.154    0.134
        60  -7.3754    102.0070    145.5281   1.0854946902e+02   3.2141455587e+01     0.199775    0.1110659  60.97 0.0008069608    2.372    0.578
        61  -7.0922     91.4973    144.5273   1.1102517964e+02   3.4074190308e+01    0.1377666    0.1291776 -84.72 5.886064e-05    1.022    0.021
        62  -7.8268    111.5499    133.5335   1.0372281962e+02   3.3182577975e+01    0.1443062    0.1381662 -84.06  0.000217266    1.020    0.019
        63  -7.1916     16.9791    127.7432   1.2803367346e+02   4.6724872434e+01    0.1233245    0.1044878  34.51 0.0002795533    1.439    0.305
        64  -7.0503    240.9616    123.9998   7.4033882997e+01   8.2195296619e+00    0.1603482    0.1453424  -7.30 0.0009524846    1.043    0.041
        65 -11.1473     37.9237    244.1918   1.3280092229e+02   2.0936834023e+01     1.247011     0.279199  54.15  0.005550363    3.566    0.720
        66  -7.1155    166.3463    100.7617   8.2167737936e+01   2.8610381866e+01    0.1498728    0.1224781  87.68 0.0002390594    1.563    0.360
        67  -9.7275    222.3049     94.2804   6.9844760226e+01   1.6813125875e+01    0.2506285     0.235443  -7.86 0.0003011847    1.061    0.057
        68  -7.6437    226.9117     90.4949   6.8167199248e+01   1.6391089606e+01    0.1998479    0.1416192  51.50 0.0003879366    1.510    0.338
        69  -6.8694    112.3497     87.7201   9.1994125630e+01   4.3117768469e+01    0.1486092    0.1204618  86.52 0.0007011839    1.645    0.392
        70  -7.1921    217.6834     83.7335   6.7879380351e+01   1.9531911447e+01    0.1428754    0.1107475  19.52 0.0006955061    1.551    0.355
        71  -7.4534    166.5110     74.5103   7.4609198597e+01   3.3354296191e+01    0.1546132    0.1469315  10.66 0.0001033697    1.072    0.067
        72  -6.9815    140.2787     64.2862   7.7283689528e+01   4.1460389277e+01    0.1502226    0.1166682  14.03 0.0002070237    1.516    0.340
        73  -7.3249    161.7007     52.6542   6.8835604974e+01   3.8083493977e+01    0.1568978    0.1144995  20.06 0.0004828031    1.679    0.404
        74  -9.1206    219.2306     45.6776   5.7653746007e+01   2.4727788300e+01    0.3845004    0.2378081 -29.28  0.001137645    1.585    0.369
        75  -8.9404     67.9736    248.2399   1.2803819666e+02   1.6723223112e+01     0.291738    0.1736243 -89.66 0.0009955474    1.775    0.437
        76  -9.2881    192.8531     37.8514   5.9032630994e+01   3.2244438587e+01    0.3213799    0.2551309 -77.27  0.000746666    1.352    0.260
        77 -10.0103    188.6457     37.6714   5.9592063457e+01   3.3330998199e+01    0.4436891    0.3306159  25.29   0.00175657    1.637    0.389
        78  -9.2435     71.1774    245.7826   1.2731054637e+02   1.6721581621e+01    0.2757113    0.2082244 -87.47  0.001180184    1.356    0.262
        79  -8.3628     43.9884    247.6133   1.3200115216e+02   1.9687837583e+01    0.1758385    0.1174447  77.45 0.0004138735    1.255    0.203
        80  -7.1557    166.2327     28.0080   6.0102622973e+01   4.0247895668e+01    0.1732709    0.1203434 -25.62            0    1.506    0.336
