#   1 NUMBER                 Running object number                                     
#   2 MAG_AUTO               Kron-like elliptical aperture magnitude                    [mag]
#   3 X_IMAGE                Object position along x                                    [pixel]
#   4 Y_IMAGE                Object position along y                                    [pixel]
#   5 X_WORLD                Barycenter position along world x axis                     [deg]
#   6 Y_WORLD                Barycenter position along world y axis                     [deg]
#   7 A_WORLD                Profile RMS along major axis (world units)                 [deg]
#   8 B_WORLD                Profile RMS along minor axis (world units)                 [deg]
#   9 THETA_WORLD            Position angle (CCW/world-x)                               [deg]
#  10 FWHM_WORLD             FWHM assuming a gaussian core                              [deg]
#  11 ELONGATION             A_IMAGE/B_IMAGE                                           
#  12 ELLIPTICITY            1 - B_IMAGE/A_IMAGE                                       
         1 -15.3274      9.2414    180.3598   1.2873061705e+02   3.6608240570e+01       1.4967     1.053572  85.07   0.01113375    1.241    0.195
         2 -15.3659      6.3833     69.2826   1.2136418420e+02   6.1560444407e+01     1.584056     1.027209 -85.36  0.005408111    1.337    0.252
         3 -14.2417      7.1221     47.2366   1.1736157188e+02   6.6787595940e+01     1.203693    0.9499813  75.86  0.007789938    1.367    0.268
         4 -15.2316     20.9756     96.9615   1.1954622059e+02   5.3900839013e+01     1.928314     1.334337 -10.03   0.01092759    2.084    0.520
         5 -13.3032     80.8353     56.6754   8.7928358088e+01   5.5532400176e+01     1.853667    0.9061021 -37.32  0.007372533    2.180    0.541
         6 -12.6836    120.6474     26.2013   6.3705315960e+01   5.1797177333e+01    0.8134601    0.5681118  33.34  0.003790132    1.553    0.356
         7 -14.8528    119.7663     54.6516   7.5128706809e+01   4.7551690534e+01      1.04347    0.9435824  32.87  0.001745005    1.132    0.116
         8 -13.1585    138.9212     22.2068   5.8292973481e+01   4.7506418027e+01     0.763296    0.4183895  57.72  0.001797867    1.738    0.425
         9 -15.0105    119.7568     38.0612   6.8799531011e+01   5.0310586795e+01     2.003286    0.7718977  48.55   0.00702372    2.557    0.609
        10 -14.7730    166.6414     30.1500   5.6576809665e+01   3.9142562348e+01     1.238028     1.104468  66.69  0.003988232    1.131    0.116
        11 -14.8908    147.6810     30.4551   5.9848110915e+01   4.4150369005e+01     1.587741    0.9053379  64.24  0.004944379    1.762    0.432
        12 -13.2265    232.5954      2.2237   4.1477487320e+01   2.5400044947e+01     1.341493     0.289979  69.96  0.004651196    4.198    0.762
        13 -15.6403    190.6329     24.3390   5.1460784651e+01   3.3515629211e+01     3.602891     2.018723  86.25   0.01537081    2.138    0.532
        14 -13.8077    223.7005     20.9212   4.7157108733e+01   2.5715603448e+01    0.7973881    0.5347623  15.46  0.001372081    1.905    0.475
        15 -14.7169    217.4479     42.0555   5.3642179834e+01   2.4904494685e+01     1.520188     0.933373  65.37  0.005150404    1.757    0.431
        16 -14.5062    218.9740     14.9338   4.5890908424e+01   2.7421390797e+01      1.23454    0.7385803  21.21  0.005642583    2.320    0.569
        17 -14.0129    215.1362      9.8956   4.4779238900e+01   2.8819951919e+01    0.8859618    0.6303064  44.86  0.003484882    1.597    0.374
        18 -13.8759     58.7999     63.7748   9.8566721727e+01   5.7661995400e+01     1.658007    0.9813107 -27.70  0.003630962    2.449    0.592
        19 -13.7446    242.2170     34.7298   4.9228965295e+01   2.0128850830e+01    0.8101345    0.6392225  80.62  0.003118629    1.451    0.311
        20 -14.7217     42.0733      6.5732   8.1101952912e+01   7.1682400459e+01     1.716294     1.139377  -3.46  0.008947458    1.818    0.450
        21 -13.0567      7.7888      2.6144   1.0156639107e+02   7.6622582508e+01    0.6252561    0.4284696  41.88  0.002797379    1.950    0.487
        22 -15.1081      9.0820     29.2586   1.1180890042e+02   7.0843148244e+01     1.187848    0.7982062  21.43  0.007240572    1.759    0.432
        23 -15.2085     13.8522     20.0095   1.0557267776e+02   7.2549447623e+01     1.030791    0.9288188 -55.40  0.007160292    1.138    0.121
        24 -14.6811     23.6512     13.9522   9.6422020076e+01   7.2876571477e+01    0.8379973    0.5056176  30.98  0.002832319    1.874    0.467
        25 -12.9429     72.0434     16.3412   7.3337167493e+01   6.4616295247e+01    0.7547125    0.3848283 -26.49  0.001766956    1.988    0.497
        26 -13.5662    187.5641     12.5967   4.8076781038e+01   3.5515041038e+01     0.673368    0.5941751  -7.49  0.002516353    1.194    0.162
        27 -15.5278     98.1404     12.6738   6.3103172009e+01   5.9172570881e+01     1.863215    0.8517415  55.16  0.003671122    2.067    0.516
        28 -11.9377    203.8354     11.9816   4.6329276705e+01   3.1409951062e+01    0.4626881    0.2256403 -66.21  0.001863397    2.525    0.604
        29 -11.7522    153.1290      8.5292   5.0736060736e+01   4.5123379026e+01    0.2770617    0.2450853 -28.54 0.0006536511    1.143    0.125
        30 -11.1720     59.5058      6.5345   7.2713283537e+01   6.8552147106e+01    0.2910767    0.2078761  70.05  0.001482232    2.036    0.509
        31 -13.5395      2.9347     10.4806   1.0919781353e+02   7.5344360225e+01    0.8082162    0.3451086 -62.82  0.004052563    1.963    0.491
        32 -11.2002    112.0432      1.7562   5.4573010226e+01   5.6792460037e+01    0.2690423    0.2019224  83.06  0.001356111    1.466    0.318
        33 -11.7991    119.9749      3.7684   5.3998399513e+01   5.4520358758e+01    0.4183048    0.2149347  74.75  0.001370437    2.099    0.524
        34 -11.8748    116.7275      1.4308   5.3527027602e+01   5.5591146898e+01    0.3511662    0.2225305  74.68 0.0008133415    1.641    0.391
        35 -12.4085     79.3115      2.1374   6.2866809001e+01   6.4849734804e+01    0.6414547    0.2317664  52.95  0.002493311    2.503    0.600
        36 -11.8633    182.7525      2.4596   4.5276474262e+01   3.7700448780e+01    0.4425912     0.229478 -71.67  0.001824662    2.279    0.561
        37 -12.3403     62.0263      1.9815   6.8832016327e+01   6.8639161480e+01    0.3542171    0.2294647  54.94  0.001834964    1.668    0.401
        38 -10.8601     28.4217      1.7565   8.5979598882e+01   7.4513279733e+01    0.1794706    0.1026473 -30.74 0.0009423271    1.594    0.373
        39 -12.3261     77.3744    156.9483   1.1111645346e+02   3.3818939348e+01    0.4534806    0.2786025  37.25  0.001914965    1.540    0.351
        40 -11.8965     52.4779    250.4930   1.2376909378e+02   2.0593240030e+01    0.1617583   0.08045763  55.56 0.0007108175    1.516    0.341
        41 -12.5394     56.8447    246.9241   1.2284801233e+02   2.0630010485e+01     0.472168    0.1122375  39.30   0.00245255    2.592    0.614
        42 -11.9899     40.5101    243.9592   1.2549915867e+02   2.2791836567e+01    0.2800731    0.1519537  87.81  0.002058887    1.974    0.493
        43 -13.8180     27.8488    245.7331   1.2770780270e+02   2.3793751105e+01    0.5815433     0.276061  69.47  0.004146978    1.850    0.459
        44 -11.8563      2.7909    249.9199   1.3191441338e+02   2.5470367608e+01    0.2791981    0.1038881  43.74  0.001763483    1.664    0.399
        45 -13.9838      8.9545    245.6420   1.3082641532e+02   2.5559586365e+01    0.6578012    0.2871579  50.51  0.003260187    1.452    0.311
        46 -13.4631     74.1391    153.1754   1.1142724762e+02   3.5051568112e+01    0.5777265    0.4199642  26.67  0.002641517    1.574    0.365
        47 -12.6461    122.2877    155.2494   1.0018283587e+02   2.7128583297e+01     0.509641    0.3130991 -35.49   0.00250171    2.112    0.527
        48 -11.6274    112.8245    157.2900   1.0270134823e+02   2.8331424577e+01    0.2202599    0.1517021  53.82  0.001194699    1.403    0.287
        49 -12.7238    208.6989    154.6241   8.2603421168e+01   1.1706969552e+01    0.5565602    0.3288108  43.67  0.002992634    1.643    0.392
        50 -11.4676     56.1430    155.7618   1.1619473283e+02   3.6835511589e+01    0.2266887    0.1429632 -46.34  0.001234966    2.081    0.519
        51 -12.1122     85.9651    152.5704   1.0841889515e+02   3.3489044785e+01    0.4070641    0.2775029 -47.05  0.002238519    1.736    0.424
        52 -12.0834    103.3195    150.2575   1.0382569222e+02   3.1268492290e+01    0.3755993    0.2949906 -23.15  0.001926722    1.749    0.428
        53 -12.3075    243.9868    146.4736   7.5310066637e+01   6.7235943158e+00    0.3076531    0.1433233 -31.16  0.001571589    2.033    0.508
        54 -10.9641    212.5701    200.2327   9.0035804322e+01   5.5566899717e+00    0.1524667   0.09610318 -10.58 0.0009502742    1.690    0.408
        55 -12.2319     63.1354    147.1694   1.1344669104e+02   3.7797342967e+01    0.1843489    0.1752746 -62.85 0.0006791704    1.248    0.198
        56 -10.7502     38.4174    145.7639   1.1966797569e+02   4.0994293536e+01    0.1618264    0.1013939 -65.37  0.000599343    1.590    0.371
        57 -11.3788     63.2093    134.5039   1.1176062224e+02   4.0572794883e+01    0.2182031    0.1877733  75.86  0.001362581    1.041    0.040
        58 -12.6892     44.1650    132.8446   1.1678115705e+02   4.3251447636e+01    0.4413209    0.3139434  81.37  0.002266257    1.310    0.236
        59 -12.9441    246.2585    133.5216   7.2313037970e+01   7.8351608003e+00    0.4287144    0.3339571 -28.97  0.002636703    1.344    0.256
        60 -14.7294    229.8822    129.3948   7.3869245192e+01   1.1190524294e+01     1.147475    0.9181887  51.59  0.007011716    1.512    0.339
        61 -13.2799     22.3348    181.2322   1.2598434436e+02   3.5275928838e+01    0.4215465    0.3285487  89.80  0.001866552    1.243    0.196
        62 -12.0532    132.8898    128.1907   9.2521204451e+01   3.0388629263e+01    0.7151868    0.2748228 -37.54  0.002451843    3.416    0.707
        63 -12.5580    135.7746    102.9597   8.5864492927e+01   3.4732730474e+01    0.9007313    0.3203886  48.63  0.002972399    2.831    0.647
        64 -13.6493    120.9472    102.3909   8.9475040379e+01   3.7942044745e+01    0.9147237    0.3965489  41.74  0.003443754    2.339    0.572
        65 -13.0596     77.2717    117.0814   1.0496689944e+02   4.2532460544e+01    0.7511485    0.4041797 -59.89  0.003490106    1.816    0.449
        66 -14.8166    105.2712    122.1399   9.8188781466e+01   3.6780639719e+01      1.75166     1.043359  34.51  0.008094749    1.778    0.438
        67 -15.2918    106.3585    106.0099   9.4308047534e+01   4.0044797328e+01     1.604038     1.347654 -16.41  0.008449442    1.464    0.317
        68 -11.2650     25.3671    127.1629   1.2144153771e+02   4.6434882447e+01    0.2348146     0.203165 -35.59  0.001026543    1.511    0.338
        69 -13.1448     28.5150    122.5439   1.2008450852e+02   4.7208444701e+01    0.3401259    0.2808905 -87.91  0.002247676    1.060    0.057
        70 -11.4733     59.4961    125.7143   1.1153221543e+02   4.3044065787e+01    0.2597781    0.1830103   5.49  0.001136798    2.186    0.543
        71 -11.9877    181.0376    121.2971   8.0515737931e+01   2.1861617031e+01    0.3093405    0.2308673  54.38  0.001333541    1.460    0.315
        72 -11.8440      3.9479    119.9173   1.2696039053e+02   4.9760827653e+01    0.4447885    0.1725565  19.47  0.002141668    3.122    0.680
        73 -14.3431     18.1107    110.8431   1.2201342276e+02   5.0833848391e+01     0.902886    0.7268148 -26.56  0.005825945    1.658    0.397
        74 -14.1244    170.7256    242.9606   1.0287744797e+02   6.7931025398e+00    0.8451297    0.4127459  33.50  0.005376284    1.522    0.343
        75 -13.8507     25.7764    227.3617   1.2738712643e+02   2.6814742503e+01    0.5492098    0.3077275 -64.36  0.003912402    2.292    0.564
        76 -13.6253     20.8999    225.0984   1.2817307240e+02   2.7644180998e+01     0.379764    0.3261665  77.94  0.002312321    1.338    0.253
        77 -11.9128    176.8278    110.7899   7.8814776012e+01   2.4452751641e+01    0.4191172    0.3025176   2.05  0.002018405    1.700    0.412
        78 -12.0720    121.1879    111.9044   9.1749308963e+01   3.5936831645e+01    0.3160483    0.1984601  55.98  0.001419696    1.745    0.427
        79 -11.8168     45.3996    110.0889   1.1340688291e+02   4.8394387391e+01    0.4065061    0.3072524  78.65  0.002369002    1.281    0.219
        80 -12.4508     32.9142    110.7145   1.1739827231e+02   4.9559076629e+01    0.3225918    0.2004278 -84.95  0.001533828    1.489    0.328
        81 -14.3463     86.3138    112.9599   1.0154102971e+02   4.2042659944e+01     1.644085    0.9198701 -31.92  0.006413672    3.012    0.668
        82 -11.9599     61.9799    108.9057   1.0804429797e+02   4.6617204895e+01    0.6225945    0.3020161 -71.43   0.00267193    2.212    0.548
        83 -12.9942     62.3423     99.4610   1.0612657689e+02   4.8792086918e+01    0.9941983    0.4708769  55.20  0.003990455    2.680    0.627
        84 -11.7385     56.3888     93.1077   1.0680617197e+02   5.1100160863e+01    0.2719032    0.1991392  16.76 0.0005271104    1.737    0.424
        85 -13.1158     52.4618     98.0386   1.0909544361e+02   5.0425348187e+01    0.8563624    0.5157422   6.32   0.00373773    2.875    0.652
        86 -12.6588     49.4632     94.5712   1.0945008692e+02   5.1621738461e+01    0.4148924    0.2933376  76.50  0.001407695    1.555    0.357
        87 -10.9188     81.0500    135.9602   1.0717528955e+02   3.7749189793e+01    0.1917761     0.177086  73.63  0.001193876    1.032    0.031
        88 -13.4066    249.0737     95.8902   6.3579184629e+01   1.1766328131e+01    0.8953071    0.2240748 -29.14  0.003225769    3.244    0.692
        89 -11.5712    161.9518     97.7828   7.8516998584e+01   2.9930246963e+01    0.3221843     0.288069 -10.55  0.001462393    1.138    0.121
        90 -13.0218    137.1074     95.7275   8.3619411883e+01   3.5847542832e+01    0.4411456    0.3910434  71.99  0.001308622    1.242    0.195
        91 -12.7606    128.7782     96.1917   8.5820910391e+01   3.7561269278e+01    0.3541253    0.2550465  80.66  0.001556035    2.013    0.503
        92 -11.8379     43.3108     91.4282   1.1098347729e+02   5.3092370809e+01    0.4450661    0.2314963 -85.00  0.001406892    2.355    0.575
        93 -13.7902    239.7456     82.2590   6.1504795337e+01   1.5203191738e+01    0.9839349     0.657097 -72.16   0.00476626    2.497    0.600
        94 -12.6917     89.7567     88.2351   9.4705797955e+01   4.7022416557e+01    0.5385776    0.3809949  44.91  0.002663037    1.448    0.309
        95 -12.8057    149.4741     85.1413   7.7729153677e+01   3.5027494202e+01    0.8311017    0.3735742  36.04  0.002785821    3.005    0.667
        96 -14.3960    164.3560     71.3887   7.0466003541e+01   3.3825838204e+01     1.639285    0.9134501  57.03  0.006843046    1.855    0.461
        97 -13.7350    160.9547     80.4406   7.3864036074e+01   3.3147584990e+01    0.8427861    0.6157995  19.02  0.002581693    1.679    0.404
        98 -14.6143    169.3332     77.1410   7.1204964951e+01   3.1691130459e+01     1.563186     0.629324  53.41  0.005660926    2.474    0.596
        99 -12.5477    126.8347     86.0667   8.3485312085e+01   3.9991357571e+01    0.4462411    0.4373417 -18.61  0.002476516    1.025    0.025
       100 -13.0566    132.0303     85.7988   8.2081412187e+01   3.8890438475e+01    0.3999511    0.3800961  19.33  0.001356481    1.077    0.071
       101 -13.1945    135.6205     80.1316   7.9508147178e+01   3.9155335994e+01    0.8218054    0.5021912  48.23   0.00274234    1.636    0.389
       102 -11.6577     34.4868     86.6793   1.1326832226e+02   5.5170923724e+01    0.2502167    0.2034667 -66.29 0.0006612438    1.102    0.093
       103 -13.2144    188.7331     84.2087   6.9621790547e+01   2.6011963162e+01    0.7808907    0.3475506  41.79  0.002487399    2.472    0.596
       104 -13.2681    237.2272    230.8345   9.0729632614e+01  -7.8671323539e-01    0.3170991    0.2146517  30.54  0.002458541    1.297    0.229
       105 -13.3410     91.0143     57.3509   8.4677712218e+01   5.3405975401e+01    0.7552727    0.4389448 -54.12  0.002523949    1.907    0.476
       106 -13.6052     87.5058     65.3119   8.8606351936e+01   5.2451364402e+01    0.7822493    0.5604762 -21.47   0.00272077    1.767    0.434
       107 -13.0456     70.8302     75.6461   9.7547302518e+01   5.3101688661e+01    0.5996645    0.4877836 -31.87  0.002286468    1.355    0.262
       108 -12.3188     77.1847     73.5280   9.4712857394e+01   5.2529902468e+01    0.4662882    0.3061167 -39.31  0.001338045    1.594    0.373
       109 -13.0835     55.1285     81.5937   1.0471404358e+02   5.4007027414e+01    0.6074522    0.4034719 -47.10  0.002667228    1.493    0.330
       110 -13.8127     61.0159     75.4725   1.0103747214e+02   5.4635452472e+01    0.6990774    0.4613511 -44.16 0.0009788028    1.520    0.342
       111 -13.1047    218.3029     74.8497   6.2460191557e+01   2.0642324583e+01    0.8022536    0.4762138 -68.72  0.003215201    3.053    0.672
       112 -11.9464    216.8266     80.7962   6.4226977521e+01   2.0180022002e+01    0.5240238    0.3502355 -17.55   0.00191181    1.459    0.314
       113 -12.9440    210.5637     77.7197   6.4333165122e+01   2.1975551698e+01    0.6641936    0.4744358 -76.47   0.00317366    2.065    0.516
       114 -11.1173     90.3009     81.4298   9.2658851874e+01   4.8433085733e+01    0.3058394    0.2484982 -56.91  0.001597335    1.207    0.171
       115 -11.8624     94.1189     79.3203   9.0843478845e+01   4.8175490458e+01    0.5197175     0.183524  48.24  0.001728499    3.125    0.680
       116 -12.1904    113.9896     79.9648   8.5139705700e+01   4.4003959443e+01    0.4412627    0.3721408 -56.20  0.001402433    1.221    0.181
       117 -13.5475      2.2506     97.1184   1.2582982522e+02   5.5149035114e+01    0.7176015    0.2402763 -78.87  0.003199275    2.420    0.587
       118 -11.5475     42.3503     77.0804   1.0844068162e+02   5.6654318698e+01    0.2463675    0.2371285  39.14  0.001339532    1.175    0.149
       119 -14.1888    197.6772     70.2442   6.4247031956e+01   2.5965039553e+01     1.248273    0.7413475  32.12  0.004632292    2.054    0.513
       120 -12.2539    241.5322     71.3138   5.8584812311e+01   1.6158135366e+01    0.4385453    0.2803843 -62.80  0.002152451    2.224    0.550
       121 -13.5351    133.3876     66.8719   7.5874119747e+01   4.2119912100e+01     1.020165    0.7566102   7.53  0.003705188    1.788    0.441
       122 -10.9149    100.8649     70.0889   8.5894874253e+01   4.8789809348e+01    0.2339452    0.2051285 -79.10  0.001218687    1.285    0.222
       123 -12.4843     38.5077     68.2076   1.0792098491e+02   5.9205021775e+01    0.7833973    0.3902557  25.38  0.003625923    2.367    0.577
       124 -11.2339     43.8768     62.1273   1.0413855407e+02   6.0031207018e+01    0.1925562     0.168843 -88.60  0.001150417    1.202    0.168
       125 -12.2661     25.2031    217.0962   1.2708073344e+02   2.8547940624e+01     0.593547    0.1998495  46.69  0.003483286    1.973    0.493
       126 -14.0276    101.3244     49.6450   7.8509615771e+01   5.2703180761e+01    0.9591836    0.7687715  77.59  0.003740822    1.561    0.359
       127 -12.9318    135.5671     50.6596   6.9775386332e+01   4.4360346449e+01    0.6315188    0.4045481  31.98  0.002224956    1.879    0.468
       128 -13.8973     96.1160    238.5818   1.1541792689e+02   1.7200988301e+01    0.5129092    0.3149548  46.82  0.001988764    1.204    0.169
       129 -13.1426     57.2698    203.7249   1.2012862256e+02   2.7436766100e+01    0.7100126    0.2783029 -75.41  0.003706836    2.915    0.657
       130 -13.2415     66.5141    222.8934   1.1967503537e+02   2.3160274604e+01    0.6481678    0.4535422  33.87  0.004725707    1.393    0.282
       131 -13.8843     62.8347    214.5480   1.1979803648e+02   2.4945595250e+01    0.6392574      0.33665  54.84   0.00405581    1.546    0.353
       132 -13.0142     95.2880    218.6858   1.1388559561e+02   2.0232649559e+01    0.4642869    0.1873501  37.32  0.002484218    1.956    0.489
       133 -11.7864    100.2732     65.1101   8.4427653533e+01   4.9930763824e+01     0.365258    0.3374658 -36.51  0.001269773    1.058    0.054
       134 -14.1157    178.0514     57.8839   6.3795048471e+01   3.2494316859e+01    0.9581171    0.7199486 -36.54  0.002511951    1.286    0.222
       135 -10.6917     38.9348     60.4425   1.0577171435e+02   6.0999588522e+01    0.2748957    0.1526794  78.75  0.001036936    3.506    0.715
       136 -12.0853     24.3316     60.0920   1.1205459854e+02   6.2518816840e+01    0.3158415    0.2099832 -58.15  0.001061843    1.275    0.216
       137 -13.2636    248.1496     51.6043   5.2954439015e+01   1.7061004241e+01    0.6882985    0.4196564 -21.58  0.003653887    1.452    0.311
       138 -11.9850    230.4147     55.5738   5.5842227953e+01   2.0377348101e+01    0.3969997    0.2378732  63.29  0.001979485    1.866    0.464
       139 -13.2788     66.0694     48.9175   9.0637820858e+01   5.9790744614e+01    0.5605277    0.4954979 -80.13  0.003174051    1.315    0.240
       140 -11.0963     23.5373     49.8305   1.0992537553e+02   6.5018562725e+01    0.2984092    0.1437133 -30.25  0.001243514    2.908    0.656
       141 -11.0562     26.8926     46.2739   1.0730710004e+02   6.5546328896e+01    0.2460174    0.2041169  46.43  0.001417763    1.404    0.288
       142 -11.1912     85.4870    215.9755   1.1552921604e+02   2.1930010056e+01    0.2347464    0.1142201  48.45    0.0013821    1.622    0.384
       143 -12.5440    147.3696    239.0169   1.0641210803e+02   1.0398700095e+01    0.1897835     0.153365  68.08 0.0009346475    1.666    0.400
       144 -12.8928    185.3514    213.2375   9.6604273772e+01   8.0938724073e+00    0.2568932    0.1801629 -32.72   0.00177169    1.721    0.419
       145 -13.3794      9.7297    210.3272   1.2970775677e+02   3.1121265177e+01     0.637843    0.3552609  38.17  0.004593542    1.527    0.345
       146 -11.5181    157.4142    213.2348   1.0158290665e+02   1.2224906106e+01    0.1338656    0.1128268 -64.79 0.0009549524    1.707    0.414
       147 -11.5447    136.8140    211.3064   1.0517582343e+02   1.5531838310e+01    0.1722893    0.1556514  77.60 0.0009173233    1.371    0.270
       148 -13.4909    205.3467     40.3458   5.4561294800e+01   2.8000952528e+01    0.6885258    0.4219165 -79.57  0.003024612    2.206    0.547
       149 -13.2731    157.7787     43.5625   6.2695401313e+01   3.9725505333e+01    0.9253378    0.5807812  29.42  0.003863836    1.996    0.499
       150 -12.1236     45.4890    209.0022   1.2281032827e+02   2.7843134183e+01    0.2843806    0.1362958  89.70  0.001672852    2.308    0.567
       151 -12.0671    169.9170     43.3637   6.0517002058e+01   3.6592786361e+01    0.3807253    0.2336772  46.00  0.001669369    1.694    0.410
       152 -11.4766     55.6364     41.1086   9.1968786078e+01   6.3114604886e+01    0.2012528     0.192756   6.25  0.000307178    1.114    0.102
       153 -10.7245     51.7355     40.3845   9.3419214229e+01   6.3856945231e+01    0.1965543    0.1716974  64.87  0.001140165    1.401    0.286
       154 -11.1310     80.4960    208.5008   1.1586318230e+02   2.3785732887e+01    0.2117395    0.1171989  58.61  0.001100097    1.689    0.408
       155 -13.2575    132.0415     32.8728   6.3878492783e+01   4.7943472258e+01    0.6341329    0.4609289   3.47  0.002088321    1.651    0.394
       156 -11.7755     69.9981     36.3498   8.3933676139e+01   6.1613630457e+01     0.411529    0.2331522  33.76  0.001606509    2.025    0.506
       157 -11.8287     58.5682     35.5049   8.8331445621e+01   6.3785130608e+01    0.5491969    0.2734677  34.47  0.002385675    2.281    0.562
       158 -12.3109     46.0637     34.0885   9.3477936685e+01   6.5991038686e+01    0.5026833    0.2879877 -36.77  0.002426876    1.714    0.417
       159 -11.3837    151.0391    206.7999   1.0192098290e+02   1.4048428788e+01    0.2913127    0.1297884  33.93  0.001482622    1.950    0.487
       160 -12.2998     29.4723     32.2724   1.0124076939e+02   6.8438994603e+01    0.6441503    0.3785577   0.38  0.002007287    2.537    0.606
       161 -13.0018     40.6111    195.4348   1.2296183015e+02   3.0773829304e+01    0.4112766    0.1572843  85.62  0.001902552    3.406    0.706
       162 -13.7230     18.4337    161.5301   1.2577101665e+02   3.9566228174e+01     1.313655    0.6065781  34.58  0.007471628    1.988    0.497
       163 -12.8355     16.7293    195.8210   1.2782719382e+02   3.3058527131e+01    0.5738052    0.2332327 -66.77  0.003293815    2.680    0.627
       164 -13.4918     29.9052    169.3979   1.2360973517e+02   3.6885486235e+01    0.5791453    0.3949077 -48.26  0.001645297    2.024    0.506
       165 -11.1857     90.9740     33.7408   7.5201387814e+01   5.7800794046e+01    0.3076402    0.2169326  17.07  0.001416117    1.792    0.442
       166 -10.6115     35.8084     34.3900   9.8726972589e+01   6.7264137305e+01    0.1667198    0.1240572   6.40  0.000340722    1.603    0.376
       167 -12.6791     75.9988     37.4664   8.2102495659e+01   6.0261354715e+01    0.3640665    0.2724971  43.82 0.0008876266    1.407    0.289
       168 -10.5026     89.3651     30.2406   7.4148576223e+01   5.8733912662e+01    0.1915342    0.1304393 -40.77 0.0001813755    1.462    0.316
       169 -11.5130    209.5042    249.5191   9.7425036537e+01   1.0858281956e+00    0.1034747   0.07024208  24.14 0.0008103595    1.007    0.007
       170 -12.8451     56.4907     27.5252   8.5591190875e+01   6.5668457156e+01    0.6363099     0.315812  47.42  0.001844514    2.345    0.574
       171 -12.9612     67.8455     24.5214   7.9238138979e+01   6.4151388452e+01    0.7206492    0.3920047  42.43  0.003294457    1.921    0.480
       172 -13.1602    164.1474    194.5232   9.7726972566e+01   1.3730884511e+01     0.475869    0.3083644 -57.28  0.002726551    2.321    0.569
       173 -10.8691     97.9106     27.1611   7.0077842516e+01   5.7265084043e+01    0.2239275     0.204952 -74.34  0.001221017    1.263    0.209
       174 -12.0694     46.3431     20.9729   8.7164673838e+01   6.8525513810e+01    0.3745455    0.2775052 -34.45  0.001485801    1.208    0.172
       175 -12.7172    201.1168    191.9505   9.0639367827e+01   8.2416731520e+00    0.3552203    0.2458026  -7.03   0.00194406    1.521    0.343
       176 -10.5036     54.2744     19.6485   8.2612264003e+01   6.7467111461e+01    0.1776881    0.1228037  29.92 0.0009280611    1.563    0.360
       177 -11.3358     60.2759     17.7714   7.8891959852e+01   6.6709440958e+01    0.2528454    0.1601177 -37.44 0.0008876755    1.485    0.327
       178 -10.9634    107.4390    192.7922   1.0877826643e+02   2.2742517362e+01    0.1510821    0.1122375 -43.20 0.0009524888    1.725    0.420
       179 -13.1910    198.6298    181.6486   8.9351610833e+01   9.9043670315e+00    0.2843236    0.2690558 -30.11  0.001819311    1.420    0.296
       180 -12.0337     49.0952    181.5190   1.2018738223e+02   3.2455366011e+01    0.3480399     0.233185 -52.76  0.002196281    1.933    0.483
       181 -12.2599     84.7849    179.8864   1.1214285055e+02   2.8274230780e+01    0.2336937    0.1592538  78.45  0.001384585    1.629    0.386
       182 -10.6725    218.3192    176.6823   8.5118423351e+01   7.3558051742e+00    0.1018822   0.09779394  69.81 0.0007041262    1.660    0.397
       183 -12.5848    130.7856    173.6230   1.0125932689e+02   2.2395603239e+01    0.2888098    0.2076239  49.02  0.001693491    1.274    0.215
       184 -13.1124    124.6786    168.3294   1.0176471233e+02   2.4328784613e+01     0.346938    0.2598494 -86.78  0.001953947    1.798    0.444
       185 -12.8210    121.9867    164.4918   1.0176009047e+02   2.5466803568e+01     0.576856    0.2180308  43.62  0.002408532    2.329    0.571
       186 -12.6015     90.9064    167.9696   1.0932641548e+02   2.9676514357e+01    0.2927328    0.2680335 -57.59   0.00123314    1.277    0.217
       187 -11.3232    155.4415    157.9639   9.3408221279e+01   2.0789255291e+01    0.2937304     0.154935  56.07   0.00126643    2.451    0.592
