#   1 NUMBER                 Running object number                                     
#   2 MAG_AUTO               Kron-like elliptical aperture magnitude                    [mag]
#   3 X_IMAGE                Object position along x                                    [pixel]
#   4 Y_IMAGE                Object position along y                                    [pixel]
#   5 X_WORLD                Barycenter position along world x axis                     [deg]
#   6 Y_WORLD                Barycenter position along world y axis                     [deg]
#   7 A_WORLD                Profile RMS along major axis (world units)                 [deg]
#   8 B_WORLD                Profile RMS along minor axis (world units)                 [deg]
#   9 THETA_WORLD            Position angle (CCW/world-x)                               [deg]
#  10 FWHM_WORLD             FWHM assuming a gaussian core                              [deg]
#  11 ELONGATION             A_IMAGE/B_IMAGE                                           
#  12 ELLIPTICITY            1 - B_IMAGE/A_IMAGE                                       
         1  -9.5212    197.9093     24.5343   5.8364681904e+01   3.2400286926e+01    0.3511958    0.2172859  38.84  0.001084356    1.768    0.434
         2 -13.6973    235.0956    243.7891   1.0097982293e+02  -2.8830019095e+00     2.493192    0.7419178  38.66   0.01295338    2.404    0.584
         3 -12.8942    246.9396    218.5987   9.5632731110e+01  -2.4653961165e+00       1.5843     1.166192  19.26    0.0119772    1.074    0.068
         4 -11.4519    188.1184    247.9829   1.0856267542e+02   3.5713058211e+00    0.4472252    0.2662718  20.07  0.002913504    2.108    0.526
         5 -11.8930    195.3004    237.6105   1.0621907965e+02   3.5480871525e+00    0.5765957    0.2719599  42.62  0.003551629    1.552    0.356
         6 -12.2545    102.8043    249.2369   1.2181408635e+02   1.5513065850e+01     1.122271    0.2874801  37.96  0.004584509    4.648    0.785
         7 -12.9870     94.9115    244.1288   1.2264299708e+02   1.7216319211e+01      1.01121    0.3413758  43.51  0.005778966    2.183    0.542
         8 -13.6620     40.4493    246.3761   1.3093195490e+02   2.3320612391e+01     1.538756    0.7841063  51.19  0.009539395    1.366    0.268
         9 -12.2960     26.5358    248.9095   1.3301793001e+02   2.4391298885e+01    0.8982275    0.2383832  47.20  0.002302029    2.287    0.563
        10 -13.7406     13.2320    247.8166   1.3482977427e+02   2.5828678674e+01     1.406693     0.793253 -86.26  0.006421783    1.663    0.399
        11 -11.7389    150.1285    245.5365   1.1417205317e+02   9.4061359812e+00     0.483438    0.2602321  62.99  0.002918067    2.349    0.574
        12 -10.7565     66.6473    244.4249   1.2696824301e+02   2.0669561519e+01    0.2404878    0.1305551  84.86  0.001390217    1.913    0.477
        13 -10.5032     53.1227    230.2546   1.2821007257e+02   2.4282900055e+01    0.2975225     0.118498 -85.38  0.001240016    2.917    0.657
        14  -9.0350    125.3213    231.6700   1.1676187543e+02   1.4736598018e+01    0.1094421    0.0655526  64.18  0.000704893    1.693    0.410
        15  -8.9787    133.4232    226.2303   1.1488761051e+02   1.4283932764e+01    0.1278661   0.09773556 -88.97 0.0004751197    1.605    0.377
        16 -12.9426     55.2686    210.4914   1.2663903417e+02   2.7127322486e+01     2.138901    0.3788553  52.45   0.00848217    4.585    0.782
        17  -9.7068    154.3795    219.5266   1.1064124938e+02   1.1978528213e+01    0.1846068    0.1487887  42.97 0.0003018486    1.079    0.073
        18 -10.9684     46.4796    216.5726   1.2847009246e+02   2.7139005509e+01    0.3917382    0.1345599  61.55  0.001794145    2.676    0.626
        19 -11.8314      3.7503    249.7217   1.3617750947e+02   2.6429849937e+01    0.3068302    0.1705686  65.07  0.001561156    1.132    0.117
        20 -10.4303     39.4955    212.7715   1.2938607277e+02   2.8504614166e+01    0.2949149    0.1600242 -67.99  0.001659265    2.019    0.505
        21 -10.1349     10.6047    207.4438   1.3377579476e+02   3.2208717386e+01     0.333845    0.2097944  32.58  0.002608427    2.046    0.511
        22  -9.5081     43.4927    220.9684   1.2920000243e+02   2.6771589546e+01    0.1932688   0.09266607  56.62  0.001157277    1.523    0.343
        23  -8.8191      4.6003    220.4001   1.3517461321e+02   3.0677042746e+01    0.1490116   0.09014218  59.13 0.0003323878    1.168    0.144
        24 -11.8812    248.3438    179.4527   8.8897617647e+01   1.0869266599e+00    0.6477805    0.4125025  -3.94  0.003901681    1.608    0.378
        25  -8.6934     77.5900    180.2557   1.2010569936e+02   2.9569872635e+01    0.1426004   0.09906635 -62.51  0.000689669    1.590    0.371
        26  -9.2367     81.3101    175.1301   1.1884287512e+02   3.0006196552e+01    0.1656581    0.1382903 -55.22 0.0009219425    1.515    0.340
        27 -12.6620    244.1575    144.2985   8.2690069263e+01   5.7998732202e+00     1.041817    0.8081061  22.92  0.006351345    1.132    0.117
        28 -11.7551    248.3166    154.6006   8.4149425705e+01   3.8218950121e+00    0.7517328    0.4678631  62.17  0.003181944    2.533    0.605
        29 -11.6399    247.7784    163.9595   8.6080874495e+01   2.8584125693e+00    0.4547782    0.4206904 -44.13  0.001946201    1.558    0.358
        30 -11.5842    248.3227    159.3585   8.5096177945e+01   3.2788152780e+00    0.7348887    0.4192543  62.15  0.003359272    3.092    0.677
        31  -9.3312     89.0842    165.1417   1.1611866603e+02   3.0785249640e+01    0.1668842    0.1557126  70.55 0.0004158962    1.205    0.170
        32  -9.0479    103.1620    161.2925   1.1270037842e+02   2.9416272549e+01     0.177252    0.1621945 -67.89   0.00039467    1.234    0.189
        33 -10.1822     77.4390    160.8231   1.1800456718e+02   3.3228644397e+01    0.2936373    0.2171515 -48.72  0.001174388    1.728    0.421
        34 -10.1309    231.1217    163.7753   8.8725951386e+01   5.8587985998e+00    0.2972829    0.1501692 -45.81  0.001342569    2.993    0.666
        35  -9.7921    215.9976    152.5438   8.9071357088e+01   1.0131843545e+01    0.2216603    0.2038917  13.56 0.0004076159    1.105    0.095
        36  -7.9629    101.9637    146.0714   1.1071208523e+02   3.2537123680e+01    0.1450986    0.1268019  69.84 0.0009242555    1.025    0.024
        37 -12.2112     53.7832    144.2872   1.2117738401e+02   3.9484319462e+01    0.6376046     0.287064 -60.31  0.003381783    2.107    0.525
        38 -11.5418      7.4511    137.9139   1.3073117220e+02   4.5175706496e+01    0.4930159    0.3432503 -65.99  0.003681445    1.465    0.318
        39  -8.5506     94.6904    142.4577   1.1176973122e+02   3.4385219757e+01    0.1523702    0.1200198  35.88 0.0005029917    1.432    0.302
        40  -9.4971     69.5116    144.5103   1.1770619679e+02   3.7516827129e+01    0.3405023    0.1271767  61.06  0.001193893    4.507    0.778
        41  -9.9100    235.0067    134.7754   8.2125120086e+01   8.7510272093e+00    0.2197347    0.1805258 -10.84 0.0004349093    1.157    0.135
        42  -9.7625     22.5819    142.7634   1.2784811918e+02   4.2961829796e+01    0.1574037   0.08251367  89.64  0.000897636    1.640    0.390
        43  -9.0624    244.3203    125.6771   7.8623508247e+01   8.0701949520e+00     0.125464    0.1058314 -59.19 0.0006218306    1.674    0.403
        44  -7.7759    175.5351     88.3694   8.1592684516e+01   2.8855337865e+01    0.1486807    0.1403992  31.76 0.0001385681    1.037    0.036
        45  -9.2304    245.3239     81.3233   6.7828983567e+01   1.3563199869e+01    0.1480453    0.1007252  18.10 0.0005475379    1.684    0.406
        46  -9.7019    231.5170     79.4069   6.9327603157e+01   1.6931638484e+01    0.2779343    0.2288386  14.27 0.0004445004    1.241    0.195
        47 -10.6021    236.3293     75.0280   6.7476647236e+01   1.6407225480e+01    0.3200661    0.2166632   1.52  0.001513234    1.711    0.416
        48  -8.1450    117.9017     71.3800   9.0097439004e+01   4.4880059504e+01    0.1857856    0.1356309  33.55 0.0002194844    1.524    0.344
        49 -10.5662    235.6001     69.1215   6.6021861330e+01   1.7348750604e+01    0.2809215     0.209389  78.92  0.001407903    1.682    0.405
        50 -10.8417    248.0778     65.5048   6.3400954538e+01   1.4946789033e+01    0.3626373    0.2203764  59.85  0.001750408    1.784    0.440
        51 -10.0615    130.3536     48.9242   7.9513033792e+01   4.6258541652e+01    0.2571136    0.2434698   4.05 0.0002487012    1.037    0.035
        52  -8.9527    178.6810     43.6904   6.7515944521e+01   3.5054474044e+01     0.160618    0.1130126  25.95 0.0006566044    1.641    0.391
        53  -9.3598    225.8739     30.8710   5.6720775455e+01   2.4439284993e+01    0.3614593    0.2103361 -18.81  0.001429858    1.748    0.428
