#   1 NUMBER                 Running object number                                     
#   2 MAG_AUTO               Kron-like elliptical aperture magnitude                    [mag]
#   3 X_IMAGE                Object position along x                                    [pixel]
#   4 Y_IMAGE                Object position along y                                    [pixel]
#   5 X_WORLD                Barycenter position along world x axis                     [deg]
#   6 Y_WORLD                Barycenter position along world y axis                     [deg]
#   7 A_WORLD                Profile RMS along major axis (world units)                 [deg]
#   8 B_WORLD                Profile RMS along minor axis (world units)                 [deg]
#   9 THETA_WORLD            Position angle (CCW/world-x)                               [deg]
#  10 FWHM_WORLD             FWHM assuming a gaussian core                              [deg]
#  11 ELONGATION             A_IMAGE/B_IMAGE                                           
#  12 ELLIPTICITY            1 - B_IMAGE/A_IMAGE                                       
         1 -10.4035      3.6688     43.5866   1.0870833939e+02   6.6655801592e+01     1.985704    0.3825971 -64.65  0.006141597    5.758    0.826
         2  -9.1120     45.8350     21.0668   8.0641502196e+01   6.6855656050e+01    0.4982139    0.2007246 -36.20  0.002339155    2.273    0.560
         3 -11.8502     80.1997     23.3804   6.8318140032e+01   6.0892612728e+01    0.6837052    0.2555154  39.68  0.002759603    2.623    0.619
         4  -8.5370    165.0332     21.9688   4.7999725179e+01   4.1350774233e+01    0.2068009    0.1871027  71.18            0    1.016    0.015
         5  -9.4219      7.9400     19.6465   9.8810180402e+01   7.0938101032e+01    0.3545685    0.2406769  20.67  0.002409952    1.693    0.409
         6  -7.3658    146.9830     19.0045   5.0044334886e+01   4.6245147962e+01    0.1677027    0.1429352  62.64 0.0003380583    1.068    0.064
         7  -9.2317     64.1670     14.3720   6.9969681167e+01   6.4930926885e+01    0.3941081    0.2203781  20.06  0.001664243    2.018    0.505
         8  -8.6498     71.5230      8.7744   6.4680289050e+01   6.4255839067e+01    0.2653968    0.2364771 -44.19   0.00110997    1.514    0.340
         9  -9.0216     74.5113     13.4879   6.5847571648e+01   6.3176219686e+01    0.3372996    0.2147331  11.95  0.001799896    1.689    0.408
        10  -9.1609     79.0276     13.0000   6.4123304121e+01   6.2369665715e+01    0.3619589    0.2060096  51.06  0.001439017    1.742    0.426
        11  -9.7230    133.8835     13.5377   5.0577332823e+01   5.0063452098e+01    0.2973741    0.2106615  42.16 0.0002553363    1.346    0.257
        12  -9.7362     31.3620     11.0930   8.2694760901e+01   7.0138640809e+01    0.4542024    0.2546018  12.13  0.001279018    1.933    0.483
        13  -9.2887     31.6906      6.3778   8.0142699539e+01   7.0745986379e+01    0.4323566     0.205521  18.00  0.000495971    2.519    0.603
        14  -8.1558     96.4922     12.4902   5.8702401869e+01   5.8843480460e+01    0.3022833    0.1577325  26.11  0.001018758    2.277    0.561
        15  -8.7041    125.2947     10.2546   5.1074023109e+01   5.2467769856e+01    0.2275822    0.1771929  36.36 0.0003436474    1.230    0.187
        16  -8.6611     14.4991     10.7420   9.1392928583e+01   7.1910892913e+01    0.2944677    0.1549311  27.23  0.001001379    2.078    0.519
        17  -9.6460     20.5521      8.5025   8.7009665280e+01   7.1688486273e+01    0.2661856    0.1990067  -0.44 0.0001473261    1.162    0.139
        18  -9.1519      2.9880      7.3820   9.6410706206e+01   7.3317932281e+01     0.452508    0.2033601 -25.65  0.002547622    2.050    0.512
        19 -10.0347    119.1812      6.8198   5.1038251000e+01   5.4241452052e+01    0.2428463    0.2049312  39.68 0.0002637027    1.076    0.071
        20  -9.4194     46.7155      6.1540   7.3004856239e+01   6.8725396830e+01    0.2196179    0.1730952  -4.27 0.0003538535    1.068    0.064
        21  -8.8240     41.0956      5.6368   7.5251348598e+01   6.9602598387e+01    0.3180854    0.1960543  -3.43  0.001871241    1.609    0.378
        22  -7.6053    156.1764      6.9002   4.4648891417e+01   4.5143340410e+01    0.1877356     0.142039  46.57 0.0004575775    1.307    0.235
        23  -9.4779     76.4137      5.8194   6.1672960392e+01   6.3629921824e+01    0.3849729    0.2256771 -25.39  0.001389366    1.749    0.428
        24  -8.4846     91.6707      5.7378   5.7128714552e+01   6.0534245083e+01    0.2864262    0.1526363  49.59  0.001078979    1.619    0.382
        25  -9.7752     84.9003      5.4780   5.8921448968e+01   6.1970065593e+01    0.2411641    0.2089091  -2.16  0.001564452    1.164    0.141
        26 -10.2478     13.4752      4.4287   8.8889236833e+01   7.2954818585e+01    0.3030382    0.2100235  -4.17  0.002146359    1.231    0.188
        27  -8.1978    238.0432      4.5782   3.5528871561e+01   2.5522863169e+01    0.1738064    0.1622614  89.11  0.000367307    1.247    0.198
        28  -8.3869    125.0297      3.9786   4.8823153847e+01   5.3095088767e+01    0.3026607    0.1535497  53.00 0.0008808066    1.659    0.397
        29  -8.5918    110.4657      3.0041   5.1410692461e+01   5.6606450169e+01    0.2932886    0.1879046 -22.18  0.001531136    1.703    0.413
        30  -8.4487     57.7761      3.2614   6.6982894418e+01   6.7282379845e+01    0.2160101    0.1611974  23.42 0.0005978197    1.133    0.117
        31  -7.9442    143.1477      2.1116   4.5056480683e+01   4.8822446308e+01    0.1976788    0.1579706  44.20 0.0003454493    1.212    0.175
        32  -8.1437    105.1385      1.7448   5.2091712243e+01   5.7926817153e+01    0.2667092    0.1386074  43.57   0.00131483    1.677    0.404
        33  -8.2749      3.3773      1.4531   9.3353135688e+01   7.4214088294e+01    0.1950951   0.09457648  17.96  0.000822355    2.128    0.530
        34  -6.8914     39.0000    110.0019   1.0980434649e+02   4.9191892606e+01    0.2232175   0.06530129 -64.57 0.0007951759    2.892    0.654
        35  -8.0923    207.6593    250.3163   9.3222856777e+01  -6.2049037397e+00     0.108179   0.08645532  52.62 0.0007048455    1.708    0.414
        36 -10.2716    187.9906    246.4269   9.6259590481e+01  -2.7332635310e+00    0.2891799     0.262424 -20.37  0.002028083    1.316    0.240
        37  -9.9434    108.8707    250.3013   1.1165241729e+02   8.9397898539e+00     0.196124    0.1329409  47.01   0.00125192    1.161    0.139
        38  -8.0307    133.8613    106.4793   8.0644748096e+01   3.4613829618e+01    0.3162722    0.2092556 -25.12  0.001079296    1.925    0.481
        39  -7.5554    110.1474    106.5951   8.7202135250e+01   3.9511930248e+01    0.2179859    0.1476715  28.03 0.0009471425    1.736    0.424
        40  -9.0886     14.5864    105.2755   1.1661995048e+02   5.2337831485e+01    0.2905725    0.1288435 -49.96   0.00143342    1.996    0.499
        41  -8.6530     66.5810    104.7949   1.0003109488e+02   4.7213043877e+01    0.2013084    0.1286817 -68.37 0.0009453258    1.633    0.387
        42  -7.9010     93.9777    103.5184   9.1174657016e+01   4.3225337188e+01    0.2067442    0.1346285   8.23 0.0006864564    2.534    0.605
        43  -8.5995    248.9940    103.4787   5.6955942835e+01   9.2933439430e+00    0.1989496     0.138915  56.36  0.001049916    1.645    0.392
        44  -7.1935    140.3278     99.3700   7.7009676165e+01   3.4700428064e+01    0.1667606     0.126232   0.59 0.0007032559    1.818    0.450
        45  -7.8712     91.2970     98.0687   9.0564069962e+01   4.4952008946e+01    0.2008534    0.1752613 -49.60 0.0001884106    1.083    0.077
        46  -8.2689    243.6459     97.2987   5.6295905480e+01   1.1378164772e+01     0.142813    0.1014106 -66.00  0.000703614    1.697    0.411
        47  -7.8104    239.3365     96.7205   5.6783470692e+01   1.2366118624e+01    0.1407777    0.1032978 -67.05 0.0007004655    1.616    0.381
        48  -7.6602    130.2240     96.6667   7.8886222396e+01   3.7531825767e+01        0.224    0.1426048  36.59 0.0006185286    1.702    0.412
        49  -9.8404     11.9515     94.3003   1.1581856849e+02   5.5080350301e+01    0.3968599    0.2059944 -38.33   0.00175962    2.046    0.511
        50  -8.6582     96.3938     90.7137   8.6950856448e+01   4.5700442505e+01    0.4978764    0.2967662 -19.79  0.001839649    2.818    0.645
        51  -8.3334    109.1180     91.3486   8.3287188494e+01   4.3120810908e+01    0.4678926    0.2637343  19.01  0.001563093    3.353    0.702
        52  -7.9913     62.0186     89.1413   9.7758485905e+01   5.1503115642e+01    0.2287281    0.1547298 -15.02  0.001087528    1.978    0.494
        53  -8.1491     22.6425     89.6883   1.1145436750e+02   5.5425513847e+01    0.1351821   0.07738118 -39.53 0.0004922499    1.739    0.425
        54  -7.1070    139.6595     87.6756   7.3813800943e+01   3.7263960325e+01    0.1632197    0.1246952   8.64 0.0007051098    1.728    0.421
        55 -10.0300     37.3574     81.2179   1.0448723214e+02   5.6130469009e+01    0.6621668    0.3419134 -22.10  0.002818724    2.956    0.662
        56  -8.2902     65.9044     84.1401   9.5104489933e+01   5.2112582782e+01    0.2600981    0.1973641 -25.12 0.0003682087    1.410    0.291
        57  -9.4272    242.6440     83.7789   5.3279409771e+01   1.3764629054e+01    0.2306048    0.2105151  89.70  0.001386919    1.180    0.152
        58  -8.2404    125.7596     84.0024   7.6373525666e+01   4.1156286051e+01     0.418227    0.1774623  34.24  0.001278976    3.437    0.709
        59  -9.7296      7.4370     77.7892   1.1461793543e+02   5.9123539757e+01    0.5434725    0.1858125 -38.78   0.00234081    3.060    0.673
        60  -8.6023     87.8663     79.0051   8.6209480747e+01   4.9775359799e+01    0.5012232     0.288987  13.61  0.001835897    3.118    0.679
        61  -7.8059    184.4566     78.0443   6.1121573584e+01   2.8216303648e+01    0.2286461    0.1471444 -37.75 0.0004013624    1.522    0.343
        62  -9.0068     49.2698     77.2276   9.9148935700e+01   5.5778451003e+01    0.3653462    0.2180401  -8.71  0.001647249    2.527    0.604
        63  -8.4374     74.6184     74.5867   8.9319949480e+01   5.2915866895e+01    0.3342626    0.2145362 -17.97 0.0006537944    2.079    0.519
        64  -9.4266     28.3594     69.2999   1.0497908182e+02   5.9601671669e+01    0.5154773    0.2460109 -10.10   0.00207307    3.761    0.734
        65  -9.1388     23.7111     73.5364   1.0775802389e+02   5.9031854147e+01    0.5357377     0.169937 -48.22  0.002272832    2.445    0.591
        66  -8.0782     23.4437     69.4585   1.0691791671e+02   5.9956922757e+01    0.1937661    0.1785401 -13.44 0.0005080869    1.219    0.180
        67  -7.9930    203.6044     74.1293   5.6682150733e+01   2.4208180128e+01    0.2980263    0.1953931 -18.95  0.001305172    1.913    0.477
        68  -8.7957     44.1550     92.1225   1.0458012290e+02   5.2929099678e+01     0.379827    0.2246306  -9.97  0.001714277    2.653    0.623
        69  -8.1108     80.2386     70.9415   8.6243513931e+01   5.2770560314e+01    0.2030607    0.1715197 -34.76 0.0003927632    1.095    0.086
        70  -9.0208     83.3935     64.6578   8.3106658985e+01   5.3498387329e+01    0.5210305    0.3225994  -4.99  0.002093028    2.692    0.628
        71  -8.3258     48.5163     71.3404   9.7816181003e+01   5.7161361647e+01    0.2468046    0.1684089  29.21  0.001353974    1.642    0.391
        72  -7.9128    129.9887     68.5098   7.0388331658e+01   4.3193067451e+01    0.2309985    0.1231302  30.48 0.0008105077    2.671    0.626
        73  -8.1195    106.0085     67.5640   7.6819324646e+01   4.8626974694e+01    0.2665301    0.1945221 -12.46  0.001178111    1.650    0.394
        74  -9.0901     18.6077     61.8312   1.0698629066e+02   6.1967600277e+01    0.4199423    0.1669794 -32.99  0.001824524    2.871    0.652
        75  -7.1226    148.3192     63.3327   6.4256850130e+01   3.9724890366e+01    0.1586966    0.1185579  18.17 0.0007048661    1.695    0.410
        76  -9.9550     62.0245     61.3096   8.9650315282e+01   5.7540733402e+01    0.4932293    0.2641441  20.07 0.0003060508    2.415    0.586
        77  -8.4420     26.7659     60.5187   1.0333526576e+02   6.1631386798e+01    0.3496147    0.1774306 -34.04  0.001761655    1.945    0.486
        78  -8.8283     11.3425     61.0917   1.0974584080e+02   6.2589876131e+01    0.1918409    0.1428236 -34.21 0.0005315334    1.238    0.192
        79  -9.5787     36.8381     58.7814   9.8737804514e+01   6.1084104497e+01    0.4034929    0.2677519   6.62  0.001860587    1.749    0.428
        80  -8.0839    110.6742     58.5652   7.2379880877e+01   4.9298366701e+01    0.2648316    0.2001926  20.61 0.0007579286    1.477    0.323
        81  -8.2173     99.0208     56.5527   7.5184377403e+01   5.2080195252e+01    0.2543677    0.1822823 -11.81  0.001178769    1.629    0.386
        82  -9.9196     74.9591     50.3816   8.1034294461e+01   5.7630417785e+01    0.4041201    0.2630787 -14.36 0.0003422078    1.835    0.455
        83  -8.1483    118.4248     50.9800   6.7554579860e+01   4.8867892278e+01    0.2413035    0.1932597  57.29 0.0005346942    1.308    0.236
        84  -9.1640     45.1167     49.0925   9.2195900700e+01   6.2134640705e+01    0.3941919    0.2351706 -20.54  0.001497709    1.898    0.473
        85  -7.9312    106.6818     48.9643   7.0137187780e+01   5.1782833080e+01    0.3115451     0.165838  26.65  0.001172584    2.694    0.629
        86  -9.2366    216.8696    249.3505   9.1426682550e+01  -7.4250706136e+00     0.285134     0.118882  45.33  0.001351022    2.678    0.627
        87  -9.4068      5.9839     33.9859   1.0485332404e+02   6.8427581729e+01    0.2875309    0.1980627 -15.24  0.001414901    1.420    0.296
        88  -8.8434      2.8348     31.6421   1.0566635023e+02   6.9045425561e+01    0.2810043    0.1989904  84.90  0.001690888    2.483    0.597
        89  -8.5754     10.4972     47.4837   1.0669710524e+02   6.5494124977e+01    0.2294954    0.1840578 -41.52  0.000665927    1.048    0.046
        90  -9.1911     13.9494     45.5353   1.0461044317e+02   6.5674291973e+01    0.3084944    0.2746598  33.09  0.001289299    1.468    0.319
        91 -10.9885     83.1554     40.0235   7.4187469014e+01   5.7933114987e+01      0.36172    0.2515295 -12.91  0.001869627    1.545    0.353
        92  -8.5239     87.6036     38.1698   7.1964473954e+01   5.7378028914e+01    0.2670509    0.1881248  30.97 0.0009407658    1.388    0.280
        93  -9.2150     57.2440     42.0473   8.4633413674e+01   6.1862164710e+01    0.4104538    0.2450538  -2.65  0.001895526    2.364    0.577
        94  -7.5823    123.8421     39.7784   6.2168311987e+01   4.9320005059e+01    0.2511031    0.1409481  21.73 0.0009379208    2.804    0.643
        95  -9.3358     66.8484     38.1738   7.9338574717e+01   6.1063871806e+01    0.3107948    0.2468711  -3.53  0.001571559    1.184    0.156
        96  -9.4600     71.0007     35.4892   7.6687567307e+01   6.0809098375e+01    0.4231142    0.2026576  27.99  0.001661085    2.525    0.604
        97  -8.9688     35.4576     38.0229   9.2376602187e+01   6.5291718659e+01    0.2270625    0.1725038 -38.60  0.001082046    1.166    0.142
        98  -8.8300     38.7931     35.4158   8.9885055619e+01   6.5394714786e+01    0.2903357    0.1693037   5.98  0.001153487    2.086    0.521
        99  -9.4153     19.2249     36.0750   9.9175394143e+01   6.7144788179e+01    0.2698269    0.2373315  75.46  0.001053185    1.773    0.436
       100  -9.4105     21.3800     32.0000   9.6688825445e+01   6.7726823559e+01     0.296427    0.1989242   6.48 0.0005139416    1.562    0.360
       101  -7.8485    105.8571     36.7353   6.5817447250e+01   5.3830310637e+01    0.2375804    0.1598559  30.09 0.0008006461    1.542    0.351
       102  -7.8973     92.1541     37.1929   7.0108504810e+01   5.6629985453e+01    0.1730264    0.1662573  85.14 0.0004226721    1.320    0.242
       103  -8.7124     55.8869     35.4997   8.2586611091e+01   6.3178204786e+01     0.269291    0.1527137 -33.57 0.0009879259    1.610    0.379
       104  -7.3543     46.3322     35.3199   8.6532493645e+01   6.4504235851e+01    0.1338504   0.08534107 -12.58 0.0004626115    1.696    0.410
       105  -7.5253    133.8729     31.1526   5.6776361868e+01   4.8073990330e+01    0.1922422    0.1558593  31.10 0.0004639158    1.258    0.205
       106  -9.3161     41.6107     27.0454   8.5185173071e+01   6.6478604426e+01    0.3344243     0.187784 -49.15 0.0008007284    2.092    0.522
       107  -9.0213    154.5918    245.7582   1.0247065950e+02   2.6037955944e+00    0.1477182     0.118685 -72.99 0.0009515971    1.695    0.410
       108  -8.1929     61.8771     26.8571   7.6523605747e+01   6.3625247098e+01    0.2158417    0.1559486 -14.43 0.0005807497    1.288    0.224
       109  -7.9633     63.0668     22.9531   7.4331835591e+01   6.3992344528e+01    0.2112987    0.1372268   5.05  0.001082637    1.699    0.411
       110  -7.2583    109.5464     25.6222   6.0529671347e+01   5.4486263332e+01    0.3014067   0.07977073 -42.78 0.0008081052    5.830    0.828
       111  -8.5187    161.6758    244.6886   1.0097920504e+02   1.6428735817e+00    0.1212497   0.08673957  13.33 0.0001769105    1.657    0.396
       112  -9.0520     27.5752     20.7443   8.9091865617e+01   6.9090165596e+01    0.3585315    0.2287683  13.20  0.002227577    1.582    0.368
       113  -8.4129    144.5762     23.4019   5.1951456800e+01   4.6359416990e+01    0.2316435    0.2092071  51.16 0.0002034962    1.040    0.039
       114  -8.1320    234.2027    240.4103   8.6966684859e+01  -8.8111408431e+00    0.1594988   0.09528753  40.44  0.000884106    1.718    0.418
       115  -8.9506     92.5445     20.5192   6.3197604421e+01   5.8787957757e+01      0.26139    0.1992194  20.93 0.0006104692    1.252    0.202
       116  -7.9767     16.3193     16.6870   9.3096996029e+01   7.0805196374e+01    0.1695708    0.1281717 -45.18  0.001169591    1.421    0.296
       117  -8.8828    250.3049    238.5447   8.3893277679e+01  -1.0792684428e+01    0.1901946    0.1369039 -17.28 0.0008098424    1.324    0.245
       118  -8.0541     12.9207     18.1512   9.5535352001e+01   7.0836448159e+01    0.2260331    0.1412502  -5.23 0.0009775468    1.577    0.366
       119  -8.2760    140.4187     19.9735   5.1572021108e+01   4.7778523983e+01    0.2045966    0.1717132  58.97 0.0003107711    1.085    0.078
       120  -8.4976    111.8427    236.3794   1.0960807985e+02   1.0874460998e+01    0.1910702    0.1522067  80.64 0.0003314092    1.325    0.245
       121  -7.8803    128.8167     22.4129   5.4765568467e+01   5.0352702847e+01    0.2027501    0.1138399  48.93 0.0006238319    1.608    0.378
       122  -7.3638    151.9794     17.5128   4.8695817762e+01   4.5148123634e+01    0.1983503   0.09215871  44.32 0.0007584685    2.247    0.555
       123  -8.2246    127.4427     16.7367   5.3002572185e+01   5.1304215753e+01    0.2167676    0.1999778  51.14 0.0006268379    1.035    0.034
       124  -9.5113    188.2030    233.8214   9.4349422767e+01  -9.9129727280e-01    0.2869489    0.1814259 -35.47  0.001269934    1.824    0.452
       125  -7.6644    189.5093     15.9765   4.2915967227e+01   3.5822855041e+01    0.1730694    0.1144254  19.10 0.0008062389    2.316    0.568
       126  -8.5434    221.9654    228.3554   8.7172669021e+01  -5.5076254012e+00    0.1878622    0.1624517 -13.31 0.0003067369    1.252    0.202
       127  -7.2024    227.6767    221.6759   8.5006576940e+01  -5.4794540994e+00    0.1296105   0.08187986   6.33 -0.0004780038    1.684    0.406
       128  -8.1997     11.4920    207.0422   1.2656505958e+02   2.9485696454e+01    0.1530774   0.06860646 -58.40 0.0008096175    2.644    0.622
       129  -7.9687    132.1244     18.6815   5.2742609289e+01   4.9961296438e+01    0.1924905    0.1595993  49.72  0.000345891    1.091    0.084
       130  -8.1606    208.6870    205.3425   8.5657064426e+01  -8.0199570708e-02     0.275756    0.1501112  49.77  0.001287039    2.211    0.548
       131  -7.6763    105.5368     13.9859   5.6954329460e+01   5.6700916278e+01    0.1883322    0.1049655  12.51 0.0008080915    2.462    0.594
       132  -8.7452    240.0793    203.3916   7.9518236394e+01  -4.8656614145e+00    0.2053596    0.1616178 -25.49 0.0003596201    1.279    0.218
       133  -8.8253    209.6009    200.8505   8.4661949501e+01   4.6540970141e-01    0.2331201    0.1848127  22.16 0.0003254917    1.123    0.109
       134 -10.4230    177.8326    191.5211   8.9309613748e+01   7.7135704492e+00    0.2580325     0.246676  28.51 0.0003976411    1.089    0.082
       135  -7.7346     87.8940     13.1033   6.1411281660e+01   6.0587919144e+01    0.1844384    0.1330488  26.20 0.0005990749    1.282    0.220
       136  -7.3973    236.5946    191.8253   7.7950576306e+01  -2.6515898875e+00    0.1640333    0.1149904 -39.18 0.0004429618    1.559    0.358
       137  -7.7898    129.9408    190.8458   9.9626058215e+01   1.6638157614e+01    0.1909962    0.1786654  22.43 0.0002997688    1.171    0.146
       138  -8.1256     62.8971    185.0306   1.1408550367e+02   2.8466844205e+01    0.1913647    0.1610219  79.19 0.0003458538    1.003    0.003
       139  -8.4905    198.9790    175.9037   8.1927332578e+01   6.5611585877e+00    0.2065481    0.1883306   8.68 0.0003350883    1.001    0.001
       140  -7.7622    105.3024     10.6693   5.5674297011e+01   5.7086658474e+01    0.1266634    0.1024234 -65.06 0.0007034466    1.651    0.394
       141 -10.5395    100.9910    176.0023   1.0396559222e+02   2.4856507712e+01    0.1994196    0.1812142  73.98            0    1.003    0.003
       142  -7.3728    160.2909    170.3311   8.9049388047e+01   1.5161958673e+01     0.147811    0.1154737  -3.07 0.0003582205    1.627    0.385
       143  -7.2534    150.4739    165.5045   9.0323909669e+01   1.8106292601e+01    0.1478246    0.1421422  29.91 0.0008098506    1.035    0.034
       144  -7.7057    156.9765    147.7114   8.5039500305e+01   2.0581793693e+01    0.2110616    0.1955065  44.55  0.000390621    1.067    0.063
       145  -7.9354    133.5237    147.9878   9.0765874173e+01   2.5326791272e+01    0.2363194    0.1492312 -48.13  0.001030273    1.600    0.375
       146  -9.0523     67.1672    144.6034   1.0752415627e+02   3.7433956251e+01    0.4003468     0.264367  63.48  0.001990509    1.675    0.403
       147  -7.5308    139.0196    139.4981   8.7525480166e+01   2.6130904301e+01    0.2227584    0.1380299  19.04 0.0008104198    2.603    0.616
       148  -8.3109    145.5518    123.9689   8.2199158580e+01   2.8209326587e+01    0.2795653     0.236279   2.02 0.0008724439    1.423    0.297
       149  -9.2557    201.8573    121.9357   6.9245704248e+01   1.6024473992e+01    0.2459873     0.230449  10.30 0.0003243281    1.099    0.090
       150  -8.5697     13.5159    119.4830   1.1881111208e+02   4.9047727163e+01    0.3617958   0.08198534 -49.09  0.001212526    4.550    0.780
       151  -7.9159    100.0136    118.9853   9.3209627027e+01   3.8513005289e+01    0.3673787    0.2000463  15.68  0.001123898    4.219    0.763
       152  -7.7939    119.7202    118.6011   8.7593266317e+01   3.4854563861e+01    0.2851507    0.1509319  36.20  0.001058683    2.077    0.518
       153  -7.5524    142.6816    111.6647   7.9760423027e+01   3.1536975401e+01    0.1625936    0.1270301  -0.89 0.0007048856    1.699    0.412
       154  -8.9354      2.2549    109.8025   1.2089595198e+02   5.2030562773e+01    0.3503171    0.1190552 -55.01  0.001638377    2.329    0.571
