#   1 NUMBER                 Running object number                                     
#   2 MAG_AUTO               Kron-like elliptical aperture magnitude                    [mag]
#   3 X_IMAGE                Object position along x                                    [pixel]
#   4 Y_IMAGE                Object position along y                                    [pixel]
#   5 X_WORLD                Barycenter position along world x axis                     [deg]
#   6 Y_WORLD                Barycenter position along world y axis                     [deg]
#   7 A_WORLD                Profile RMS along major axis (world units)                 [deg]
#   8 B_WORLD                Profile RMS along minor axis (world units)                 [deg]
#   9 THETA_WORLD            Position angle (CCW/world-x)                               [deg]
#  10 FWHM_WORLD             FWHM assuming a gaussian core                              [deg]
#  11 ELONGATION             A_IMAGE/B_IMAGE                                           
#  12 ELLIPTICITY            1 - B_IMAGE/A_IMAGE                                       
         1 -13.2710    167.3382     56.7397   6.3468908326e+01   3.5930588383e+01     1.749204     1.187563  23.80  0.005701191    1.894    0.472
         2 -13.4286    181.5595     42.0950   5.6275080837e+01   3.4414899023e+01     1.071355     0.980956  10.72  0.003534429    1.187    0.158
         3 -13.8124    202.9289     11.0272   4.4215686342e+01   3.2624015633e+01       1.1574      1.01299   0.89  0.004753162    1.362    0.266
         4 -12.9167    229.8758      4.2098   3.9874267188e+01   2.6680108276e+01      1.68996     0.498261  76.39  0.006032304    3.519    0.716
         5 -11.0242    189.9351     15.0144   4.6872238886e+01   3.5537354697e+01    0.3292877    0.2821398 -57.67 0.0009632241    1.167    0.143
         6 -10.5473    167.2598    226.5022   1.0270835815e+02   4.6394777483e+00    0.2882082     0.164998 -43.84  0.001586246    2.119    0.528
         7 -12.3609    248.8992    249.5686   9.1875907606e+01  -1.0925929247e+01     0.628225    0.3974596  37.69  0.004281753    1.493    0.330
         8 -10.5201     60.2698    189.2139   1.1914694232e+02   2.8259947320e+01    0.4017297    0.1932976 -69.52  0.002099432    1.941    0.485
         9  -9.7139    156.5091    189.8738   9.9074515473e+01   1.2619070094e+01    0.1880264    0.1370615 -47.28 0.0007698826    1.524    0.344
        10 -11.3276    150.3399    188.1057   1.0005618171e+02   1.4087926812e+01    0.3350627    0.2208016  44.18  0.001499755    1.371    0.271
        11 -10.1118    242.3923    185.1501   8.1641520692e+01  -2.3870355501e+00    0.1722924    0.1135996 -38.07 0.0009386311    1.697    0.411
        12 -13.2152     11.3450    205.5230   1.2962498942e+02   3.0358946110e+01    0.3287339    0.2540511  59.53  0.001912367    1.279    0.218
        13 -11.0227    151.5597    181.1499   9.8589080379e+01   1.5172831440e+01    0.3307465    0.2431454 -80.98  0.001040243    1.884    0.469
        14 -11.0999    145.4861    181.4895   9.9944604066e+01   1.6247037792e+01    0.2808995    0.2446312  11.80 0.0007407582    1.340    0.254
        15 -11.0797    188.5768    176.3346   8.9986937674e+01   8.8976224500e+00    0.6489378    0.4076955 -56.76   0.00213838    2.216    0.549
        16 -12.1902    141.6936    175.5598   9.9718386428e+01   1.8121683691e+01    0.4892017    0.3699911  80.43  0.002499496    1.660    0.397
        17 -10.5775      1.2002    177.4395   1.2986763142e+02   3.6844519011e+01    0.1204791   0.06528755 -84.43 0.0007662706    1.405    0.288
        18 -10.6398     68.5322    172.6427   1.1553013012e+02   3.0728124374e+01      0.42213    0.1611892  56.05  0.001661752    3.111    0.679
        19 -10.2322    160.3501    205.7915   1.0091727834e+02   9.1284715963e+00    0.1877365    0.1523561  48.23 0.0006445705    1.119    0.106
        20  -8.8477    194.5033    172.5034   8.8028806518e+01   8.3969163081e+00     0.142104    0.1287743  18.64   0.00026823    1.003    0.003
        21 -11.4525    192.8524    194.8298   9.2653752365e+01   5.0197692326e+00     1.162137    0.6587467 -66.05  0.003782847    5.676    0.824
        22  -9.5735    116.4937    161.9149   1.0296228163e+02   2.5597574297e+01    0.3427272    0.1890714  42.88  0.001030817    1.761    0.432
        23 -11.0776     96.2410    156.3677   1.0677749775e+02   3.0271505966e+01    0.2611746     0.242815  85.76 0.0002974044    1.047    0.045
        24 -12.2088    101.0056    150.2712   1.0456533866e+02   3.0869197597e+01    0.6166266    0.4495259 -34.79  0.003095954    1.748    0.428
        25 -10.3589    113.6073    151.7755   1.0178762706e+02   2.8348274586e+01    0.3805241    0.2407603  81.80  0.001572564    2.440    0.590
        26 -11.1902    133.8405    145.4801   9.5666325042e+01   2.5932777075e+01     1.179509     0.315594 -55.31  0.002880023    5.766    0.827
        27  -9.8592    174.8850    149.1140   8.7114917010e+01   1.6700675763e+01    0.2280771    0.2069841  86.40 0.0007282254    1.298    0.230
        28 -10.1800    143.7720    146.6404   9.3568134490e+01   2.3695670211e+01    0.4650993    0.1958205 -58.05   0.00149666    3.381    0.704
        29  -8.5498    116.6231    145.2690   9.9790133870e+01   2.9260021810e+01    0.1517232    0.1091364  72.64 0.0006596181    1.683    0.406
        30 -11.2410    110.6971    136.7909   9.9536871664e+01   3.2261480783e+01     0.489192    0.3095792 -34.47  0.002139847    2.017    0.504
        31 -11.8441     99.8137    136.1035   1.0217409198e+02   3.4325591909e+01    0.2663662    0.2649406  -1.57 0.0003111234    1.144    0.126
        32 -11.2772    105.9714    130.8348   9.9494234550e+01   3.4476471461e+01    0.4117608    0.3270894 -67.70  0.001274347    1.257    0.204
        33 -10.8313    204.5288    199.9836   9.1354954745e+01   2.1149747756e+00    0.2781751    0.1624069  27.85  0.001389735    1.697    0.411
        34 -10.2719    160.6555    127.9742   8.5332618261e+01   2.4037924416e+01    0.3860584     0.271328 -59.82  0.001703121    1.683    0.406
        35 -10.4157    116.9206    128.3703   9.6120818403e+01   3.3031029339e+01    0.2819259    0.2519088 -15.09 0.0007284819    1.309    0.236
        36 -10.5373    105.0159    123.9607   9.8242393955e+01   3.6235170678e+01    0.2884735    0.2499547 -20.61 0.0006336234    1.368    0.269
        37  -9.8357    223.0023    198.3211   8.7629600985e+01  -8.8751886969e-01      0.18036    0.1462872  21.43  0.000463669    1.052    0.049
        38  -9.4724    154.0647    120.9766   8.5122405448e+01   2.6956001077e+01    0.2502197    0.1958158 -89.47 0.0009827995    1.717    0.417
        39  -9.6247    135.0000    119.9478   8.9510866105e+01   3.1301308249e+01    0.2605783   0.08662975 -46.00 0.0008045493    2.957    0.662
        40  -9.5512    111.7787    117.9454   9.5045089382e+01   3.6379998131e+01    0.2473772    0.2110144  46.24 0.0004337256    1.220    0.180
        41  -9.8252    231.2404    113.7987   6.7671533735e+01   1.0811746126e+01    0.2546058    0.2313088  18.69 0.0008234544    1.129    0.115
        42 -10.2596    168.1348    113.0596   7.9825445115e+01   2.5385128668e+01    0.4076826    0.3038693 -73.31  0.001108774    1.839    0.456
        43 -10.3525    134.7023    111.7223   8.7485052174e+01   3.3161637907e+01    0.4594454    0.1375975 -43.64  0.001356212    3.293    0.696
        44 -19.1035     32.5485    103.4080   1.1468629006e+02   5.0831940818e+01     16.45978    0.6871332 -65.37   0.02530281   17.835    0.944
        45  -9.8029    205.4321    110.1589   7.1353138224e+01   1.7224340686e+01    0.3331876     0.219402  39.62 0.0009574019    1.609    0.379
        46 -11.3450    119.2899    109.9287   9.1040808105e+01   3.6739694421e+01    0.5714903     0.412381  63.15  0.002619397    1.668    0.401
        47 -12.5225     68.8913    193.0582   1.1779493818e+02   2.6335023211e+01    0.4559002    0.4291964 -16.25  0.001986712    1.589    0.371
        48  -9.2694    128.2416     95.5674   8.4740735555e+01   3.8023681237e+01    0.2157471    0.1488008  33.44 0.0009456206    1.611    0.379
        49  -9.0208    151.3609     82.2642   7.4965013764e+01   3.5441002482e+01    0.1620626    0.1215434  19.40 0.0006985323    1.637    0.389
        50 -10.1972     14.7562    214.2176   1.2951296265e+02   2.8381088002e+01    0.1141995   0.09847043  73.43  0.000293247    1.353    0.261
        51 -10.0076     78.9134     75.1662   9.3247265375e+01   5.1673054879e+01    0.2261368    0.2088653 -39.78 0.0004267939    1.056    0.053
        52  -8.8864    168.0000    248.0988   1.0549785857e+02   1.4687015518e+00    0.1492681    0.0683513 -45.77 0.0005558062    2.812    0.644
        53 -18.7372     44.6755    238.1137   1.2593751042e+02   2.0828486404e+01     5.666768      4.59196  77.40   0.03860427    1.217    0.178
        54 -12.5876    186.3578     35.7518   5.3569353336e+01   3.4015738576e+01    0.6060628    0.5030886  26.38  0.001323776    1.365    0.268
        55  -9.6856     13.5329     59.9641   1.1244318041e+02   6.2056091735e+01    0.1735172    0.1597142  75.64 0.0004317556    1.383    0.277
        56  -9.7280     22.9550    195.7636   1.2695755104e+02   3.1148864988e+01    0.1366221    0.1000912  75.04 0.0002402472    1.042    0.041
        57 -12.9137     15.7841    206.4080   1.2890506568e+02   2.9764257789e+01    0.2256172     0.177796 -89.19 0.0009391525    1.240    0.193
