#   1 NUMBER                 Running object number                                     
#   2 MAG_AUTO               Kron-like elliptical aperture magnitude                    [mag]
#   3 X_IMAGE                Object position along x                                    [pixel]
#   4 Y_IMAGE                Object position along y                                    [pixel]
#   5 X_WORLD                Barycenter position along world x axis                     [deg]
#   6 Y_WORLD                Barycenter position along world y axis                     [deg]
#   7 A_WORLD                Profile RMS along major axis (world units)                 [deg]
#   8 B_WORLD                Profile RMS along minor axis (world units)                 [deg]
#   9 THETA_WORLD            Position angle (CCW/world-x)                               [deg]
#  10 FWHM_WORLD             FWHM assuming a gaussian core                              [deg]
#  11 ELONGATION             A_IMAGE/B_IMAGE                                           
#  12 ELLIPTICITY            1 - B_IMAGE/A_IMAGE                                       
         1 -10.1065     60.6138     23.2137   9.2831032210e+01   6.2734984821e+01     0.522023    0.2431448 -26.82  0.002682067    2.171    0.539
         2 -12.0862     60.2055     44.8393   1.0106984604e+02   5.9812214441e+01    0.9266675    0.6570169 -35.68  0.005606727    1.380    0.275
         3 -12.2103    104.9268     12.8036   7.5984393436e+01   5.5695301698e+01    0.4538624    0.3660938 -11.93  0.002900679    1.362    0.266
         4 -13.6399    118.0304     41.6499   8.2515379899e+01   4.9652333798e+01     1.352736     1.070252   7.30  0.004623332    1.415    0.293
         5 -12.1375    131.4396     14.2771   7.0871712616e+01   4.9774096372e+01     1.416098    0.5603414  68.67  0.004333423    2.795    0.642
         6 -12.6253    112.7756     24.6534   7.8176458826e+01   5.2844272478e+01    0.8505067    0.4183968  54.18  0.004102182    1.791    0.442
         7 -11.7393    106.0028     20.1428   7.8265944190e+01   5.4753213786e+01     0.304744    0.2040573 -14.43 0.0005241403    1.684    0.406
         8 -10.4482    139.1316     32.4146   7.4913348824e+01   4.6062205071e+01    0.6548845    0.5165224 -33.94  0.003671085    1.406    0.289
         9 -12.4383    123.6063     26.3484   7.6273053658e+01   5.0293374708e+01    0.9602258    0.8581839 -40.86  0.003089747    1.281    0.220
        10 -11.7862    145.6089     48.0372   7.8252898907e+01   4.2513083062e+01     1.060009    0.5059539 -26.50  0.003963064    2.586    0.613
        11 -11.9922    181.7194     25.8609   6.5953481706e+01   3.6691210710e+01    0.9480645    0.3826423  45.40  0.003013656    3.158    0.683
        12 -11.5457    178.0409     21.4762   6.5352151524e+01   3.8074244093e+01     0.581683    0.3686316  33.94  0.002471315    2.186    0.543
        13 -11.3687    198.7714     28.1114   6.4256046724e+01   3.2358256506e+01    0.5522904    0.4010453 -16.99  0.002991459    1.927    0.481
        14 -11.9782     26.4294     27.5391   1.0789992240e+02   6.6524738642e+01    0.4920315    0.3927796  19.96  0.003210785    1.397    0.284
        15 -12.4363     18.9058     22.7184   1.0931902419e+02   6.7939869663e+01    0.5087333    0.3809738  -0.45  0.002042927    1.157    0.136
        16 -12.7562     15.1182     13.5106   1.0734418127e+02   6.9551555115e+01     0.817598    0.4914974 -26.64  0.002125412    1.337    0.252
        17 -11.7889     22.8541     11.1350   1.0283385332e+02   6.9099752417e+01    0.5102624    0.2957479  -2.33  0.002411826    1.669    0.401
        18 -11.4730    154.0506     25.1268   7.0018107580e+01   4.3396083432e+01    0.6115623    0.4525026  30.69  0.003048147    1.593    0.372
        19  -9.9238    146.7584     16.1277   6.8683604732e+01   4.6064039115e+01     0.527943    0.3524989  54.57  0.001513179    1.296    0.228
        20  -9.3984     86.8301      7.1721   7.8474063241e+01   5.9822110527e+01    0.5776812    0.2882235  50.41  0.002680926    1.697    0.411
        21 -11.5321     90.3732     20.3539   8.2400941583e+01   5.7870168232e+01    0.5016684    0.4379017   4.04  0.002362467    1.134    0.118
        22 -11.3426     85.5070     14.7029   8.1664342721e+01   5.9376014239e+01    0.7376744    0.3799135  17.50  0.003418213    2.672    0.626
        23  -9.8864     31.9182     12.1622   9.9345396084e+01   6.7966303300e+01    0.1826653    0.1550532  28.42 0.0004373559    1.553    0.356
        24 -10.5810     38.7516     21.5842   1.0044010602e+02   6.5971392092e+01    0.4042709    0.1623768 -33.39  0.001449208    2.311    0.567
        25 -11.6911     35.5146     19.0183   1.0071738916e+02   6.6693437123e+01    0.6091536    0.2270064 -27.65  0.002862858    2.843    0.648
        26 -12.2710     49.1451     13.0118   9.2847688567e+01   6.5618038576e+01    0.6928175    0.4783977   4.45  0.003520678    1.273    0.214
        27 -12.1100     69.2789     18.5861   8.8074657562e+01   6.1871818334e+01    0.6719765    0.3983527  41.78   0.00392852    1.537    0.349
        28 -11.5053    238.8469      7.1467   5.5728503248e+01   2.5772080593e+01    0.4346725    0.1906031 -71.88  0.001630846    2.495    0.599
        29 -12.3286    238.4744     15.9940   5.7487302738e+01   2.4824198157e+01    0.8254563    0.4096474  67.76   0.00313278    1.856    0.461
        30 -11.4482    245.7632      8.1063   5.5369573241e+01   2.4200466494e+01    0.3488863    0.2866179 -31.23  0.001756491    1.658    0.397
        31 -11.0284    241.6255      3.8544   5.4882400695e+01   2.5550733425e+01    0.3846318    0.1874963  80.08  0.002113515    1.794    0.443
        32 -11.0572    165.3250     17.2813   6.6072890180e+01   4.1562096523e+01    0.4071139    0.2393132  41.63  0.001203583    1.935    0.483
        33  -9.9233    225.6405     16.6109   5.8773598590e+01   2.7561347756e+01    0.2578007     0.202198 -70.15  0.001677976    1.099    0.090
        34 -10.3675    199.6249      5.9625   5.9044552670e+01   3.4647762019e+01    0.4633896    0.1781192  74.55  0.001134198    2.321    0.569
        35 -11.3091    205.3613      2.4520   5.7696136565e+01   3.3687318284e+01    0.3960193    0.2232662  87.54  0.001031079    1.596    0.374
        36 -10.0715    191.7896     16.3844   6.2329414608e+01   3.5372796442e+01    0.2633996    0.2338554  32.32  0.001696941    1.465    0.317
        37 -10.5346    186.5803     15.1539   6.2666549583e+01   3.6736422366e+01    0.2933212    0.2141607  56.04 0.0007626634    1.364    0.267
        38 -11.8478    192.2663      7.6664   6.0221811068e+01   3.6182327795e+01    0.7448094    0.5267716  51.33  0.003341959    1.541    0.351
        39 -11.6740    211.6182      9.8533   5.8694036598e+01   3.1486417975e+01    0.3880163    0.3335612  17.19  0.001332862    1.770    0.435
        40  -8.9449      4.4569     10.3958   1.1109883473e+02   7.0855723491e+01    0.3353529    0.1514132 -27.08  0.002044522    1.871    0.465
        41  -9.2952      5.3532      5.7318   1.0869338921e+02   7.1397734643e+01    0.1680176    0.1127801 -31.88 0.0007848025    1.367    0.268
        42  -9.5084    157.4107      9.9169   6.5254125741e+01   4.4166891664e+01    0.3318204   0.08402105 -35.64  0.001249031    3.849    0.740
        43 -10.5838     67.3233     10.2208   8.5377179360e+01   6.3067453346e+01    0.5465414    0.1567267  43.78   0.00234372    2.886    0.653
        44 -10.3455    169.0802      9.8346   6.3586805249e+01   4.1422570129e+01    0.3278908    0.1629648  51.95  0.001614524    1.888    0.470
        45  -9.1525    162.8605     10.1710   6.4534090058e+01   4.2858926436e+01    0.1878216    0.1468876  70.36 0.0005987831    1.076    0.071
        46  -9.7416    157.8287      2.8355   6.3278100348e+01   4.4710196495e+01    0.4089437    0.1796114  55.39  0.001982927    1.902    0.474
        47 -10.0624    162.8106      5.8159   6.3386333684e+01   4.3278528677e+01    0.3203886    0.2254221   7.98  0.001728495    2.061    0.515
        48  -9.2228    162.6846      1.2923   6.2214386797e+01   4.3710045007e+01    0.1886004    0.1095037  74.97 0.0001912161    1.497    0.332
        49 -10.1199    151.5694      7.3966   6.5433399497e+01   4.5767851421e+01    0.4758146    0.2004535  65.08   0.00170501    1.967    0.492
        50 -10.2015     62.6975      6.4432   8.5335859438e+01   6.4198221841e+01    0.2592062    0.1676099  12.64  0.001236186    1.463    0.317
        51 -10.1336      1.3077      7.2384   1.1133137507e+02   7.1512237520e+01    0.1766962   0.07314534 -40.52 0.0002757343    2.027    0.507
        52 -11.3944      2.8918      1.8405   1.0820696169e+02   7.2083560116e+01    0.3550796    0.1477111  16.01   0.00209185    2.466    0.595
        53 -10.8299     77.2371      4.9870   8.0283344871e+01   6.1805209211e+01    0.4388184    0.2832262 -16.28  0.002748807    1.636    0.389
        54 -10.4113     72.1294      3.0705   8.1012437562e+01   6.2885917341e+01    0.4087661    0.2370533  18.67  0.002374391    1.759    0.431
        55  -8.8126     82.0072      1.0000   7.7413523279e+01   6.1249885530e+01    0.2400731   0.07537872  54.60  0.000996471    2.748    0.636
        56 -10.6167     42.2726      3.7507   9.1475951886e+01   6.7555839789e+01    0.4337951    0.2177926   3.17  0.002239578    2.605    0.616
        57 -10.4977    174.0436      4.5466   6.1600177799e+01   4.0756490446e+01    0.5415148    0.2112532  74.73  0.002319278    2.422    0.587
        58 -11.2043     42.3639     14.2359   9.5967377187e+01   6.6413943986e+01    0.3955945    0.1673311  30.71  0.001624527    2.248    0.555
        59 -11.4363    225.7771      2.6076   5.5901386206e+01   2.9099431517e+01    0.6177287    0.2693213  89.12   0.00292174    2.349    0.574
        60 -10.9355    218.6843      2.9339   5.6574965691e+01   3.0633337963e+01    0.2869122    0.2263156 -72.27  0.001053128    1.109    0.099
        61 -10.8039    113.5715      2.2621   7.0520330388e+01   5.4762900771e+01    0.4997182    0.2118364  64.28  0.002131377    2.192    0.544
        62 -11.0868    105.7566      1.8652   7.2016397455e+01   5.6451588012e+01    0.6476365    0.2708283  65.39  0.002077458    2.487    0.598
        63 -10.3477    142.0346      3.7307   6.5872986042e+01   4.8295058213e+01    0.3849194    0.1910475  63.50  0.001616466    1.649    0.394
        64 -12.1194    133.8149      2.6092   6.6890306256e+01   5.0261945802e+01    0.3740378    0.2262575  62.08 0.0005326989    1.362    0.266
        65  -9.1776     21.5115      3.4758   1.0005818314e+02   7.0146403479e+01     0.166821   0.08896255 -40.07  0.001020895    2.297    0.565
        66  -9.5234     61.7779     13.5966   8.8577704037e+01   6.3638369337e+01    0.3206491    0.0927709 -26.20  0.001276428    3.888    0.743
        67  -9.5294    122.7332      1.2490   6.8426483871e+01   5.2846457440e+01    0.3506097   0.09398381  64.29  0.001290666    3.322    0.699
        68 -10.9290    249.6928    143.0198   8.2827040618e+01   2.2351170868e+00    0.6556206    0.2388536 -41.72  0.002546147    2.399    0.583
        69  -9.1599    108.7239    146.0232   1.1392299098e+02   3.0762548885e+01    0.2093944    0.1862738 -61.70  0.001092249    1.079    0.073
        70 -10.7595     33.2461    144.2784   1.3372842172e+02   4.1961457744e+01    0.2767104    0.2305933 -75.02 0.0007107884    1.017    0.016
        71 -10.0237    133.5213    139.7110   1.0610921530e+02   2.7378177959e+01    0.3943703    0.2784075 -41.40  0.001772314    1.462    0.316
        72 -11.0564     71.0529    134.7296   1.2182517847e+02   3.9706714573e+01    0.7248497    0.5265315 -29.72    0.0036436    1.685    0.406
        73  -9.8402     78.5288    128.4820   1.1842834624e+02   4.0104598832e+01    0.2865409    0.2193039 -42.31 0.0008025704    1.303    0.233
        74  -9.5136     82.7489    124.9145   1.1644394119e+02   4.0298249316e+01    0.4753442    0.2693189 -14.37  0.001370019    5.380    0.814
        75 -12.0921     29.8372    132.8738   1.3293757833e+02   4.4998845476e+01    0.5561567    0.3421464 -80.41 0.0004052993    1.604    0.377
        76  -9.9042     26.5510    139.5687   1.3480444762e+02   4.3719087914e+01    0.2148696    0.1807179 -66.52 0.0006178617    1.068    0.064
        77 -11.8217     22.9212    135.4455   1.3517774120e+02   4.5013308239e+01    0.6637743    0.4193376  48.66   0.00320914    1.822    0.451
        78 -10.6919     81.2781    135.5229   1.1913609292e+02   3.7989013660e+01    0.5777765    0.3998983  -8.45  0.002535445    2.353    0.575
        79  -8.8301    216.7435    134.9895   8.6733006361e+01   1.0237475614e+01    0.1933379    0.1208762 -41.47 0.0005338038    1.497    0.332
        80 -10.7030     47.1061    135.2096   1.2857975619e+02   4.2659270816e+01    0.4111266    0.2128853 -47.01  0.001471929    1.886    0.470
        81  -9.8163     62.7013    131.1369   1.2346865899e+02   4.1721876840e+01    0.3986275    0.1670525 -46.87  0.001583482    2.331    0.571
        82 -10.5875     92.5476    129.0274   1.1458990818e+02   3.7713926180e+01    0.3190544    0.2731758  88.07  0.001225416    1.291    0.226
        83  -9.5897    175.3374    129.3332   9.3722229554e+01   2.0517674273e+01    0.1609445    0.1268389   2.98 0.0007051971    1.742    0.426
        84 -10.6405    239.4895    123.9777   8.0380258933e+01   7.6520053473e+00    0.3724081    0.1237555 -42.40  0.001327091    2.656    0.623
        85  -9.2292     22.8114    126.8417   1.3394154309e+02   4.7036793229e+01    0.1632768    0.1302138  87.30 0.0003687446    1.287    0.223
        86 -10.5379     18.5005    124.6169   1.3479860154e+02   4.7904517806e+01    0.3814709    0.1479069 -58.17  0.001169592    1.952    0.488
        87 -10.9737     55.6582    123.1298   1.2391622707e+02   4.4530587911e+01    0.6521037    0.3629852  25.95  0.002446957    2.163    0.538
        88 -10.5007     45.7908    120.4547   1.2628070620e+02   4.6311251846e+01    0.3267075    0.2548288 -86.84  0.001160456    1.406    0.289
        89  -9.6814      2.1023    125.4539   1.3936172439e+02   4.8868679782e+01    0.2537178    0.1421239 -77.17  0.001453801    1.500    0.333
        90  -9.7500      4.3393    121.5105   1.3824752097e+02   4.9622286731e+01    0.2770405    0.2129617  61.08  0.001542155    1.519    0.342
        91  -9.1915      7.2272    119.2574   1.3714486405e+02   4.9946891558e+01    0.1580309    0.1348541 -66.56 0.0006077948    1.093    0.085
        92 -11.6550    104.8321    121.2217   1.0932972011e+02   3.7362966298e+01    0.5337613    0.5088464  87.73  0.001736863    1.087    0.080
        93  -9.3741    221.4757    120.4817   8.2595021774e+01   1.2032915271e+01    0.1477589    0.1345018 -56.97 0.0002330524    1.030    0.029
        94  -9.7686    148.4802    119.7992   9.7552034193e+01   2.8650658065e+01    0.2926483    0.2271157  47.16  0.000715491    1.300    0.231
        95  -9.5258     72.8638    119.8385   1.1818136807e+02   4.2997637484e+01    0.2132941     0.180345 -30.64 0.0004826255    1.250    0.200
        96 -12.1054      9.8755     97.2536   1.3288885604e+02   5.4684994880e+01    0.9334486    0.6803529  73.47  0.005862195    1.784    0.440
        97 -12.3884      7.4075     88.9715   1.3217028321e+02   5.6624068479e+01    0.4936381    0.4319802 -62.27 0.0007640091    1.154    0.133
        98 -11.0433     35.0586     93.2087   1.2397855900e+02   5.3583387663e+01     1.337506    0.9274184 -78.09  0.007434357    1.773    0.436
        99 -12.3132     40.0369     85.6093   1.2053324463e+02   5.4719706134e+01      1.95444    0.5403624  27.60  0.007288264    4.080    0.755
       100 -12.1943     28.7138    113.0262   1.2995377931e+02   4.9726696184e+01    0.9040614    0.6488662  41.04  0.003971449    1.656    0.396
       101 -11.5786      2.4426    112.2015   1.3748605721e+02   5.1833877841e+01     0.331461    0.2584447  85.44 0.0008136649    1.365    0.268
       102 -12.1572      4.5272    105.7424   1.3592077340e+02   5.3147063241e+01     0.662613    0.4615291  89.51  0.004176503    1.568    0.362
       103 -12.9158     25.8254    107.3217   1.2978375512e+02   5.1273130364e+01     1.336147    0.6191394 -36.26  0.006155721    2.487    0.598
       104 -12.2921     18.7588    106.2528   1.3174128199e+02   5.2075928795e+01    0.3437802    0.2207808 -49.45 0.0002613809    1.302    0.232
       105 -12.6603     20.3442     95.4867   1.2924066686e+02   5.4340936561e+01    0.5437902    0.4289582  13.94   0.00161858    1.517    0.341
       106 -12.3890     18.4929     90.2418   1.2879213654e+02   5.5615108036e+01    0.3765169    0.2351087 -49.79 0.0004418112    1.269    0.212
       107  -9.2430     81.4880    117.5163   1.1512268346e+02   4.2234807817e+01    0.1452958    0.1334297 -45.41 0.0001318294    1.034    0.033
       108  -9.7605    114.0236    115.9784   1.0548789566e+02   3.6802557812e+01    0.2279631    0.2221652 -31.63 0.0004011125    1.038    0.036
       109 -10.6107     67.1101    111.8859   1.1810340320e+02   4.5663754463e+01    0.5088783     0.286385 -60.04  0.001861413    1.731    0.422
       110  -9.5245    126.8136    113.9402   1.0152959453e+02   3.4651658070e+01    0.2303745    0.2090148 -11.08 0.0004198691    1.223    0.182
       111 -10.5681    108.0966    112.6960   1.0629252830e+02   3.8692959849e+01    0.4543984    0.3349262  89.39  0.001508935    1.958    0.489
       112 -11.1328    102.1612    109.5375   1.0715927750e+02   4.0517207464e+01    0.6631845    0.4808025  22.22  0.003131876    1.653    0.395
       113  -9.8216     48.8547    112.1957   1.2371718104e+02   4.7890532544e+01    0.2296411    0.2052441 -67.57   0.00142545    1.105    0.095
       114 -11.3156    171.1225    109.9674   8.9835693385e+01   2.5536500171e+01    0.6483069    0.4594062  33.14  0.002241503    1.685    0.407
       115  -9.2786     87.7506    114.4563   1.1256171119e+02   4.1930964809e+01    0.2756566    0.1380858  43.64  0.001129416    2.151    0.535
       116 -11.2932     79.2587    108.6536   1.1366583008e+02   4.4618868198e+01    0.6234019    0.4370197  47.97  0.002550294    1.610    0.379
       117 -11.1429     86.3566    104.7133   1.1054395180e+02   4.4364426084e+01    0.5003237    0.3721105  27.69  0.001568903    1.476    0.322
       118  -9.2857     82.0695    102.7019   1.1132109293e+02   4.5507851516e+01    0.2298074    0.1805259  37.84 0.0004693472    1.360    0.265
       119 -11.0268    143.3333    105.9022   9.5206365243e+01   3.2782876635e+01      1.01894    0.5361522  66.56  0.003309968    3.266    0.694
       120 -11.6528    145.7149    100.2633   9.3115670419e+01   3.3408961608e+01    0.5688308    0.4711577 -31.08  0.002596586    1.285    0.222
       121  -9.4584    130.4126    108.8104   9.9247008644e+01   3.5007321881e+01    0.2290684    0.1455332 -34.71 0.0009595912    1.725    0.420
       122  -9.8274    120.1300    109.1303   1.0205641923e+02   3.7097171478e+01    0.2361866    0.2097647 -10.88 0.0006009619    1.256    0.204
       123  -9.7080    248.4880    108.5110   7.5667710767e+01   8.6425072579e+00    0.1380037    0.1214093 -49.79 -3.315451e-05    1.041    0.040
       124 -10.7003    157.6715    106.0542   9.1832921442e+01   2.9472206091e+01     0.405275    0.3178302 -10.01  0.001288553    1.692    0.409
       125 -10.7714     48.1098    103.1624   1.2200247854e+02   5.0031094130e+01    0.2474991    0.1991484 -42.66 0.0003450246    1.111    0.100
       126 -10.5092     52.0476     98.7137   1.1973141278e+02   5.0568343569e+01    0.6336756    0.1613402 -47.85  0.002175055    3.268    0.694
       127  -9.4762     57.5165    102.4990   1.1888604097e+02   4.9060254164e+01    0.2539217    0.1629896 -62.74  0.001079659    1.573    0.364
       128 -10.1936     57.5064     97.7006   1.1774049786e+02   5.0125424821e+01    0.2910638    0.2302622 -69.37 0.0009339318    1.398    0.284
       129 -10.4576     67.5070     99.5192   1.1501649658e+02   4.8395478461e+01    0.3295312    0.2587362 -78.21   0.00138426    1.587    0.370
       130 -10.8827     68.4076     95.7768   1.1378012382e+02   4.9086060443e+01    0.5281581    0.3462453  -8.95  0.002446521    2.185    0.542
       131  -9.5093     96.0964    100.1047   1.0643620056e+02   4.3694297581e+01    0.2118781    0.1855896  -9.12 0.0003252717    1.228    0.185
       132 -10.0560    210.5657     97.6955   7.9167271384e+01   1.8727597912e+01    0.3178723    0.2952396  38.17  0.001773462    1.245    0.197
       133 -10.3956     67.5495     71.1544   1.0715256833e+02   5.4218777931e+01    0.7339588    0.2916524 -35.76  0.002869259    2.742    0.635
       134  -9.4765     77.8491     97.1115   1.1116330663e+02   4.7395437303e+01    0.2122945    0.1920795 -29.74 0.0003565942    1.043    0.041
       135 -11.2682     81.5929     92.7757   1.0883749867e+02   4.7730751930e+01    0.6820852    0.4581541  48.54  0.002896403    1.722    0.419
       136 -11.0671     89.3348     90.1984   1.0573995074e+02   4.6977830455e+01    0.4461905    0.2978806 -40.60  0.001136773    1.433    0.302
       137  -9.8062     92.8696     85.7878   1.0340876193e+02   4.7256630186e+01    0.3106506    0.2242865  35.55  0.001039615    1.423    0.298
       138 -11.5742     79.3415     82.7614   1.0673240521e+02   5.0154378102e+01    0.8839777     0.629009 -68.85  0.004319548    1.986    0.497
       139 -11.2238     66.6122     81.8168   1.1059044102e+02   5.2266813513e+01    0.5026731    0.3819973  -1.09  0.002734269    1.475    0.322
       140 -11.2135     72.2151     78.8788   1.0790399156e+02   5.2034488966e+01     0.679592    0.3107246 -33.05  0.002709132    2.585    0.613
       141  -9.4051    140.9889     96.0111   9.3111949194e+01   3.5341986831e+01    0.2514715    0.1951026   7.89  0.001142785    1.733    0.423
       142 -10.0942    138.0387     93.4935   9.3147536464e+01   3.6509849613e+01    0.4124624    0.2680836  29.49  0.001243426    1.926    0.481
       143 -11.3828    120.2156     85.0772   9.5373251594e+01   4.2051930873e+01    0.6856794    0.5026295 -74.85  0.003111459    1.965    0.491
       144 -10.5048    117.4740     93.0165   9.8388073289e+01   4.1049385429e+01    0.7195099    0.4074437  20.17   0.00246223    3.313    0.698
       145 -10.2388    126.3171     93.1629   9.6056114573e+01   3.9155458341e+01    0.4170477    0.4018622  59.98  0.001342002    1.062    0.058
       146 -10.8900    122.4989     93.5105   9.7167026546e+01   3.9899446399e+01    0.3417998    0.2463158 -47.02 0.0008983266    1.398    0.285
       147  -9.5883    160.7015     93.7459   8.7886034359e+01   3.1220717960e+01    0.3167663    0.2123938  63.78  0.001311499    1.628    0.386
       148 -11.1295    102.2227     90.1158   1.0187355636e+02   4.4661333901e+01    0.5915456    0.5048561  10.41  0.002054732    1.268    0.212
       149 -10.6909    152.5514     91.8963   8.9228279241e+01   3.3493744624e+01    0.3875287     0.362258  75.98  0.001663802    1.076    0.071
       150  -9.4869    212.1316     87.3743   7.6457540307e+01   2.0229443250e+01    0.2610005    0.2009924  -9.64 0.0007233481    1.894    0.472
       151 -10.4278    183.9027     85.7505   8.1010732341e+01   2.7176801229e+01    0.6516632    0.2560537 -47.59  0.002276337    2.654    0.623
       152 -10.0265    104.3210     76.9981   9.7414486633e+01   4.6820765888e+01    0.5146997    0.2945282 -27.47  0.002193568    2.094    0.523
       153 -11.0093    113.2940     84.7597   9.7174327999e+01   4.3549789327e+01    0.7399818      0.35636 -35.14  0.002800568    2.282    0.562
       154  -9.2828     67.5064     88.0604   1.1202678310e+02   5.0856256240e+01    0.2119076    0.1222825 -46.22  0.001019012    1.570    0.363
       155  -9.0548    135.2729     86.3528   9.1832485974e+01   3.8524418068e+01    0.1515517    0.1194758   1.02 0.0007000519    1.637    0.389
       156 -10.6552    165.6215     83.2771   8.4008838741e+01   3.2016240096e+01    0.4403515    0.3597027 -68.83  0.001648791    1.327    0.246
       157 -11.3799    143.4209     83.3199   8.8984926518e+01   3.7243446581e+01    0.4995951    0.3868685 -23.75  0.001718958    1.474    0.322
       158 -10.6281    127.7669     83.2747   9.2857940171e+01   4.0773497648e+01     0.447825    0.2891815  36.80  0.001982504    1.644    0.392
       159  -8.4259     46.8706     76.9049   1.1592406424e+02   5.5775847027e+01    0.2974832    0.2020741 -56.79  0.001460424    1.505    0.335
       160 -11.7014     52.9458     76.4052   1.1367958601e+02   5.5159000550e+01    0.7898614    0.4796269 -53.57  0.003983579    1.626    0.385
       161 -11.2808     58.5494     78.2511   1.1228206326e+02   5.4081575403e+01    0.4765422    0.3790413 -57.37 0.0007704511    1.375    0.273
       162 -10.6854     21.6206     72.0771   1.2363272172e+02   5.9154556513e+01      0.33894    0.2206229  31.90 0.0008795353    1.858    0.462
       163 -11.9507     13.8697     74.6419   1.2701306716e+02   5.9200164674e+01    0.5430743    0.3480399 -49.85  0.002139045    1.213    0.176
       164 -12.0133      2.0124     71.4773   1.3052339647e+02   6.0549618627e+01    0.7729524    0.1239885 -59.63  0.002883771    3.779    0.735
       165 -11.3164     14.1751     66.2775   1.2491680939e+02   6.0846855320e+01    0.2874667    0.2162589 -54.21 0.0009784397    1.213    0.176
       166 -11.8171      6.4470     62.8224   1.2695006789e+02   6.2010330504e+01    0.7313666    0.1661867 -47.93  0.003187849    2.776    0.640
       167 -10.9755    108.5963     81.0514   9.7403251481e+01   4.5211692727e+01    0.3932432    0.3392327 -21.70  0.001565256    1.178    0.151
       168  -9.4417     37.5275     79.0401   1.1974616115e+02   5.6336537979e+01    0.1849204    0.1604334 -13.79  0.001223097    1.156    0.135
       169  -9.4279    170.3344     77.9421   8.1608509199e+01   3.1836586028e+01    0.2084415    0.1962428 -57.34 0.0005704967    1.074    0.069
       170 -10.0588     67.0632     54.9184   1.0213334825e+02   5.7182671329e+01     1.066056    0.2879905  40.71  0.003790441    3.863    0.741
       171 -10.6643     98.1910     62.7603   9.4773290897e+01   5.0536443304e+01    0.4452909    0.2763556  22.11   0.00189243    2.005    0.501
       172 -10.5910     94.1042     75.9608   1.0012220458e+02   4.8945053741e+01    0.5596585    0.4540425  34.62  0.001790084    1.237    0.192
       173 -11.5855     85.3813     73.6026   1.0209350365e+02   5.0929772447e+01    0.5900298    0.5733639   0.06  0.003647702    1.116    0.104
       174 -11.9996     78.6956     67.2290   1.0224795462e+02   5.3219837229e+01     1.462384    0.6955778 -49.24  0.006298546    2.334    0.572
       175 -11.0276     91.5711     62.5211   9.6683576542e+01   5.1814803698e+01    0.4490272    0.3148076  37.94  0.002384925    1.401    0.286
       176 -10.9206     91.1786     57.8525   9.5282019957e+01   5.2664687824e+01    0.3319721    0.3008821  44.54  0.001040711    1.219    0.180
       177 -10.9829     87.5972     56.9618   9.6090361661e+01   5.3459213082e+01     1.150046      0.66061 -55.15  0.005055299    2.621    0.618
       178 -11.9470     74.4870     49.4681   9.7767091984e+01   5.6898632489e+01    0.6235428     0.521599  50.21  0.002340498    1.479    0.324
       179 -10.8494     72.3785     46.1575   9.7318583148e+01   5.7750633366e+01    0.3293864    0.1999215 -41.36  0.001474951    1.744    0.426
       180  -9.3319    134.2946     77.3974   8.9498473654e+01   4.0411316525e+01    0.2660745    0.1861622  60.12  0.001080678    1.526    0.345
       181  -9.7163    126.8512     76.8107   9.1203694885e+01   4.2172722528e+01    0.2207048    0.1979605  14.52 0.0004730636    1.178    0.151
       182 -11.7889     12.4517     62.1922   1.2453537075e+02   6.1755331131e+01     0.319157    0.2779846  -4.39  0.000298305    1.270    0.212
       183  -9.7231    242.2064     76.4041   6.9626046638e+01   1.5419616303e+01    0.1876012    0.1225285  81.16 0.0009517392    1.704    0.413
       184 -12.1473    186.3419     70.5107   7.6649287662e+01   2.9234319853e+01    0.8737063    0.6455471 -45.81  0.003199826    1.350    0.259
       185  -9.4694    234.2457     75.3490   7.0440228667e+01   1.7308286949e+01    0.1854559    0.1226731  77.60  0.000425688    1.627    0.385
       186  -9.6805    184.3046     60.9958   7.4552837556e+01   3.1259690925e+01    0.2533576    0.2415099 -71.25  0.001334898    1.088    0.081
       187 -11.2906     33.3974     71.6044   1.1926308119e+02   5.8233510513e+01    0.6028636    0.3174258  15.06  0.003122519    2.284    0.562
       188 -10.5164     38.4741     73.5104   1.1795729074e+02   5.7357204849e+01    0.2424955    0.1906232  -8.11 0.0006674201    1.295    0.228
       189 -11.2481     41.8169     71.0155   1.1607769128e+02   5.7500205700e+01    0.4503341    0.2733893 -50.90  0.002205397    1.505    0.335
       190  -9.2358    230.3630     73.6636   7.0590372610e+01   1.8438591434e+01    0.1522825   0.09498576 -71.27 0.0007035308    1.824    0.452
       191 -11.7048    122.6494     68.4829   8.9792702567e+01   4.4557919870e+01    0.6116131    0.4735575  51.73  0.002137307    1.280    0.219
       192 -10.3035    129.1072     64.8148   8.7043480598e+01   4.3751836808e+01    0.5268919    0.2794954 -53.74  0.002091217    2.537    0.606
       193  -9.5207     60.7439     73.0235   1.1002305718e+02   5.4817750258e+01    0.1979838    0.1739104  35.06 0.0004103351    1.304    0.233
       194 -10.2795    161.9049     70.4296   8.1273670184e+01   3.5159169477e+01    0.3625027    0.2670583  81.31  0.001277238    1.577    0.366
       195 -10.6532    172.0125     67.7638   7.8549688273e+01   3.3159428837e+01    0.4662715    0.3488248 -43.68  0.002362519    1.366    0.268
       196 -11.5443    219.9944     66.2511   7.0339757292e+01   2.1971594715e+01    0.6785995    0.3623325  59.41  0.002480722    1.871    0.466
       197  -9.8348    192.4367     65.7580   7.4402462175e+01   2.8540413968e+01    0.2855282    0.2082189 -79.02 0.0009127842    1.510    0.338
       198 -10.8356     58.3018     61.7446   1.0741929866e+02   5.7249374450e+01    0.5380792    0.4480231 -73.91  0.003190948    1.812    0.448
       199 -11.8809     26.2276     55.5198   1.1741265675e+02   6.1942441582e+01    0.8976653    0.6464568  -7.19  0.005567613    1.367    0.268
       200 -10.0720    142.9179    249.5046   1.2370715960e+02   2.0950745520e+00    0.2074998    0.1101374  41.40  0.001035349    1.597    0.374
       201 -10.1181     51.9831     47.9919   1.0516041558e+02   6.0439131848e+01    0.2944528    0.1943153 -22.99  0.001179853    1.417    0.294
       202 -11.3941     34.0811     42.7890   1.1024771598e+02   6.3387848941e+01    0.5829161     0.427926   5.36  0.002196389    1.294    0.227
       203 -12.2201     49.2610     60.1570   1.1016010348e+02   5.8693068147e+01    0.7322776    0.5611345  68.78  0.003185248    2.407    0.585
       204 -11.3015     40.2278     55.7589   1.1212570001e+02   6.0521263793e+01    0.4465058    0.3951265 -39.33  0.002194227    1.255    0.203
       205 -10.5416     26.0105     47.9833   1.1518512081e+02   6.3299705252e+01       0.2426    0.1563659 -21.59 0.0003554836    1.404    0.288
       206 -10.8057     21.1773     47.6830   1.1702925628e+02   6.3769985041e+01    0.3533946    0.2440064 -33.32  0.001410534    1.144    0.126
       207  -9.0983    213.5270    247.9881   1.0969115387e+02  -9.2852601655e+00    0.1663028   0.09717964 -11.73 0.0008073212    2.377    0.579
       208 -10.8762     60.8548     36.5762   9.7849394218e+01   6.0942528020e+01    0.3247854    0.1970509 -31.87 0.0009845827    1.578    0.366
       209 -11.2464     56.4115     30.9446   9.7335609224e+01   6.2373118713e+01    0.4136572    0.2364287  29.87 4.018033e-05    1.656    0.396
       210 -11.8076     47.9161     30.4792   1.0033238594e+02   6.3611506120e+01    0.6788112    0.2718444  31.65  0.003275497    2.496    0.599
       211 -11.6979     45.9335     49.0481   1.0778031810e+02   6.1023036139e+01    0.4598728    0.3260553   2.00  0.001368598    1.403    0.287
       212 -12.0029     41.6981     45.4298   1.0816627372e+02   6.2119238380e+01    0.3360819    0.2546166  10.52 0.0003092652    1.265    0.209
       213  -9.5264     25.8629     65.3391   1.2033485087e+02   6.0133403544e+01    0.1836179    0.1346419 -50.01  0.000314915    1.233    0.189
       214 -10.1223     21.1603     65.1515   1.2203488854e+02   6.0553467384e+01     0.186623    0.1788363 -36.54  0.001002448    1.273    0.214
       215 -10.0392    204.5001     63.8407   7.2021138151e+01   2.5964739234e+01    0.2514076    0.2006723  50.46  0.001360466    1.381    0.276
       216  -9.5725    198.2076     62.8976   7.2760995406e+01   2.7611025277e+01    0.3027588    0.1735867 -50.99  0.001046589    1.749    0.428
       217 -10.8318    159.2012     61.8224   7.9430032866e+01   3.7213109628e+01     0.533123     0.384477  27.01  0.002531763    1.787    0.441
       218 -11.3140    157.2218     55.6834   7.8099241680e+01   3.8635313474e+01    0.6387832    0.3739888 -34.38  0.001223118    1.837    0.456
       219 -10.8257    155.4793     49.9907   7.6828295183e+01   3.9888926994e+01    0.4069833     0.301684  -3.63  0.001317358    1.849    0.459
       220  -8.5258    167.8501     63.0000   7.8056028431e+01   3.4937877515e+01    0.2367922   0.07910793  57.50 0.0007880062    2.843    0.648
       221  -9.6323    175.0171    246.4898   1.1691089321e+02  -2.8193628405e+00    0.2064981    0.1111718  39.35 0.0006038829    1.594    0.373
       222 -11.5682    120.4863     57.8012   8.7051284546e+01   4.6777826231e+01    0.9523999    0.5540599  59.94  0.004267667    1.939    0.484
       223 -10.6220    127.3852    241.7970   1.2577436542e+02   6.1144308561e+00    0.2123159    0.1728645 -48.73 0.0008521311    1.469    0.319
       224 -10.5359    246.6350    238.6932   1.0201829966e+02  -1.2862093079e+01     0.213662    0.2038785 -13.66 0.0007607152    1.441    0.306
       225 -11.6264    105.7101     33.0553   8.2772219199e+01   5.3359748953e+01    0.5472385    0.3153423  13.09  0.001651616    2.644    0.622
       226  -9.6879    198.8279    244.5569   1.1194329164e+02  -6.4500291459e+00    0.2471407    0.1090781  35.83   0.00113688    2.015    0.504
       227 -10.2428    150.3804    237.7458   1.2054234257e+02   2.9130285085e+00    0.2229633    0.1745878 -38.95  0.001273245    1.515    0.340
       228  -9.9330    147.2192     60.7594   8.1634746006e+01   4.0236917711e+01    0.3739667    0.1706559  53.06  0.001141534    2.039    0.510
       229  -8.8162    235.3418     59.6421   6.6870479552e+01   1.9559390732e+01    0.1490417   0.08799437 -68.84 0.0007036819    1.825    0.452
       230  -9.2610    228.5970     59.2745   6.7626471114e+01   2.1112070399e+01    0.2421562    0.1546348  81.85 0.0007951295    1.632    0.387
       231 -10.7805    198.7268    232.3937   1.0994106991e+02  -4.5078050648e+00    0.3723082    0.3025596  35.69  0.002267393    1.149    0.129
       232 -10.8082    139.6160     43.8406   7.8261899630e+01   4.4494957217e+01     0.446241    0.2332049  41.50   0.00188439    1.996    0.499
       233 -11.0982    136.3378     56.2116   8.2718030862e+01   4.3476485077e+01     0.709846    0.4589024 -34.70  0.002907227    1.643    0.391
       234  -9.3308      1.7020     56.4030   1.2718852305e+02   6.3501526929e+01      0.18914   0.09148525 -41.19 0.0008142012    1.571    0.363
       235  -9.7491    208.4187     68.0193   7.2431389124e+01   2.4372413081e+01    0.3019068    0.1869581  47.93  0.001237851    1.826    0.452
       236  -9.8069     13.7589     54.5767   1.2200840633e+02   6.3099375751e+01    0.2480036    0.1226376 -48.06 0.0004221289    1.576    0.365
       237  -9.6378    187.7346     55.1287   7.2480992793e+01   3.1326288882e+01    0.3206755    0.1818517  57.18  0.001481558    1.669    0.401
       238 -10.1913    242.6409    231.4504   1.0146191127e+02  -1.1277375406e+01    0.2425962    0.2055296  63.92   0.00151385    1.969    0.492
       239 -10.0516    249.5223     53.0255   6.3864595147e+01   1.7507132130e+01    0.2868969    0.1939733 -88.37 0.0009702215    1.453    0.312
       240  -9.9776    244.5111     50.9909   6.3986395590e+01   1.8866830876e+01    0.2308012    0.1930219 -57.75  0.001264788    1.137    0.121
       241 -10.9275    240.0722     50.2889   6.4327831553e+01   1.9924466200e+01    0.3808183    0.2986555  89.21 0.0009720572    1.166    0.143
       242 -11.2610    201.9403     47.9873   6.8575916548e+01   2.8961802205e+01    0.7285846    0.4630448 -47.40  0.003734966    1.542    0.351
       243 -11.1389    174.2498     48.1464   7.2895130803e+01   3.5614830550e+01     0.625725    0.3557818  66.00  0.001884287    1.679    0.404
       244 -10.1271    176.6425     43.3662   7.1233242857e+01   3.5698134899e+01    0.3721291    0.2582371  73.05  0.001510916    1.371    0.271
       245  -9.0212     54.8662     51.1618   1.0518419368e+02   5.9538289152e+01    0.1687201    0.1237265  -2.32 0.0005155649    1.343    0.255
       246  -9.6958     90.8907     48.4107   9.2205593565e+01   5.4193146609e+01    0.2307296     0.207869 -66.54  0.001220628    1.486    0.327
       247  -9.3288      2.7060     48.9832   1.2487438861e+02   6.4818060017e+01    0.2177882    0.1489725   7.67  0.001535886    1.609    0.378
       248  -9.9882      4.2404     44.3363   1.2295279225e+02   6.5559868482e+01    0.4200434    0.1905273 -17.47  0.002135295    2.578    0.612
       249 -11.4832      4.2468     36.0002   1.2044439548e+02   6.6990413953e+01    0.3497099     0.229958 -28.16 0.0004580776    1.175    0.149
       250  99.0000      6.8937     30.8300   1.1760095176e+02   6.7663638149e+01    0.5626051    0.2866594  -2.99  0.003328444    2.180    0.541
       251 -10.2169     13.7911     46.4167   1.1963791545e+02   6.4565090468e+01    0.6425293    0.1475013 -38.51  0.002435657    3.962    0.748
       252  -9.6185     18.4694     41.6572   1.1622496007e+02   6.5024210688e+01    0.2467101    0.1586368   2.30  0.001578128    1.572    0.364
       253  -9.4831    193.3332     45.9661   6.9318674467e+01   3.1305573856e+01    0.2593535    0.1747491 -84.45 0.0008325803    1.621    0.383
       254  -9.6752     23.3828    231.7016   1.4477892509e+02   2.3183243332e+01    0.2006866    0.1070307  53.67 0.0007226658    1.593    0.372
       255  -9.7634    162.5187     43.5409   7.3694208296e+01   3.9093343325e+01    0.2796529    0.2083575  73.08  0.001070406    1.301    0.231
       256 -11.5555    156.0620     41.8085   7.4390519025e+01   4.0878086578e+01    0.4348691    0.3666739  75.38    0.0014516    1.141    0.123
       257 -10.8487    153.3127     36.1197   7.3278567405e+01   4.2269285248e+01    0.2768532    0.2620825 -64.12 0.0003936058    1.136    0.120
       258 -10.3813    100.7114     43.3550   8.7629447547e+01   5.3029392097e+01    0.3511082    0.2800593  84.65  0.001250277    1.882    0.469
       259 -11.1637     93.7635     41.3188   8.8914318037e+01   5.4667438408e+01    0.5028238    0.2709668  43.49    0.0017382    1.719    0.418
       260 -11.1068     81.6094     39.5627   9.1978039957e+01   5.7146877033e+01    0.5593796    0.3917793  30.24  0.003229022    1.326    0.246
       261 -10.7375     77.9436     34.1948   9.1198762625e+01   5.8512063490e+01    0.5192537      0.24514  41.68   0.00253162    1.968    0.492
       262 -10.6710     81.9592     31.3598   8.8901841231e+01   5.8166584788e+01    0.5381861    0.3259628  48.76  0.002923677    1.678    0.404
       263  -9.6964     26.1560     43.2585   1.1359463742e+02   6.4089998588e+01     0.178304    0.1258116 -20.32 0.0007593681    1.193    0.162
       264 -10.1151    189.1418     41.1097   6.8725462393e+01   3.2982364305e+01    0.4151524    0.2057463 -27.40 0.0006657958    2.549    0.608
       265 -10.4586    231.5666     39.3840   6.2960023739e+01   2.3336775665e+01    0.3243173    0.1986427 -57.32  0.001394932    1.486    0.327
       266  -9.5111    218.3441     38.9018   6.4354748064e+01   2.6390868593e+01    0.2278733    0.1636636  87.98 0.0008335666    1.279    0.218
       267  -8.7526    184.4876     39.5032   6.9010191078e+01   3.4319273769e+01    0.1390755    0.1205748  89.35 -9.806091e-05    1.046    0.044
       268 -10.9810    176.6576     36.9327   6.9544320388e+01   3.6547093622e+01    0.3612093    0.2932455 -36.31  0.001697566    1.368    0.269
       269 -10.9897    172.2962     33.5702   6.9342500251e+01   3.8026242721e+01    0.4380497    0.2223168  61.43  0.002032343    1.736    0.424
       270  -9.8067    247.3899    231.2586   1.0057527507e+02  -1.1934148386e+01    0.1561435    0.1074563 -38.07 0.0006543795    1.573    0.364
       271  -9.6473     15.1340    233.6639   1.4635714717e+02   2.3688045533e+01    0.2107232    0.1337461 -77.73  0.001384768    1.390    0.281
       272 -10.1845    207.0057     37.2571   6.5365189652e+01   2.9246047567e+01    0.2888608    0.2057735 -88.21  0.000709798    1.333    0.250
       273  -9.8828    133.3169     37.0691   7.7543218441e+01   4.6832047133e+01    0.3946893    0.2816836 -83.00  0.001972209    1.963    0.491
       274 -11.0592     69.6877     32.6203   9.3319080325e+01   6.0108011868e+01    0.4900638    0.2617485  39.15 0.0009326001    1.760    0.432
       275 -11.3439    159.7183     29.8148   7.0371638293e+01   4.1506359530e+01    0.5750964    0.3879654 -50.60   0.00205641    1.638    0.389
       276 -11.0910    164.2592     27.4817   6.8984511030e+01   4.0691970367e+01    0.2951114    0.2520086 -63.31 0.0005622313    1.235    0.190
       277  -9.4277    248.5235     33.0112   5.9945794615e+01   2.0528474627e+01    0.1848768    0.1081542 -43.84  0.001031915    1.591    0.371
       278 -10.5424    240.6958     31.3959   6.0365361521e+01   2.2411177779e+01     0.388931    0.3240405 -34.84  0.002216559    1.497    0.332
       279  -9.5388      9.1662    227.1947   1.4697643245e+02   2.5626300485e+01    0.1572342    0.1244901  88.60 0.0003434943    1.193    0.162
       280 -10.9472    189.5341     29.4037   6.5766493588e+01   3.4395618902e+01     0.578472    0.3128003 -41.33  0.002866846    1.895    0.472
       281  -9.8889    182.8169     32.0449   6.7362346847e+01   3.5680277044e+01    0.2054232    0.1657663 -78.83 0.0004849297    1.202    0.168
       282 -10.0459    234.3489    222.9158   1.0144313059e+02  -8.7714863415e+00    0.1794348    0.1471512  -9.39 0.0006431429    1.093    0.085
       283  -9.0183    209.4406    223.4789   1.0628153839e+02  -4.8456001195e+00    0.1326017     0.115203   9.93 0.0001602831    1.032    0.031
       284  -9.6431     10.0987    217.8540   1.4619584632e+02   2.7468840737e+01    0.1848143    0.1181315  75.39  0.000749147    1.229    0.187
       285  -9.0184    165.7169    212.3905   1.1325180912e+02   4.9344203128e+00    0.1417359    0.1100073  83.13 0.0007002927    1.750    0.429
       286 -10.0820    230.2558     28.2276   6.0744226281e+01   2.5107658449e+01    0.3798113    0.1672113 -43.95  0.001838333    2.075    0.518
       287  -9.2713    221.5956     29.6937   6.1961062733e+01   2.6863442000e+01    0.1786765    0.1042692 -50.74 0.0009447467    1.598    0.374
       288  -9.4843    100.4733     30.1368   8.3145813681e+01   5.4779839979e+01    0.3206806    0.1890224  38.94  0.001492824    1.548    0.354
       289 -10.0144     98.3395     26.8425   8.2561858013e+01   5.5591889977e+01    0.2327481    0.2123198  74.57 0.0008169432    1.372    0.271
       290  -8.7985    160.7069    208.6855   1.1367632661e+02   6.6006808741e+00    0.1394871     0.111458  -0.77 0.0005754343    1.597    0.374
       291  -9.3366    158.2534     20.5548   6.8046210437e+01   4.2897577403e+01    0.2046573    0.1719806  55.97 0.0009033041    1.118    0.105
       292  -9.6646    250.5172     25.2492   5.8251803323e+01   2.1124311804e+01    0.1939277    0.1123352 -37.44 0.0004064623    1.829    0.453
       293 -11.1148    144.2742     25.0007   7.1712109305e+01   4.5714842660e+01     1.717292     0.438715  66.22  0.004768555    5.270    0.810
       294  -9.5097    152.9339    207.9485   1.1523213495e+02   8.2075862388e+00    0.2313057     0.170917  72.45 0.0008791824    1.693    0.409
       295 -10.4908    138.0216     21.4919   7.1829938730e+01   4.7545927695e+01    0.6893634    0.1940552  44.64  0.002279103    3.918    0.745
       296  -9.8703    141.7771     19.5991   7.0570466120e+01   4.6873240160e+01    0.3071286    0.2207257  75.15  0.001143324    1.383    0.277
       297 -11.1526    214.4931     23.6982   6.1419119145e+01   2.9233594083e+01    0.3792738    0.3584331  47.08  0.001660059    1.397    0.284
       298 -11.2494      4.2373    204.9601   1.4638179509e+02   3.0774868222e+01    0.5935053   0.09776849 -67.11  0.002258915    3.998    0.750
       299 -12.4633      4.9749    184.5305   1.4469528257e+02   3.5191714384e+01    0.8174254    0.4655167 -87.10  0.004908701    1.410    0.291
       300 -10.5895    245.6311    200.9183   9.5267831783e+01  -7.0729591655e+00    0.2162164    0.1668438  16.13 0.0006095752    1.275    0.216
       301 -10.7711     22.6615     36.6673   1.1280451435e+02   6.5485707872e+01    0.3402438    0.2451485  38.66  0.001498358    1.945    0.486
       302 -10.3917    234.4837    197.0347   9.6536632377e+01  -4.6253531217e+00    0.3764637    0.2777155  -8.86  0.001917309    1.420    0.296
       303  -9.8206    169.7666    191.3329   1.0850533262e+02   8.3941394014e+00    0.3884062    0.2155607  27.56  0.001128523    2.315    0.568
       304  -9.5641    245.0003    188.0000   9.2856447542e+01  -4.8422605129e+00    0.2073776   0.07423171  41.95 0.0008084669    2.984    0.665
       305  -9.8898     17.0389    192.3152   1.4289453761e+02   3.2335179724e+01      0.20227    0.1386937 -81.25 0.0004507125    1.163    0.140
       306  -9.8004    223.3466     22.2851   6.0188963341e+01   2.7394474152e+01    0.2421836    0.1643907  88.33  0.000741714    1.293    0.227
       307  -9.7722    220.9937     19.2310   5.9776116695e+01   2.8292346933e+01    0.1928157     0.158398 -65.90  0.001254146    1.135    0.119
       308  -9.1991    212.3256    182.0073   9.7754082900e+01   1.9937358336e+00    0.2380205    0.1091635 -24.26 0.0007051142    4.332    0.769
       309  -9.5716    250.2358    179.9221   9.0332950251e+01  -4.3377391904e+00    0.2654062     0.167919 -23.54   0.00136131    1.607    0.378
       310  -9.5201     28.4807    176.4630   1.3890849182e+02   3.4815232694e+01    0.1276172    0.1017471 -87.10 0.0002447433    1.008    0.008
       311  -9.9264     52.2027    173.8587   1.3312290933e+02   3.2722164201e+01    0.3615976    0.1911496  89.81  0.001568732    2.330    0.571
       312  -9.8183    238.5029    204.0115   9.7148522177e+01  -6.4403219619e+00    0.2020592    0.1189667 -35.52  0.001037769    1.606    0.377
       313  -9.8831    206.9129     18.7692   6.1148157800e+01   3.1566780958e+01    0.3789896    0.1780364 -64.11  0.001676749    2.510    0.602
       314  -8.9853      1.4860     20.5707   1.1646351373e+02   6.9614037698e+01     0.107691   0.07533533 -22.77 0.0001882909    1.036    0.034
       315  -9.9044    247.5764    173.7646   8.9549607582e+01  -2.8385233049e+00    0.3174658    0.1753666  23.31   0.00137331    2.615    0.618
       316  -9.7073     39.5177    173.4914   1.3605118252e+02   3.4321251391e+01    0.2303273   0.09402658 -58.85 0.0007607246    2.138    0.532
       317 -10.7969     35.6206    170.4936   1.3659551455e+02   3.5463252879e+01    0.3951465    0.1939328 -83.45  0.001816366    2.110    0.526
       318 -11.2204     31.0849    151.5186   1.3528627508e+02   4.0449268847e+01    0.6741107    0.3107217 -78.45  0.002365261    2.195    0.544
       319 -11.5921     12.5063    138.6897   1.3832416328e+02   4.5103269217e+01    0.8827646    0.4616903 -80.32  0.004641142    1.742    0.426
       320 -10.7980     10.6046    127.4296   1.3735291384e+02   4.7848070764e+01    0.5413435    0.1500405 -56.46  0.001831866    2.570    0.611
       321 -11.8502      9.7505    166.0508   1.4202319770e+02   3.8980807266e+01    0.5607109    0.3622498 -68.18  0.002704316    1.275    0.216
       322  -8.7886     27.3033     15.2789   1.0263601880e+02   6.8106061633e+01    0.1116564   0.06779399  -4.10 0.0002932206    1.548    0.354
       323 -10.0609    218.9269     12.6805   5.8589317843e+01   2.9517945625e+01     0.399359    0.1218064  64.77  0.001679005    2.748    0.636
       324 -11.7028     13.3139    157.3160   1.4030421877e+02   4.0703660557e+01    0.4837168    0.3682127  68.50  0.001178416    1.320    0.243
       325  -8.9901     94.5186     12.4605   7.8417817971e+01   5.7844808508e+01    0.1230758    0.1037006  35.27 0.0008089012    1.028    0.027
       326 -12.1291     23.3165    149.0069   1.3690191158e+02   4.1781566313e+01    0.5744637     0.329118 -30.93  0.002149924    2.670    0.626
       327 -10.6208     16.6161    147.9481   1.3843373268e+02   4.2613924768e+01     0.371411    0.2432652  45.76  0.001432862    1.713    0.416
       328  -9.2673    198.0007    167.7564   9.7652961816e+01   7.5764761419e+00    0.2021369    0.1969961   0.28 0.0007106559    1.020    0.019
       329  -8.7558    149.4886    168.4720   1.0852270381e+02   1.7436764876e+01    0.1526867    0.1486643  73.85 0.0008099155    1.001    0.001
       330 -10.2697     22.9410    155.1723   1.3776103035e+02   4.0360771624e+01    0.3836102    0.1778993  24.74  0.001862306    2.790    0.642
       331 -10.2793     18.8552    165.4840   1.3990353236e+02   3.8316096673e+01    0.2646366    0.2258905 -54.45  0.001184971    1.339    0.253
       332 -10.0046    188.8439    164.3431   9.8828211195e+01   1.0152740807e+01    0.2950881    0.2180981 -34.08  0.000870368    1.395    0.283
       333 -10.0990    205.0056    163.0633   9.5221743837e+01   7.1006608128e+00    0.4690157    0.2520566  51.83  0.001939293    2.084    0.520
       334 -10.3303     27.9555    162.8809   1.3748562466e+02   3.8061187015e+01    0.3494558    0.1960974 -63.49  0.001890544    1.493    0.330
       335  -9.9623     80.5838    160.1228   1.2399512277e+02   3.2099524484e+01    0.3727715    0.2787569  30.36  0.001920138    1.552    0.356
       336 -10.4189    246.5130    158.4953   8.6591577982e+01   3.5245867039e-02    0.2947573    0.1220988 -40.03  0.001198866    2.152    0.535
       337  -9.6089    215.3961    158.3409   9.2162396592e+01   5.9458310391e+00    0.2864498    0.1341168 -37.14 0.0008886207    2.127    0.530
       338  -9.3763    224.1573    156.8013   9.0180843547e+01   4.5167431810e+00    0.2018274    0.1666673 -10.01 0.0005866472    1.335    0.251
       339 -10.4883    105.1131    153.9263   1.1650043004e+02   2.9512639549e+01    0.4004507    0.3792818  51.99   0.00220767    1.104    0.094
       340 -11.6202      3.9517    136.5430   1.4023416287e+02   4.6217409391e+01     0.255121    0.1837564 -67.99  0.000359461    1.090    0.082
       341 -12.0199      5.1088    147.2228   1.4115459503e+02   4.3681533729e+01     0.685932    0.3878128 -61.91  0.003385634    1.434    0.303
       342 -11.1260      3.2401    141.9673   1.4103051383e+02   4.5022034822e+01    0.3806579    0.3264683  48.75  0.002056062    1.397    0.284
       343  -9.0570    140.9968    153.7564   1.0741767915e+02   2.2561519230e+01    0.2024543    0.1318408  43.80 0.0003775318    1.541    0.351
       344  -9.5729     74.6923    153.3411   1.2432825804e+02   3.4645665567e+01    0.2139471    0.1415858 -79.22  0.001008269    1.635    0.388
       345  -9.9302    214.7891    151.8062   9.0851121233e+01   7.3454609667e+00    0.2015911    0.1739299 -71.61 0.0006302553    1.335    0.251
       346 -11.6142     62.5774    149.8586   1.2690739232e+02   3.7198732333e+01    0.4813696    0.4406244  44.60  0.002023486    1.223    0.182
       347 -11.1386     47.2108    146.4245   1.3039578122e+02   3.9945300388e+01    0.5053585    0.3506263 -70.35  0.001809095    1.259    0.206
       348  -9.4301     44.3383    150.6901   1.3179818277e+02   3.9243273120e+01    0.2479793    0.1741023  87.78 0.0007001079    1.465    0.318
       349  -9.6679     42.3225    148.3028   1.3196210013e+02   4.0043947153e+01    0.2114753    0.1674762 -57.74  0.001259748    1.179    0.152
       350  -9.4691     85.4806    150.0243   1.2087598763e+02   3.3800041496e+01    0.2279129    0.1357121 -58.97 0.0006192777    1.567    0.362
       351  -9.6369     48.4640    151.6779   1.3088386632e+02   3.8528483525e+01    0.2630456     0.189714  16.48 0.0009384698    1.865    0.464
       352  -9.6863    239.7561    146.6516   8.5236776594e+01   3.4233030514e+00    0.2386262    0.1876867 -43.00 0.0006644783    1.155    0.134
