#   1 NUMBER                 Running object number                                     
#   2 MAG_AUTO               Kron-like elliptical aperture magnitude                    [mag]
#   3 X_IMAGE                Object position along x                                    [pixel]
#   4 Y_IMAGE                Object position along y                                    [pixel]
#   5 X_WORLD                Barycenter position along world x axis                     [deg]
#   6 Y_WORLD                Barycenter position along world y axis                     [deg]
#   7 A_WORLD                Profile RMS along major axis (world units)                 [deg]
#   8 B_WORLD                Profile RMS along minor axis (world units)                 [deg]
#   9 THETA_WORLD            Position angle (CCW/world-x)                               [deg]
#  10 FWHM_WORLD             FWHM assuming a gaussian core                              [deg]
#  11 ELONGATION             A_IMAGE/B_IMAGE                                           
#  12 ELLIPTICITY            1 - B_IMAGE/A_IMAGE                                       
         1 -12.5477    248.6677    133.0095   8.4892508120e+01   3.8225848011e+00       1.2244    0.6185808 -37.08  0.005407542    1.812    0.448
         2 -14.2020    202.6882     16.6853   6.4154630959e+01   3.2716959458e+01     2.385151     1.505407  30.92    0.0107114    2.515    0.602
         3 -13.3595    207.7048     10.7020   6.2174718405e+01   3.2172505352e+01    0.8486789    0.6310955  32.10  0.001561458    1.907    0.476
         4 -13.0520      3.6011      9.5039   1.1516115049e+02   7.1033320019e+01     1.284226    0.3420237 -41.98  0.006477484    2.797    0.642
         5  -9.4906     79.4405    243.4326   1.3847561108e+02   1.4411942192e+01    0.2241582    0.1243828  76.52  0.001197553    1.923    0.480
         6  -9.8408    184.0287    250.5283   1.1971847420e+02  -4.0890460957e+00    0.1899038     0.103723  39.11 0.0003736004    1.516    0.340
         7 -11.3127    136.2903    227.4545   1.2564891125e+02   8.1446214133e+00    0.5833185    0.3980239   1.03  0.002497738    3.329    0.700
         8 -11.8945    143.6052    244.8165   1.2660127873e+02   3.7606137377e+00    0.6728861    0.1911547  49.40  0.002383105    3.413    0.707
         9 -11.4019    135.6808    241.0583   1.2762841954e+02   5.7769217069e+00    0.3225079    0.2649403  20.89 0.0005772575    1.538    0.350
        10 -12.4859    135.4580    236.3807   1.2704916997e+02   6.6497233492e+00    0.5605775    0.4643709 -52.63  0.001432782    1.435    0.303
        11 -11.4269    133.5484    249.3495   1.2909572691e+02   4.7031127340e+00     0.741879    0.2315446  50.24  0.002857857    2.995    0.666
        12 -10.1242    123.0887    249.8500   1.3111828505e+02   6.3655897197e+00    0.3076291    0.1681517  48.38  0.001401239    1.488    0.328
        13 -10.0273    126.8146    248.8430   1.3030004271e+02   5.9203067712e+00    0.2343737    0.1892813  77.33 0.0009113492    1.250    0.200
        14 -10.7407    121.7107    244.8621   1.3078129256e+02   7.4714508383e+00    0.4154555    0.1971108  51.03  0.001348426    1.798    0.444
        15 -11.6588    126.2807    240.7624   1.2940236090e+02   7.4366442876e+00    0.4134716    0.3769618  74.46  0.001844179    1.144    0.126
        16 -11.1835    115.2800    250.2174   1.3261334032e+02   7.5845236731e+00    0.5347112    0.3092956  40.66  0.002962026    1.585    0.369
        17 -11.7324    109.6182    246.9724   1.3329834891e+02   9.0805091564e+00     0.601368    0.4390957 -69.65  0.003488847    1.516    0.340
        18 -10.5293    104.4517    237.9811   1.3324930855e+02   1.1572796720e+01    0.3194538    0.2108997  66.24  0.001267066    1.407    0.289
        19 -11.2172     98.4377    231.4602   1.3365143717e+02   1.3791534766e+01    0.3896411    0.3042199 -63.92 0.0008195814    1.433    0.302
        20 -11.3947     98.5438    247.3646   1.3538831231e+02   1.0773225897e+01    0.5975791     0.318648  49.76  0.003294374    1.527    0.345
        21 -12.1830     98.0073    239.9618   1.3469185680e+02   1.2229625028e+01    0.7354532    0.3693763  61.30   0.00340319    1.989    0.497
        22 -11.4687     99.1481    223.5083   1.3256709773e+02   1.5253343211e+01    0.4922054    0.2711818  43.87  0.001073743    1.651    0.394
        23 -11.0305    112.7021    230.1002   1.3070111445e+02   1.1718109152e+01    0.4167064    0.3555095 -11.40  0.001734537    1.865    0.464
        24 -11.2014    106.1673    229.2302   1.3187873569e+02   1.2972428825e+01    0.5466126    0.2699307  44.72  0.001573785    1.767    0.434
        25 -10.0195     87.9570    250.5678   1.3763170023e+02   1.1819023319e+01    0.4472382     0.105394  40.59  0.001338078    3.892    0.743
        26 -10.5266     88.7692    247.3049   1.3716480920e+02   1.2293036409e+01    0.4568054    0.2150949  43.45  0.002233574    1.853    0.460
        27  -9.0650     68.6404    250.2799   1.4101125619e+02   1.4689877256e+01    0.1264048   0.06711935  65.51  0.000379536    1.667    0.400
        28  -9.7404     63.2276    249.9290   1.4191676533e+02   1.5507542611e+01    0.1818035    0.1494283 -69.83  0.001304329    1.508    0.337
        29 -11.1156     59.8378    245.1358   1.4210608634e+02   1.6866624648e+01    0.3922453    0.2682698 -78.44 0.0006273843    1.408    0.290
        30 -10.9097     67.4044    244.1243   1.4069312249e+02   1.6013322449e+01    0.4220912     0.237224  31.80  0.002236676    2.501    0.600
        31 -12.7319     41.2235    228.5169   1.4402372363e+02   2.2515067084e+01    0.3282998    0.2752056 -69.34 0.0008059226    1.491    0.329
        32 -14.6576     47.3611    219.2663   1.4213019679e+02   2.3629080628e+01     1.673522     1.475554  47.24   0.01198146    1.460    0.315
        33 -10.7172    143.3084    249.0257   1.2721133092e+02   3.1022583122e+00    0.2636954    0.2050432  60.78  0.000667084    1.201    0.168
        34  -8.7397     74.7311    250.5923   1.3997657770e+02   1.3765634401e+01    0.2254192    0.1016331  39.86  0.001152038    2.186    0.543
        35 -11.5925    249.2168    241.4565   1.0631766953e+02  -1.3224446768e+01    0.2755854    0.2456421 -61.95    0.0018776    1.939    0.484
        36 -10.4370    165.2510    242.0972   1.2205552445e+02   4.5077069473e-01    0.2462285    0.1860217  31.53   0.00064264    1.268    0.211
        37 -10.8795    172.9025    240.1495   1.2028858129e+02  -5.7284248563e-01    0.2893376    0.2258647 -86.39  0.001398025    1.836    0.455
        38 -10.2984    115.8977    239.8838   1.3128684951e+02   9.3408730814e+00    0.2253177    0.1963554 -83.26 0.0006547778    1.231    0.188
        39 -11.5838    149.8189    248.9526   1.2596781735e+02   2.0013578611e+00    0.4144751    0.3343211  65.29  0.002648032    1.256    0.204
        40 -11.4120     89.9342    237.4636   1.3593814590e+02   1.3965338441e+01    0.3357885    0.2161646 -78.20  0.001414484    1.602    0.376
        41  -9.9671     83.5010    238.4149   1.3723655074e+02   1.4762450789e+01    0.2523089    0.1160078  52.61  0.001067163    1.835    0.455
        42 -11.5990    128.6846    233.9407   1.2805152919e+02   8.2693544110e+00    0.5209717    0.3388283 -76.43  0.002770158    1.920    0.479
        43 -11.1180    122.2395    232.7593   1.2916374303e+02   9.5970647041e+00    0.4014385    0.3359001 -74.84  0.001635988    1.293    0.227
        44 -10.4012    165.8443    234.8314   1.2085954806e+02   1.5513010686e+00    0.2404342    0.2237969 -19.78  0.001110639    1.261    0.207
        45 -10.1644    161.8011    232.6007   1.2131802015e+02   2.6540459017e+00    0.3028986    0.1573949  61.61  0.001235349    2.856    0.650
        46  -9.6536     77.8011    233.0710   1.3775625641e+02   1.6650929559e+01     0.279549    0.1558498 -89.85  0.001024677    1.986    0.496
        47 -11.2211    156.5453    231.7874   1.2223632012e+02   3.7376148045e+00    0.2479127    0.2272447  24.81 0.0007200182    1.186    0.157
        48 -14.6076     20.3442    153.6523   1.4115186491e+02   4.1058765602e+01     2.891267     1.808349  70.99   0.01707406    1.649    0.394
        49 -10.5001     92.6415    226.0040   1.3414777918e+02   1.5791487078e+01    0.2997479    0.1939559  54.04 0.0007669262    1.323    0.244
        50 -10.8607    141.7960    230.2108   1.2494002177e+02   6.6562277570e+00     0.388794    0.2322926 -41.63   0.00165736    2.153    0.535
        51 -11.5838    141.9775    221.6994   1.2365732570e+02   8.2099231650e+00    0.3928773    0.3301938  38.60 0.0003030317    1.180    0.152
        52 -11.2616    138.1090    214.1168   1.2330303350e+02   1.0382261575e+01    0.5114071    0.3097206  34.06   0.00123467    1.771    0.435
        53 -11.2969     80.0852    226.5161   1.3664114012e+02   1.7617483382e+01    0.4039315    0.3099168  89.56  0.001111881    1.181    0.153
        54 -10.6897     77.6076    221.0297   1.3652881023e+02   1.9104397010e+01    0.2745688    0.1853745  69.89 0.0007119385    1.318    0.241
        55  -9.3893    179.8162    228.4564   1.1710685559e+02   1.1803173771e-01    0.2446879    0.1791142 -73.10  0.001055976    2.043    0.511
        56 -10.2985    165.8045    227.1588   1.1968196338e+02   2.8763186076e+00    0.3843301    0.2363699 -65.80  0.001837039    2.362    0.577
        57 -11.1697    161.0218    223.3208   1.2003705086e+02   4.4309580178e+00    0.5803128    0.3382061  28.41  0.002012208    2.045    0.511
        58  -9.6786    190.7346    228.0605   1.1489815409e+02  -1.7718074090e+00    0.1746359    0.1596447  16.54 0.0003058997    1.086    0.079
        59  -9.7834    197.5238    226.7187   1.1335027843e+02  -2.7602187323e+00    0.2655892    0.2097775  81.58  0.001454887    1.979    0.495
        60 -10.2761    148.0007    224.2569   1.2281747316e+02   6.6377393330e+00     0.423742    0.2840435   0.97  0.001482204    3.227    0.690
        61 -10.8937    117.3575    224.3157   1.2902494486e+02   1.2054814343e+01     0.235276    0.2059561  62.40 0.0002664195    1.059    0.056
        62 -10.4418    110.7463    221.4574   1.2998085525e+02   1.3746520908e+01    0.3225988    0.2139756 -59.23  0.001189938    1.635    0.388
        63 -10.5462    105.3023    219.2916   1.3080126923e+02   1.5096190732e+01    0.3732813    0.2275324  79.76 0.0007638385    2.016    0.504
        64 -10.8128     73.0824    209.8315   1.3618093362e+02   2.2120549490e+01    0.4841075    0.2887934  28.03  0.002114728    2.424    0.587
        65 -11.0599     70.7522    220.3364   1.3778801447e+02   2.0247967902e+01    0.4704902     0.276281 -67.88  0.002573807    1.662    0.398
        66 -10.5529     68.0734    214.6879   1.3771470672e+02   2.1808693034e+01    0.2499281    0.1679648 -85.03 0.0004365246    1.363    0.266
        67  -9.2701    199.8148    245.7960   1.1603104394e+02  -6.0480665739e+00    0.1570608    0.1378733  51.04 0.0004437902    1.300    0.231
        68  -9.2667    177.1970    220.3902   1.1629733964e+02   1.9729244980e+00    0.2054697    0.1141371  50.54  0.000953743    1.779    0.438
        69 -10.2236     23.4811    217.5267   1.4633207305e+02   2.6798143215e+01    0.2038881   0.08907613 -73.48 0.0006405376    1.934    0.483
        70 -13.8936     27.4457    247.2352   1.4767759490e+02   2.0548631892e+01     1.594576    0.7422277  46.30  0.009822476    1.869    0.465
        71  -9.1210     93.8533    217.0843   1.3284115874e+02   1.7416807916e+01    0.2134063    0.1493648  74.43 0.0009718421    1.370    0.270
        72 -11.2022    132.2722    224.6406   1.2605906420e+02   9.3897982283e+00    0.2619309     0.251977 -77.40  0.001179891    1.198    0.166
        73  -9.8852     88.1722    212.8858   1.3347860658e+02   1.9192351967e+01    0.2490056    0.1714783 -76.22 0.0004596602    1.421    0.296
        74 -10.3379    193.8956    245.1707   1.1704665926e+02  -4.9640889008e+00    0.1866095    0.1751114   0.61 0.0003782645    1.185    0.156
        75  -8.8633    152.3107    212.2857   1.2005101430e+02   8.1053919949e+00    0.1326147    0.1079887  11.15 0.0002476401    1.575    0.365
        76  -9.7834    102.1134    211.9527   1.3049260087e+02   1.7140755741e+01    0.3469956    0.1451911  56.13  0.001378688    2.610    0.617
        77  -9.5399     33.5770    211.3733   1.4401615403e+02   2.6939113639e+01    0.1611415    0.1034381  43.44 0.0004498021    1.638    0.390
        78  -9.8783    109.0645    207.5814   1.2843786552e+02   1.6888443113e+01    0.3092042    0.1896331 -69.48  0.001027822    1.750    0.428
        79  -9.3102    134.8956    208.0681   1.2303644741e+02   1.2183312251e+01    0.2126387    0.1751747   0.75 0.0009553912    1.749    0.428
        80  -9.1405    119.9879    208.5475   1.2626806332e+02   1.4781960762e+01    0.2058955     0.123809  44.88 0.0003578201    1.521    0.342
        81 -12.4106     93.6012    202.7128   1.3104160520e+02   2.0507613789e+01    0.5597002    0.4409557 -71.08  0.003281341    1.253    0.202
        82 -10.7205     98.7914    196.8519   1.2911005899e+02   2.0939778268e+01     0.561794    0.2860652  43.33  0.002400205    1.866    0.464
        83 -13.0137     38.1971    244.9463   1.4576971180e+02   1.9696028637e+01     1.125946     0.466724 -71.93  0.006288177    2.230    0.552
        84  -9.8971    175.3981    205.4585   1.1407660603e+02   5.0090784527e+00    0.3217901     0.249975   7.12  0.001669425    1.620    0.383
        85  -9.5453    178.2898    204.7002   1.1334240828e+02   4.5945023335e+00    0.1995752    0.1729029 -71.45 0.0002357754    1.379    0.275
        86 -11.1526    247.4392    205.5153   1.0012515151e+02  -8.0110864430e+00    0.4606138    0.2168377  27.12  0.002021172    2.533    0.605
        87  -9.7000    125.8732    205.4433   1.2454758225e+02   1.4372412757e+01    0.2320166    0.1864058 -82.35 0.0006865831    1.310    0.237
        88 -10.5326     84.7590    229.5678   1.3607276999e+02   1.6301079549e+01    0.2365065    0.2184856  51.84  0.001614444    1.352    0.261
        89  -9.2808    166.8542    203.1534   1.1544699817e+02   7.0936590385e+00    0.1830911    0.1581272  19.54            0    1.258    0.205
        90  -9.2487    132.9995    202.7236   1.2259016984e+02   1.3631182333e+01    0.1968693    0.1715118  58.05 0.0004086873    1.035    0.034
        91  -9.5234    138.0801    201.6375   1.2131891533e+02   1.2907498968e+01    0.2176731    0.1861423 -81.68  0.000370632    1.234    0.190
        92 -10.2287    102.6519    202.6152   1.2909868994e+02   1.9037209529e+01    0.4527317    0.2613875  64.29  0.001946163    1.898    0.473
        93  -9.7325     64.2290    202.1030   1.3710768152e+02   2.5049600936e+01    0.1815561    0.1620428 -88.20 0.0004724343    1.197    0.165
        94 -10.6899     32.8917    201.8973   1.4333155476e+02   2.9027274035e+01    0.1829098     0.142281  85.77  0.000293697    1.041    0.039
        95  -9.9261    197.4143    200.6189   1.0868538387e+02   1.6724459460e+00    0.2807536    0.1617599  40.43 0.0008621472    1.623    0.384
        96 -10.6016    115.2213    200.2524   1.2604430007e+02   1.7378417525e+01    0.2464883     0.234171 -80.01  0.000250011    1.162    0.140
        97 -10.2167    119.9710    199.1237   1.2483860757e+02   1.6773324782e+01    0.3525299    0.2238605  64.97  0.001416374    1.726    0.421
        98  -9.3555    169.8474    200.3357   1.1431185876e+02   7.0557327564e+00    0.2013267    0.1669944  41.97 0.0004553015    1.114    0.102
        99  -9.8833     44.0309    199.3365   1.4090532113e+02   2.8277114474e+01    0.2701606    0.2107124  43.70  0.001040812    1.463    0.316
       100 -11.4448    249.3486    195.5822   9.7865781413e+01  -6.8152697033e+00    0.4735135    0.3121408 -48.03  0.002523949    1.849    0.459
       101  -8.4211     86.2518    199.2953   1.3215041535e+02   2.2423020915e+01    0.1914294    0.1522317 -68.07 0.0002067673    1.261    0.207
       102  -9.8667     85.9486    195.7690   1.3174461909e+02   2.3250712407e+01    0.2054698    0.1726062  81.13 0.0003352801    1.027    0.027
       103 -10.2989     56.2624    194.1046   1.3785473185e+02   2.7887719840e+01    0.2986985     0.244398  87.36  0.001035609    1.032    0.031
       104  -9.8307    134.1207    197.8618   1.2155152843e+02   1.4438424416e+01    0.2621869    0.1941615 -79.94 0.0003395167    1.564    0.361
       105  -9.4432    133.7139    194.3792   1.2105627532e+02   1.5252392202e+01    0.2723657    0.1672866  40.95 0.0007520413    1.575    0.365
       106 -11.5888     66.3825    195.1181   1.3584664337e+02   2.6292300201e+01    0.4258823    0.2775222 -52.31  0.001337375    1.776    0.437
       107 -10.7258     76.6402    187.0712   1.3260244021e+02   2.6627178052e+01    0.3922397    0.1966831 -71.20  0.001789175    1.998    0.500
       108 -10.2463    113.0112    193.6256   1.2550426893e+02   1.9208946336e+01    0.4960382    0.2373429 -61.59  0.001281822    2.222    0.550
       109  -9.2719     31.2591    195.0226   1.4303143934e+02   3.0695889934e+01    0.2501634   0.09602878  56.49  0.001028082    2.641    0.621
       110  -9.5903    159.7102    194.0642   1.1532914242e+02   1.0283781157e+01    0.2604457    0.1945415  66.50 0.0004993023    1.518    0.341
       111 -10.8733    119.1220    191.6656   1.2383526925e+02   1.8543661373e+01    0.5386077    0.3474803 -83.21 0.0008263714    1.982    0.495
       112 -11.8916     71.9597    187.4968   1.3368936484e+02   2.7215549251e+01     0.360414    0.3114129 -39.79 0.0007052015    1.555    0.357
       113 -10.7679     53.8005    198.2049   1.3881423958e+02   2.7300685613e+01    0.5752702    0.1954009  43.85  0.002520197    2.684    0.627
       114 -10.5387     38.6963    192.3741   1.4128934760e+02   3.0437084686e+01    0.2323004    0.1662343 -64.19 0.0001383424    1.411    0.291
       115  -9.6824     72.9199    193.0576   1.3419842327e+02   2.5821362775e+01    0.1946841    0.1644858  81.37 0.0002771217    1.020    0.019
       116  -9.2425     25.9635    192.5035   1.4384885444e+02   3.1814661221e+01     0.216339    0.1277165 -87.10  0.001022777    1.403    0.287
       117  -9.6289     20.2767    191.6869   1.4489236103e+02   3.2577036924e+01    0.2619681    0.1367644  78.53  0.001448333    1.803    0.445
       118 -10.2032    191.4001    191.4120   1.0813797324e+02   4.5213263323e+00    0.2739953    0.2489873  14.49 0.0006704249    1.096    0.088
       119  -9.3685    172.9281    192.1053   1.1213409544e+02   8.0534895216e+00    0.2245609     0.176254  -1.18 0.0008135365    1.666    0.400
       120 -10.4686    222.4891    244.8475   1.1167715779e+02  -9.6037451070e+00    0.2561909    0.1346389  25.70 0.0008280595    1.919    0.479
       121  -9.2817    135.2875    190.1081   1.1997436773e+02   1.5867569210e+01    0.1950902    0.1772716 -89.63 0.0003807696    1.095    0.086
       122  -9.8399     32.4440    189.5776   1.4228376805e+02   3.1759107259e+01    0.3251144    0.2257818  30.55   0.00201635    1.885    0.470
       123 -11.4396    249.7914    187.6490   9.6218719276e+01  -5.6484573284e+00    0.3757929    0.2471828 -22.50  0.002014889    1.496    0.332
       124  -8.9321     41.4449    187.9570   1.4027374649e+02   3.1097618623e+01    0.2823402    0.1442679  82.56  0.001147022    2.160    0.537
       125  -9.5881    140.1165    183.1605   1.1764905465e+02   1.6434807959e+01    0.2198493    0.2033724  70.88 0.0003140706    1.024    0.024
       126  -9.5252    143.2899    184.6795   1.1721566785e+02   1.5483502747e+01     0.233103     0.216273 -24.10 0.0005433407    1.259    0.206
       127  -9.7288    143.2931    181.3603   1.1659886550e+02   1.6199635903e+01    0.2867277     0.217759 -32.39 0.0007961608    1.619    0.382
       128 -10.8034     25.5417    184.5126   1.4320390413e+02   3.3611649176e+01     0.345954    0.1614027  48.58  0.001744233    2.082    0.520
       129  -9.7186     29.9837    183.3151   1.4217799853e+02   3.3413039059e+01    0.2848381    0.1557918  70.09  0.001105173    1.826    0.452
       130  -9.2177     36.8092    184.1256   1.4084080697e+02   3.2486314816e+01    0.1887739    0.1377998  71.49 0.0003802133    1.220    0.180
       131  -8.9862     86.3782    183.4027   1.2990845599e+02   2.5976287614e+01    0.2576975    0.1346007  23.08 0.0009433566    3.681    0.728
       132 -11.8737     51.0249    238.1404   1.4306930533e+02   1.9377687081e+01    0.9986733    0.5706589  86.86  0.003735752    1.598    0.374
       133 -10.5987    236.4627    145.9249   8.9794154708e+01   3.9382482480e+00    0.3440024    0.2103842  43.10 0.0008268682    1.751    0.429
       134 -12.6902    248.1412    101.7493   7.8028642661e+01   9.4088159770e+00    0.8990896    0.5002977 -37.60  0.004169215    1.665    0.399
       135 -13.6763    244.5099    157.7087   9.0949134145e+01   2.8633428070e-01     2.570669    0.8625121 -46.49  0.008760049    3.337    0.700
       136 -12.9162    248.3676    114.3076   8.0799215041e+01   7.1763313341e+00     1.378678    0.9222941 -18.01  0.006477586    1.971    0.493
       137 -11.8250    248.1366    142.2073   8.6990348901e+01   2.3073761269e+00    0.6414012    0.5288596   7.57  0.002911437    1.399    0.285
       138 -10.6180    169.7003    248.5414   1.2213571596e+02  -1.3475833768e+00    0.3161743    0.2101792  18.58 0.0007968282    1.946    0.486
       139  -8.7416    170.0360    180.0208   1.1040652980e+02   1.1068549539e+01    0.1717008    0.1665236  47.99 0.0009547545    1.015    0.014
       140 -11.1044    249.5719    150.9676   8.8643800915e+01   5.0600256659e-01    0.6040379    0.3113151 -43.56  0.002727752    1.834    0.455
       141  -9.6241    174.4827    179.7105   1.0938181604e+02   1.0218569231e+01    0.3781312    0.1282869  44.12  0.001255851    2.824    0.646
       142 -10.2799    108.9136    178.1733   1.2391241111e+02   2.3403207706e+01    0.3073725    0.2365217  82.67  0.001143055    1.367    0.268
       143 -11.3547     81.0144    175.5887   1.2997481934e+02   2.8612262454e+01    0.4684919    0.3253692  41.87  0.001536344    1.507    0.336
       144  -9.7605     77.4582    175.5233   1.3078719961e+02   2.9163785247e+01       0.2052     0.175151 -87.06 0.0005633148    1.026    0.025
       145  -9.4966    115.0027    176.9233   1.2228274943e+02   2.2593786692e+01    0.2364518    0.1667314  81.65  0.000880616    1.687    0.407
       146 -11.6615     68.5945    173.2929   1.3251062123e+02   3.0966295826e+01    0.4930499    0.2368416 -53.34  0.001210628    2.091    0.522
       147 -10.8491     68.8225    166.8118   1.3151712575e+02   3.2452282389e+01    0.3247966    0.2133326 -55.47 0.0003559183    1.494    0.331
       148  -8.4611    121.6937    175.7241   1.2051256964e+02   2.1628793622e+01    0.1365724    0.1188595  -5.49 0.0002921881    1.548    0.354
       149  -9.2292     48.0398    179.6142   1.3794388189e+02   3.2194372217e+01    0.1684579    0.1167878  43.90 0.0005318656    1.536    0.349
       150  -9.4973     95.2858    172.8258   1.2620408515e+02   2.6981508208e+01    0.2554433    0.1799158  63.71 0.0006269821    1.455    0.313
       151  -9.7546     91.1148    172.7836   1.2717927465e+02   2.7676372392e+01    0.2930371    0.2054821 -41.48 0.0009800872    1.765    0.433
       152 -10.7611     89.5580    160.4710   1.2548764358e+02   3.0826268871e+01    0.3449861    0.2541609 -75.32 0.0006080875    1.328    0.247
       153  -9.7954     93.4970    169.4034   1.2605954162e+02   2.8077362026e+01    0.2349904    0.2193509  30.46 8.377908e-05    1.288    0.224
       154 -12.5469     87.5805    166.7578   1.2703431130e+02   2.9657626574e+01    0.8725733    0.5670428 -50.43   0.00432406    1.601    0.375
       155  -8.4822    167.0000    170.0770   1.0905061493e+02   1.3769789525e+01    0.2435626   0.08674592 -46.48 0.0007955763    2.895    0.655
       156  -9.1289    100.5324    170.4707   1.2456622268e+02   2.6645274378e+01    0.1445138    0.1305659  86.96 -1.860438e-05    1.001    0.001
       157 -10.6372     43.7190    168.9013   1.3761816960e+02   3.5165803793e+01    0.4125351    0.2951829 -87.76  0.001879583    1.217    0.178
       158  -9.7447     48.2090    168.8024   1.3658621042e+02   3.4661426589e+01    0.3177789      0.15029  46.44  0.001540944    2.150    0.535
       159  -9.2265    126.3289    167.6424   1.1791593147e+02   2.2587347592e+01    0.2372854    0.1710936  78.28  0.001037761    1.686    0.407
       160  -9.6743    107.5034    168.0317   1.2247525693e+02   2.5996442728e+01      0.28227    0.2160926  19.99    0.0011276    1.766    0.434
       161  -9.1397     58.5124    167.4822   1.3403514294e+02   3.3685237860e+01    0.1339663    0.1123773 -86.45 0.0008102868    1.006    0.006
       162  -8.7170     77.2607    165.3951   1.2928983903e+02   3.1567907527e+01    0.1384919   0.09969696 -41.29 0.0006969964    1.707    0.414
       163  -9.2538     53.9719    164.7324   1.3471788484e+02   3.4905886292e+01     0.177125    0.1498091 -88.40 0.0002664076    1.027    0.026
       164 -10.9161     28.9436    170.9688   1.4113239470e+02   3.6296570157e+01    0.3929885    0.2802776 -73.20  0.001443891    1.172    0.147
       165 -12.2757     13.4552    185.9080   1.4574176255e+02   3.4491846220e+01    0.6685652    0.2478036  31.44 0.0008108723    3.250    0.692
       166  -8.8739    154.5076    161.5501   1.1008232140e+02   1.8240172519e+01    0.1545192    0.1452858  75.49  7.00379e-05    1.056    0.053
       167 -10.9861     96.0066    157.0475   1.2328314663e+02   3.0574181622e+01    0.5204703     0.202776 -59.53  0.001882809    2.547    0.607
       168 -11.0691    100.2511    150.8375   1.2104540312e+02   3.1321590040e+01    0.5281526    0.4794814 -12.72  0.002276591    1.376    0.273
       169  -9.8158    103.5235    145.9656   1.1924376696e+02   3.1901769136e+01    0.3127738    0.2294025 -41.50 0.0009354573    1.486    0.327
       170 -10.3097     73.8857    159.0345   1.2909117770e+02   3.3569094410e+01    0.3756162    0.2325785 -46.77  0.001709105    1.774    0.436
       171  -9.5338     72.0193    156.4807   1.2913531355e+02   3.4444025275e+01    0.2610279    0.2187857 -21.72  0.001029774    1.635    0.388
       172 -14.0389     14.0636    168.7347   1.4409848772e+02   3.8215435143e+01     1.514949     1.317206 -78.69   0.01123434    1.225    0.184
       173  -9.4655     79.1125    158.8476   1.2777748706e+02   3.2841429783e+01    0.2105527    0.1709252  83.82 0.0005066619    1.201    0.167
       174  -9.0446     52.4817    158.4675   1.3419944509e+02   3.6559128260e+01    0.1321255    0.1115949 -78.24 0.0001731299    1.035    0.034
       175  -9.2930    228.4529    155.4875   9.3332594263e+01   3.8010786510e+00    0.2792356    0.1343755 -40.03 0.0006521546    1.975    0.494
       176  -9.8168    134.6408    156.0685   1.1360152714e+02   2.3590191625e+01    0.2434154    0.1887802 -74.53 0.0005914883    1.433    0.302
       177  -9.9657     52.9659    146.2981   1.3227101160e+02   3.9370380010e+01    0.1976123    0.1662645 -51.70 0.0002732803    1.248    0.199
       178 -10.4714     60.4418    151.1349   1.3115265402e+02   3.7290287582e+01    0.5482774    0.2832081  84.03  0.002047254    3.366    0.703
       179 -10.8588     56.1365    150.0294   1.3205469288e+02   3.8099283162e+01    0.3463689    0.3047005 -64.78   0.00125104    1.128    0.114
       180 -10.5067    113.8781    150.8118   1.1761072574e+02   2.8868301966e+01     0.376542    0.2591227 -55.72 0.0005932222    1.414    0.293
       181 -12.8903     67.4721    144.2734   1.2822930192e+02   3.7985173268e+01    0.7576132    0.5272674  78.53  0.003887983    1.667    0.400
       182 -12.2245     74.2577    139.6189   1.2562008968e+02   3.8138796157e+01    0.8778782    0.5488775  67.14  0.003820425    2.073    0.518
       183 -11.6941     60.1577    136.6943   1.2881688287e+02   4.0751804312e+01    0.5441018    0.2940689 -78.76  0.001473798    2.253    0.556
       184 -10.6787    134.0000    145.0064   1.1136921341e+02   2.6256410091e+01     0.601885    0.1925946 -51.08  0.001845105    3.186    0.686
       185 -10.5863    133.3703    140.3214   1.1047211750e+02   2.7460610771e+01    0.3563963     0.323916 -27.57  0.001337539    1.225    0.183
       186  -8.8438    122.0212    148.0495   1.1499966376e+02   2.7957134400e+01    0.1794334    0.1690664 -76.85            0    1.020    0.020
       187 -14.5991      6.8593    212.7216   1.4891345569e+02   2.9483787997e+01     2.748876     1.318159 -81.68   0.01670361    1.644    0.392
       188  -9.7782    158.9917    145.0869   1.0541137815e+02   2.0898577138e+01    0.2253483    0.2184194  81.12 -0.001320134    1.016    0.016
       189  -8.8205     93.2293    145.4139   1.2177941304e+02   3.3804656790e+01    0.1976942     0.131289  53.60 0.0006732779    1.603    0.376
       190  -9.7043     42.0127    140.7418   1.3419892165e+02   4.1926461180e+01    0.2498182     0.123754  54.28  0.001154521    2.456    0.593
       191 -12.8072     13.8549    238.8312   1.4934668884e+02   2.3641566618e+01    0.5278979    0.2864835  53.01  0.003579742    1.542    0.352
       192 -11.0448     47.1719    138.4800   1.3252196261e+02   4.1889451129e+01    0.4055816    0.1811694  22.25  0.001690649    3.373    0.704
       193 -10.3804    111.0395    136.1444   1.1521701732e+02   3.2844668944e+01    0.3794231    0.2958314  -4.84  0.001190737    1.856    0.461
       194 -11.2366     20.9826    133.9894   1.3858052081e+02   4.5496968892e+01    0.1921651    0.1483262 -69.62 0.0005051126    1.042    0.040
       195  -9.9446    138.8550    138.6730   1.0873976730e+02   2.6688626676e+01    0.2527966    0.2367686  -9.33 0.0004035701    1.210    0.174
       196 -11.8122     67.6436    128.0921   1.2519524925e+02   4.1797762484e+01    0.4760987    0.4006195  63.14 0.0006857347    1.296    0.228
       197 -12.1601     45.3393    131.7467   1.3190948099e+02   4.3672266503e+01    0.4553533    0.3817266  76.11  0.002468789    1.255    0.203
       198  -8.9923    122.7937    128.1864   1.1033246712e+02   3.2404986141e+01     0.198814    0.1780802 -22.60 0.0002669773    1.258    0.205
       199 -12.4838     38.2513    123.9336   1.3251920918e+02   4.6230948964e+01    0.5608886    0.3038588 -64.96  0.002910608    1.545    0.353
       200 -11.6233     33.1722    127.1998   1.3442385560e+02   4.5971010360e+01    0.2535847    0.1974207  85.47  0.001293959    1.321    0.243
       201 -10.4860    209.8212    125.7764   9.0042782909e+01   1.3410647289e+01    0.2972119    0.2557581 -39.03 0.0005119724    1.130    0.115
       202  -9.2158     86.1099    126.1092   1.1969653820e+02   3.9535702787e+01     0.316417     0.206462  -2.69  0.001252739    2.989    0.665
       203 -13.4159     20.9790    121.9630   1.3688885223e+02   4.8236858439e+01    0.7386227    0.4919385 -20.29  0.004310936    2.113    0.527
       204 -10.5030     54.6538    120.7834   1.2738997126e+02   4.5166432146e+01    0.2497974    0.1972277  17.67  0.001004769    1.568    0.362
       205 -11.5393      7.5989    120.4388   1.4022037949e+02   4.9562303121e+01     0.244971    0.1537989  28.77  0.001547442    1.999    0.500
       206  -9.7197     86.2924    116.4353   1.1747511944e+02   4.1754084034e+01    0.3050204    0.1910325 -61.01  0.001049622    1.603    0.376
       207 -10.3872     59.0921    125.0223   1.2696287869e+02   4.3635605794e+01    0.3504486    0.1966039  25.14  0.001603917    2.270    0.559
       208 -11.9284     15.3138    114.5038   1.3731299248e+02   5.0350107935e+01    0.3080983    0.1719967 -62.64 0.0008890617    1.374    0.272
       209 -10.9866    168.0318    113.2262   9.5556079428e+01   2.5677801773e+01    0.3630168    0.3036982 -85.95  0.000796082    1.370    0.270
       210  -9.2777    134.3109    114.3276   1.0392542759e+02   3.3110077439e+01    0.1571294    0.1253956  -3.45 0.0007041051    1.663    0.399
       211 -10.0976     50.1636    112.8319   1.2711429101e+02   4.7520593698e+01    0.2300759    0.1657792 -51.54 0.0003764443    1.207    0.171
       212  -9.4839     65.9322    182.0015   1.3429987877e+02   2.9322686042e+01    0.1950251    0.1661255  85.91 0.0003345318    1.027    0.026
       213  -9.0103     83.7758    111.1650   1.1695608577e+02   4.3359037710e+01    0.1892303    0.1581233 -27.59 0.0003430979    1.293    0.227
       214 -11.2292     57.5300    110.2337   1.2442055576e+02   4.7246728374e+01    0.3914683    0.2409842  18.07  0.001939551    2.154    0.536
       215  -9.7039      2.3265    110.3244   1.4026494701e+02   5.2126741155e+01    0.1214912    0.0657937 -47.01 0.0007049112    1.693    0.409
       216 -10.7082     31.6790    110.9058   1.3210831845e+02   4.9831361777e+01      0.20438    0.1828206  47.52 0.0005314907    1.332    0.249
       217 -11.2790     27.3071    106.5866   1.3260504127e+02   5.1181460267e+01    0.2361603    0.2090788 -66.80   0.00163475    1.102    0.093
       218 -12.1335     17.7144    104.0844   1.3497143788e+02   5.2489718111e+01    0.4530289    0.2262132  20.80   0.00245485    2.551    0.608
       219  -9.4199    203.5114    111.5140   8.7791903372e+01   1.7622003930e+01    0.1513656    0.1477263 -51.16 0.0001631891    1.042    0.041
       220  -8.4556     77.6923    103.2895   1.1683202510e+02   4.6065865300e+01    0.1345755    0.1088595  84.03 0.0003002052    1.576    0.365
       221  -9.5911     32.9951    100.0058   1.2966382172e+02   5.2146849136e+01    0.1546309    0.1199092 -56.86 0.0003342103    1.057    0.054
       222  -8.9324     85.9620     97.0330   1.1276755091e+02   4.6143688635e+01     0.162675    0.1527405 -37.24            0    1.015    0.015
       223  -9.5979     72.0548     90.1041   1.1518047670e+02   4.9759335162e+01    0.1987691    0.1793905 -34.69 0.0002706941    1.016    0.016
       224  -9.6062     30.9513     90.4505   1.2833136652e+02   5.4409033413e+01     0.156185    0.1223624  18.92  0.000375282    1.525    0.344
       225 -14.0463      5.9305    245.6757   1.5096081532e+02   2.3192392782e+01     1.011367    0.5334303  69.67  0.006988013    1.399    0.285
       226  -9.6288    131.7553    180.9786   1.1914616468e+02   1.8537519575e+01    0.1871728    0.1239181 -54.62 0.0003376542    1.554    0.357
       227  -9.5753     24.2701     88.0138   1.2994971029e+02   5.5483095914e+01     0.172064    0.1290272 -54.36 0.0003510565    1.069    0.064
       228 -12.1228    248.7760    171.9804   9.3210174882e+01  -2.9245334942e+00    0.5649493    0.3668767  29.81  0.002913672    1.679    0.404
       229  -8.7230     50.2892     83.2643   1.2037287569e+02   5.3999496783e+01    0.1260951   0.08752321 -26.85 0.0006898637    1.497    0.332
       230 -10.3614     83.6049    242.2149   1.3759902378e+02   1.4022724707e+01    0.2870262    0.1524899 -52.19  0.001505362    2.479    0.597
       231  -9.8691     81.6285    246.8542   1.3840862478e+02   1.3448150408e+01    0.3448742    0.1690585 -78.46  0.001770384    2.345    0.574
