#   1 NUMBER                 Running object number                                     
#   2 MAG_AUTO               Kron-like elliptical aperture magnitude                    [mag]
#   3 X_IMAGE                Object position along x                                    [pixel]
#   4 Y_IMAGE                Object position along y                                    [pixel]
#   5 X_WORLD                Barycenter position along world x axis                     [deg]
#   6 Y_WORLD                Barycenter position along world y axis                     [deg]
#   7 A_WORLD                Profile RMS along major axis (world units)                 [deg]
#   8 B_WORLD                Profile RMS along minor axis (world units)                 [deg]
#   9 THETA_WORLD            Position angle (CCW/world-x)                               [deg]
#  10 FWHM_WORLD             FWHM assuming a gaussian core                              [deg]
#  11 ELONGATION             A_IMAGE/B_IMAGE                                           
#  12 ELLIPTICITY            1 - B_IMAGE/A_IMAGE                                       
         1 -14.5099    163.2364     54.1362   7.4121899196e+01   3.7317322499e+01      2.15456     1.469418  20.37  0.006570761    1.738    0.424
         2 -14.0473    176.5079     38.4172   6.6470191146e+01   3.6027552945e+01    0.9641173    0.9083427  43.59  0.002874936    1.047    0.045
         3 -12.9811    189.6087     14.6602   5.6688476099e+01   3.5158440823e+01    0.5233272    0.3875063 -77.60  0.001871583    1.583    0.368
         4 -14.4261    195.6898      6.1372   5.3219252971e+01   3.4311041341e+01     1.240673    0.9796295  50.34  0.004559979    1.220    0.180
         5  -9.5254    121.6567      6.3375   6.5062942853e+01   5.3628353936e+01    0.1444049    0.1072395 -57.39  0.000704953    1.770    0.435
         6 -11.2340    230.4830      2.0000   4.8554023557e+01   2.5650143725e+01    0.2980573   0.07542486  73.09  0.000938242    3.963    0.748
         7 -11.1345    201.7009    169.3625   9.5378958166e+01   1.1395471129e+01    0.5227267    0.2609015 -47.99  0.002354816    3.021    0.669
         8 -11.8099    248.7136    249.4425   1.0050579427e+02  -4.1943134869e+00    0.2394557    0.1519717  25.08  0.001861451    1.118    0.105
         9 -18.0592     63.4973    237.4220   1.2774221921e+02   2.3096160013e+01     6.841312     5.068694  84.15   0.05437362    1.304    0.233
        10 -11.3370    204.3899    166.1391   9.4299800402e+01   1.1307000802e+01    0.5297912    0.2945668 -42.15  0.002682282    2.232    0.552
        11 -11.4896    189.7863    155.6906   9.4935372793e+01   1.5536369344e+01    0.4267218    0.3816365 -60.86  0.002471554    1.459    0.315
        12 -12.2419    194.5540    167.8167   9.6370855719e+01   1.2941892433e+01    0.3371935     0.311538  48.26 0.0007758721    1.233    0.189
        13 -10.9546    191.0652    161.1853   9.5761494631e+01   1.4513787416e+01    0.3376823     0.261909 -55.77  0.001506138    1.768    0.434
        14 -10.4698    163.6681    169.3988   1.0239451588e+02   1.8475892105e+01    0.3029679    0.1909208  63.95  0.001525249    2.069    0.517
        15 -11.6907    230.4620    167.0839   9.0021815066e+01   6.3371106387e+00    0.3454247    0.1869113 -47.32  0.001578978    3.161    0.684
        16 -10.2189    140.3254    163.0236   1.0588278623e+02   2.3699384244e+01    0.1649195    0.1596388  76.99 0.0003543403    1.119    0.106
        17 -12.0846    113.9745    161.2514   1.1096900896e+02   2.8466908305e+01    0.3380977     0.245175  84.75  0.001223037    1.642    0.391
        18  -9.3100     25.3008    162.2626   1.2921607274e+02   3.9502556923e+01   0.08744979   0.07468423 -59.36 0.0002684365    1.515    0.340
        19 -10.3763    131.6427    158.9807   1.0697113819e+02   2.5906480830e+01    0.1697357      0.15898 -83.68 0.0005635323    1.144    0.126
        20 -11.2845    166.1136    154.1502   9.9167295073e+01   2.0370382075e+01    0.3641193    0.2372882  70.26  0.001707941    2.343    0.573
        21 -12.7588    133.8985    145.5082   1.0414540901e+02   2.7870344130e+01     1.140435    0.3055712 -54.31  0.003240272    6.081    0.836
        22 -10.3166    236.2963    191.6484   9.3557816286e+01   2.6755730655e+00    0.1000699   0.09536358  72.70 0.0007033992    1.686    0.407
        23 -10.9159    174.3325    148.6697   9.6490171680e+01   1.9622505737e+01    0.2953732    0.2485184 -80.99  0.001121238    1.625    0.385
        24 -12.8140    144.5943    145.5171   1.0189010273e+02   2.5895356707e+01    0.6215205    0.4327776 -81.85  0.003035974    2.260    0.558
        25 -11.9510    152.7217    185.6777   1.0706707821e+02   1.7979884090e+01    0.2733744    0.2118534 -78.84  0.001702998    1.767    0.434
        26 -12.8504    101.8596    137.8380   1.0982913438e+02   3.4770258411e+01    0.2995595     0.270042 -80.04  0.000517284    1.088    0.081
        27 -12.3250    105.9871    130.8177   1.0763577458e+02   3.5468789481e+01    0.3716233    0.3114866 -81.50  0.001209312    1.238    0.192
        28 -11.5248    106.4890    124.9583   1.0641003632e+02   3.6534701301e+01    0.2747212    0.2249357 -36.38  0.001236526    1.401    0.286
        29 -12.0925    135.6317    127.7776   1.0028020566e+02   3.0760171131e+01    0.5501591     0.194075 -48.90  0.002025357    3.100    0.677
        30 -11.6384    134.7359    121.1105   9.9050079456e+01   3.2163897788e+01    0.3776402    0.2437699 -44.47  0.001881092    1.614    0.380
        31 -11.7866    117.9857    129.1791   1.0455658829e+02   3.3739948535e+01    0.2923045    0.2579891 -11.64 0.0008017387    1.395    0.283
        32 -11.3962    160.8618    127.9300   9.4858565048e+01   2.5712368311e+01    0.3856303    0.3073994 -71.86  0.001660506    1.660    0.398
        33 -11.1293    121.8234    123.6653   1.0255851533e+02   3.4108112934e+01    0.2549821    0.1828821 -23.93  0.001146212    1.893    0.472
        34 -10.8451    112.8571    118.8768   1.0367100972e+02   3.6638930310e+01    0.3388481     0.240966 -74.27  0.001437264    1.728    0.421
        35 -11.4093    168.2776    113.2348   8.9895580992e+01   2.6618357194e+01    0.3665663    0.2901968 -82.33  0.001079303    1.800    0.444
        36 -11.2145    134.6548    105.8474   9.5529129984e+01   3.5027369663e+01     0.655259    0.1398114 -43.59   0.00182056    4.762    0.790
        37 -10.7950    205.3903    110.1132   8.1917091224e+01   1.8852653820e+01    0.3204636    0.2034982  43.42 0.0008275015    1.482    0.325
        38 -19.1114     42.0010     99.3750   1.1830779668e+02   5.0566379926e+01     14.28304    0.8158569 -64.19   0.02607615   15.007    0.933
        39 -12.6445    153.2834    194.4525   1.0824167796e+02   1.6613111964e+01    0.3148121    0.2444346  69.52  0.001237515    1.492    0.330
        40 -10.7436    207.5099    193.9477   9.8664623783e+01   7.3479893198e+00    0.1560137    0.1165781 -22.60 0.0005687212    1.543    0.352
        41 -12.1444    157.9623    200.7990   1.0829444432e+02   1.4950562030e+01     0.353131    0.2351945 -81.21  0.001904177    2.834    0.647
        42 -10.6274    149.3267     80.1305   8.5197754853e+01   3.6513685052e+01    0.2096456    0.1891869 -32.44 0.0006218112    1.117    0.104
        43 -10.3343     85.3692     77.0379   1.0099163740e+02   4.9696822196e+01    0.1881639    0.1629479 -52.96 0.0006234091    1.087    0.080
        44 -10.7529    102.3163     72.6498   9.4893375252e+01   4.7662124648e+01    0.3913711    0.2679258  64.21   0.00187437    1.958    0.489
        45 -11.9257    167.8828    232.7657   1.1071495997e+02   9.3819316510e+00    0.2685338    0.1588274  47.19 0.0007815842    1.308    0.236
        46  -8.8899     30.5533    213.5129   1.3150104700e+02   3.0210288359e+01   0.09689588   0.06676227  67.57 0.0008079165    1.031    0.030
        47 -13.4637    180.9384     31.3906   6.3419301719e+01   3.5703040110e+01    0.7503999     0.470702  49.28  0.001496931    1.519    0.342
        48 -10.3136     13.4227     59.8520   1.2010433839e+02   6.1330696544e+01    0.1598259    0.1406339 -85.25 0.0004435508    1.201    0.167
        49  99.0000     11.8040    205.3939   1.3409483304e+02   3.3259294398e+01    0.2308408    0.1746526 -85.67  0.002095881    1.350    0.259
        50 -12.2630    193.6978    195.9560   1.0133598102e+02   9.5004170623e+00    0.9342333    0.5498767 -64.38  0.003776147    5.251    0.810
        51  -9.8614    168.0630    176.3628   1.0274226852e+02   1.6645361253e+01    0.1754374    0.1374119  46.22 0.0005004274    1.118    0.105
