#   1 NUMBER                 Running object number                                     
#   2 MAG_AUTO               Kron-like elliptical aperture magnitude                    [mag]
#   3 X_IMAGE                Object position along x                                    [pixel]
#   4 Y_IMAGE                Object position along y                                    [pixel]
#   5 X_WORLD                Barycenter position along world x axis                     [deg]
#   6 Y_WORLD                Barycenter position along world y axis                     [deg]
#   7 A_WORLD                Profile RMS along major axis (world units)                 [deg]
#   8 B_WORLD                Profile RMS along minor axis (world units)                 [deg]
#   9 THETA_WORLD            Position angle (CCW/world-x)                               [deg]
#  10 FWHM_WORLD             FWHM assuming a gaussian core                              [deg]
#  11 ELONGATION             A_IMAGE/B_IMAGE                                           
#  12 ELLIPTICITY            1 - B_IMAGE/A_IMAGE                                       
         1 -13.0324    184.3737     30.8186   6.6458890079e+01   3.5585029422e+01      1.37688    0.9642915  17.14  0.006876444    2.353    0.575
         2 -11.6041    162.9044     24.6035   6.8007937381e+01   4.1467008005e+01    0.8078726     0.638118   6.05  0.004653363    1.702    0.413
         3 -10.6857    134.7529     25.6950   7.3274922729e+01   4.7977434488e+01    0.5861506    0.2686059 -27.22   0.00265086    2.500    0.600
         4 -10.6692    168.5535      9.3931   6.3155845413e+01   4.1696941624e+01    0.7233234    0.1964049  62.84  0.002811031    2.787    0.641
         5 -11.1622     57.8816      6.2286   8.6234654494e+01   6.5171350550e+01    0.3105327    0.1831945  43.77  0.001920132    1.575    0.365
         6  -9.6009    206.0653      1.6375   5.7142044225e+01   3.3719179352e+01    0.4291797    0.1263012  71.13  0.001772416    2.797    0.642
         7 -10.6969    115.9960    211.9001   1.2369977197e+02   1.4261185142e+01    0.3908511    0.2556013  81.46  0.000815005    1.986    0.496
         8 -10.6391    139.3840    249.2285   1.2411112977e+02   2.8382604607e+00    0.4697542    0.2703854 -46.94  0.002445858    2.085    0.520
         9 -19.4543     28.2069    138.4256   1.3403317426e+02   4.4120744695e+01     19.96997     2.847055 -67.20    0.0494245    6.768    0.852
        10 -11.2956     92.9672    206.1265   1.2795983355e+02   1.9431905257e+01    0.4498455    0.3685129 -86.51  0.001663036    1.155    0.135
        11  -9.5993    210.4726    179.7069   9.7297798152e+01   2.9375962825e+00    0.4438015    0.2849855   2.96   0.00181784    2.562    0.610
        12  -9.4130     90.6343    183.9887   1.2521182607e+02   2.4958218284e+01    0.2668062     0.187984  57.83 0.0006863113    1.409    0.290
        13  -9.6260     99.4760    180.9184   1.2258773024e+02   2.4214569051e+01    0.2487295    0.2116454  21.78 0.0006643481    1.449    0.310
        14  -9.9367     93.1273    178.2691   1.2368409058e+02   2.5917938122e+01    0.3179156    0.2511312  81.99  0.001043013    1.289    0.224
        15 -10.3611     85.0049    178.0307   1.2562083950e+02   2.7291630119e+01    0.3815077    0.2674273 -49.55   0.00092092    1.522    0.343
        16 -11.0752     88.4874    172.5314   1.2386404585e+02   2.8064491950e+01    0.5449594    0.2766246 -45.52  0.002224957    2.262    0.558
        17 -10.5199     94.9203    200.4049   1.2670684893e+02   2.0414435619e+01     0.461374    0.2565318  80.12  0.001804313    2.787    0.641
        18  -9.6704    196.8049    172.1044   9.8467565523e+01   7.1066681758e+00     0.433863    0.2561551 -37.54  0.001746295    1.715    0.417
        19 -11.0146    103.0739    171.3107   1.2002979386e+02   2.5896778026e+01    0.6000285    0.2983618  54.12  0.002331186    2.299    0.565
        20 -10.7494     94.6324    164.1580   1.2085010542e+02   2.9086247402e+01    0.5189055    0.2626952 -58.37  0.002152046    1.888    0.470
        21 -12.0380     83.7325    158.9927   1.2271172233e+02   3.2131508886e+01    0.6429784    0.4145133 -57.97  0.002253034    1.445    0.308
        22 -11.1886     66.6432    157.6297   1.2690548366e+02   3.5005322238e+01    0.6765956    0.3683085  78.63  0.002542095    3.085    0.676
        23 -11.0320     99.6888    155.9836   1.1799973175e+02   3.0211380101e+01    0.6493896    0.4164482 -39.87  0.002288063    1.803    0.445
        24  -9.6137    134.2281    146.8435   1.0719133908e+02   2.5784297571e+01    0.7496056    0.1667672 -50.82  0.001858372    4.683    0.786
        25  -9.6312    144.5137    144.9871   1.0422171260e+02   2.4055921808e+01    0.2845241     0.218088  64.56 0.0004345594    1.455    0.313
        26 -10.4202    109.8526    140.6804   1.1211808785e+02   3.2074260484e+01    0.5763761    0.2985419 -37.28  0.002125471    2.448    0.591
        27 -10.6303     98.7243    140.9819   1.1517550493e+02   3.4028645923e+01    0.2968494    0.2809981 -18.34 0.0004531852    1.185    0.156
        28  -9.9678      7.6720    137.2216   1.3926009205e+02   4.6084100123e+01     0.217714    0.1641172 -53.28 0.0001889184    1.279    0.218
        29 -10.4929    117.0505    130.5850   1.0787228102e+02   3.3080499168e+01    0.4395726     0.282651  26.79  0.001464354    1.974    0.493
        30 -10.3316    105.1577    128.6871   1.1065276656e+02   3.5805734755e+01    0.5833138    0.3417011 -67.13  0.001830634    2.163    0.538
        31  -8.6231    135.4086    124.7753   1.0165456226e+02   3.0626161592e+01    0.2358236    0.1465755 -36.57 0.0009491187    1.768    0.434
        32  -9.1394    111.1474    119.8044   1.0684958537e+02   3.6735282131e+01    0.2231108    0.2045874  85.64 0.0003916243    1.171    0.146
        33 -10.5721     85.2711    204.1941   1.2940404234e+02   2.1097478517e+01     0.435632    0.2793989  15.76  0.001894919    2.826    0.646
        34  -8.4303    168.2118    113.0591   9.0859554901e+01   2.5770178517e+01    0.2686327    0.1774155 -69.74  0.001072717    2.054    0.513
        35 -11.2216    107.1057    202.7088   1.2429254135e+02   1.7838047844e+01    0.4751486    0.2733527  33.33  0.002135518    1.944    0.486
        36  -8.8421    171.4939    104.4897   8.7951959760e+01   2.6743711391e+01    0.2909156    0.1494378  63.45  0.001038415    2.465    0.594
        37 -11.3593    241.2095    102.9133   7.5192632844e+01   1.1280797960e+01    0.6278612    0.4311367 -67.71  0.003185735    1.599    0.374
        38  -7.9610    150.0021    100.9977   9.1867725349e+01   3.2477227335e+01    0.1808966    0.1756063  70.20 0.0003173721    1.019    0.018
        39 -10.1496    193.4622    193.3046   1.0349874375e+02   3.5596028888e+00     0.584406    0.4700118 -83.08  0.002960003    1.759    0.432
        40  -8.8233    176.5614     74.6811   7.9124024089e+01   3.1063254099e+01    0.2406904    0.1698505  83.32 0.0002208769    1.656    0.396
        41 -10.1733    102.5633    195.0611   1.2415056890e+02   2.0363326533e+01    0.4031451    0.2448928  78.88  0.001698077    2.277    0.561
        42 -11.3515    170.2162     45.8594   7.2567670224e+01   3.7055502565e+01    0.4091859    0.3655441 -45.83  0.001083999    1.202    0.168
        43  -8.7554    171.3024    239.6329   1.1629569226e+02  -9.4054837853e-01    0.2081304    0.1537259  66.98  0.001119455    1.778    0.438
        44  -9.0007    139.3397     42.5607   7.7475435334e+01   4.4881380216e+01     0.251646    0.1807587 -25.77  0.001173704    1.571    0.364
        45  -8.5685    177.2277    235.0112   1.1436107339e+02  -1.1676187314e+00    0.1595805    0.1112592 -43.81 0.0002748968    1.607    0.378
        46 -10.5964    142.7297     27.4192   7.2264074840e+01   4.5935912067e+01    0.5110593    0.3523425  65.94  0.002513321    1.330    0.248
        47 -10.3113    163.9936    232.0004   1.1657861253e+02   1.6810887967e+00    0.2160181    0.1632864   2.89 0.0007689182    1.734    0.423
        48 -10.3956    106.9253    210.6836   1.2551890860e+02   1.6093063890e+01    0.3418113     0.226269  14.65   0.00147689    2.668    0.625
        49  -9.1972    158.4633     15.5212   6.6214917512e+01   4.3484154557e+01    0.2817455    0.1096373  64.80  0.001207795    2.162    0.538
        50  -9.7542    172.1505    222.1556   1.1326582141e+02   2.0304255373e+00    0.1923463    0.1645876  68.21  0.001092857    1.362    0.266
        51  -9.1681    178.6620    218.3335   1.1125090472e+02   1.5605225850e+00    0.1386924    0.1085081  73.99 0.0007051858    1.745    0.427
