#   1 NUMBER                 Running object number                                     
#   2 MAG_AUTO               Kron-like elliptical aperture magnitude                    [mag]
#   3 X_IMAGE                Object position along x                                    [pixel]
#   4 Y_IMAGE                Object position along y                                    [pixel]
#   5 X_WORLD                Barycenter position along world x axis                     [deg]
#   6 Y_WORLD                Barycenter position along world y axis                     [deg]
#   7 A_WORLD                Profile RMS along major axis (world units)                 [deg]
#   8 B_WORLD                Profile RMS along minor axis (world units)                 [deg]
#   9 THETA_WORLD            Position angle (CCW/world-x)                               [deg]
#  10 FWHM_WORLD             FWHM assuming a gaussian core                              [deg]
#  11 ELONGATION             A_IMAGE/B_IMAGE                                           
#  12 ELLIPTICITY            1 - B_IMAGE/A_IMAGE                                       
         1 -14.8549      9.2627    152.0497   1.4658119116e+02   4.2138330628e+01     6.043872      2.11433 -87.16   0.02703755    3.032    0.670
         2 -13.4606    192.3099     26.8868   7.2439437898e+01   3.3350708183e+01     1.390507     1.359819  32.90  0.006267041    1.070    0.066
         3 -13.6054    206.8431      7.7618   6.5250432251e+01   3.1678220008e+01     1.523174     1.044006  42.89  0.007983062    1.621    0.383
         4 -13.4640      5.2773     11.6766   1.2074445193e+02   7.1433277373e+01     1.714934    0.5236977 -46.33  0.008589263    2.323    0.570
         5 -11.6747    132.1142    246.2313   1.3267428784e+02   9.0660309308e+00    0.3603786    0.2233979  72.19  0.002161651    2.090    0.522
         6 -11.0770    139.8620    250.0737   1.3179224894e+02   7.3509105556e+00    0.3538149    0.1460362  46.05  0.001909491    1.859    0.462
         7 -11.7261    139.5900    245.7866   1.3136294960e+02   7.9845775944e+00    0.4954096    0.2259376  60.93  0.002278413    3.165    0.684
         8 -11.5532    124.4671    249.9829   1.3434691145e+02   9.6828206958e+00     0.517549    0.1397436  43.38  0.002302365    2.837    0.648
         9  -8.4572     67.3527    250.7400   1.4366028405e+02   1.7453705046e+01    0.1091889   0.05576064  62.06 0.0004197304    1.612    0.380
        10 -10.3978    101.9851    247.2476   1.3780481713e+02   1.3351621682e+01    0.2192025    0.1180871  80.58  0.001196392    2.691    0.628
        11 -10.0910    238.2356    246.9747   1.1512876305e+02  -7.3953241844e+00    0.1259255   0.08558062 -20.34 0.0005587047    1.631    0.387
        12 -10.7473     95.4708    241.9807   1.3840655320e+02   1.5076970118e+01    0.3206046    0.1359315 -76.88  0.001505052    3.855    0.741
        13  -9.3916     82.5003    243.4767   1.4067996771e+02   1.6621103164e+01    0.1093434   0.08033329  62.38 5.021559e-05    1.022    0.022
        14 -14.1498     10.0314    206.2922   1.5011437271e+02   3.1390671075e+01     10.85165          nan  41.45  0.007042937   12.359    0.919
        15 -10.6822    173.1409    221.9204   1.2241924640e+02   5.9225720763e+00    0.2674089    0.1922726  40.85  0.001234336    1.143    0.125
        16  -8.9791    152.6849    213.0046   1.2486267188e+02   1.0732361554e+01    0.1575621    0.1465146  48.09 0.0003116245    1.104    0.094
        17 -11.5421     64.4843    200.6494   1.4001909487e+02   2.6447757183e+01    0.2548817    0.2058625 -58.70 0.0006197503    1.526    0.345
        18 -11.6580     19.0682    199.2650   1.4815538762e+02   3.1833560233e+01    0.4914952    0.1369796  49.97  0.001278472    2.849    0.649
        19  -9.9810    192.8749    194.8208   1.1443222187e+02   6.4025033497e+00    0.7644662    0.3754327 -60.65  0.002112772    8.168    0.878
        20 -11.8846     70.3594    192.3012   1.3804531682e+02   2.7285924589e+01     0.237663     0.210375 -71.17 0.0005461914    1.302    0.232
        21 -13.2726     67.1015    177.3625   1.3702657238e+02   3.0703867434e+01    0.4543139    0.2641344 -46.68  0.001766678    2.284    0.562
        22  -8.8555    103.9245    179.9672   1.2970196422e+02   2.4807880300e+01    0.1960343    0.1351241  72.91 0.0004766939    1.575    0.365
        23 -10.9178     80.0279    179.1714   1.3457034223e+02   2.8570840780e+01    0.2209323    0.1962072 -85.38 0.0003413069    1.127    0.113
        24 -11.7932     87.4138    169.5261   1.3171383947e+02   2.9477264180e+01    0.5816988    0.5595776  56.52  0.003936018    1.225    0.184
        25  -8.8521    192.6716    156.3335   1.0696851549e+02   1.2589761500e+01    0.1390393    0.1150305 -86.49 0.0007051827    1.720    0.418
        26  -9.9926     99.2980    153.3051   1.2652766037e+02   3.1048445711e+01    0.2903727    0.2322778 -57.20 0.0007664792    1.250    0.200
        27  -9.1223    102.1141    149.1017   1.2514078232e+02   3.1485704803e+01    0.1953105    0.1802371 -32.64 0.0003342004    1.284    0.221
        28 -12.0239     88.0257    152.7794   1.2903613765e+02   3.2931400877e+01    0.2615535    0.2363925 -43.92 0.0005326834    1.300    0.231
        29 -12.7958     39.0908    235.6231   1.4710971245e+02   2.3257809665e+01     0.334599    0.2165145 -64.55 0.0007579042    1.861    0.463
        30 -11.5767     67.6724    143.9785   1.3241843675e+02   3.7751826322e+01    0.4930244    0.2089682 -51.87  0.001135867    2.337    0.572
        31 -12.3362     65.0089    142.0067   1.3275231621e+02   3.8536927930e+01    0.9536806    0.5050592  66.36  0.004309094    2.551    0.608
        32 -14.2830     45.0298    228.2045   1.4567657104e+02   2.3836418480e+01     1.835366     1.151884  33.10  0.005311132    2.065    0.516
        33  -8.4264    192.2215    144.0168   1.0435190271e+02   1.4794770106e+01    0.1808778    0.1177558 -35.53 0.0004282589    1.563    0.360
        34  -9.8340    110.3178    137.9674   1.2108605868e+02   3.2477303176e+01    0.3772528    0.2643972 -16.51  0.001455238    2.396    0.583
        35 -10.6412     97.7798    135.3397   1.2360854587e+02   3.5187910336e+01    0.2418124     0.234578 -49.72 0.0005666447    1.136    0.120
        36  -9.4285     86.3279    136.1509   1.2657663696e+02   3.6826466989e+01    0.2208066     0.163492  72.64 0.0006812864    1.499    0.333
        37 -11.0659     55.8666    127.3109   1.3268743252e+02   4.2958316883e+01    0.3713973    0.1670254 -70.91  0.001640381    2.274    0.560
        38  -8.3750    116.2979    130.3479   1.1804943356e+02   3.3037125542e+01    0.1431968    0.1136651 -15.76 0.0007035436    1.681    0.405
        39 -10.1320    152.7107    249.0078   1.2952003865e+02   5.5176756090e+00     0.154292    0.1263445  45.90 0.0004594448    1.066    0.062
        40  -9.3308    107.2499    124.5026   1.1901277101e+02   3.5939166905e+01    0.1883438    0.1759728 -60.78  0.000777657    1.033    0.032
        41 -11.1542    185.2879    238.7426   1.2268382117e+02   1.6797641325e+00    0.2681815     0.225529  77.75  0.001867968    1.696    0.410
        42 -10.1630    167.9350    112.9585   1.0185632503e+02   2.5816633300e+01    0.3206375    0.2768268 -75.68 0.0007583346    1.379    0.275
        43  -9.6603    203.2995    111.5470   9.4399114033e+01   1.7956978055e+01    0.2580881    0.1818984  -7.14 0.0008462323    1.738    0.424
        44  -8.7381    184.7035     77.6270   8.8702617442e+01   2.8120063690e+01    0.1614518    0.1181064  13.15 0.0007027285    1.739    0.425
        45  -9.3210    156.4035     75.7781   9.3929081913e+01   3.5362384115e+01    0.2139412    0.1470624 -22.00 0.0006053395    1.596    0.373
        46 -10.7961      6.5584     63.0195   1.3554696218e+02   6.1526072864e+01    0.1623648    0.1448822 -36.17 0.0007874555    1.243    0.195
        47  -9.4802    248.6511    231.3185   1.1102605799e+02  -7.3706613459e+00   0.09774032   0.08763732  49.89 0.0007048309    1.734    0.423
        48 -10.6371     28.4436     60.6118   1.2719010449e+02   6.0449133852e+01    0.2467438     0.207106  44.43 0.0006801048    1.527    0.345
        49  -9.5717     20.0140     57.4705   1.2943561257e+02   6.1781692033e+01    0.1490955    0.1164348  22.09  0.001019057    1.585    0.369
        50  -9.7587     81.5670    248.3981   1.4122921923e+02   1.5978886399e+01    0.2397503    0.1235504  68.90  0.001455893    1.987    0.497
        51  -8.5980     47.2849    249.3273   1.4667002799e+02   2.0101075221e+01   0.08054306   0.07508992 -87.10 0.0004551527    1.607    0.378
