#   1 NUMBER                 Running object number                                     
#   2 MAG_AUTO               Kron-like elliptical aperture magnitude                    [mag]
#   3 X_IMAGE                Object position along x                                    [pixel]
#   4 Y_IMAGE                Object position along y                                    [pixel]
#   5 X_WORLD                Barycenter position along world x axis                     [deg]
#   6 Y_WORLD                Barycenter position along world y axis                     [deg]
#   7 A_WORLD                Profile RMS along major axis (world units)                 [deg]
#   8 B_WORLD                Profile RMS along minor axis (world units)                 [deg]
#   9 THETA_WORLD            Position angle (CCW/world-x)                               [deg]
#  10 FWHM_WORLD             FWHM assuming a gaussian core                              [deg]
#  11 ELONGATION             A_IMAGE/B_IMAGE                                           
#  12 ELLIPTICITY            1 - B_IMAGE/A_IMAGE                                       
         1 -14.4836     68.6527    144.0247   1.0073762431e+02   3.7675072873e+01     4.797168     2.333161  63.89  0.003072829    3.788    0.736
         2 -13.2630    198.1500     41.8940   4.3130610063e+01   3.0631018113e+01     1.206324     1.010296 -51.97  0.003893654    1.143    0.125
         3 -13.8112    207.5565     32.6082   3.9727776926e+01   2.9640148762e+01     1.111491    0.9981929   3.53  0.001427864    1.500    0.334
         4 -13.0424    232.4142      6.3392   3.1635079412e+01   2.7167515090e+01    0.8331668    0.6312348 -83.85   0.00475314    1.120    0.107
         5  -9.9300     61.3337      7.9518   6.0292612035e+01   6.5760405921e+01    0.1712967    0.1385473   6.63 0.0004305567    1.115    0.103
         6  -9.7012     51.3321      7.6600   6.3891935845e+01   6.7539027424e+01    0.1055309   0.09725637 -63.93  0.000705159    1.747    0.427
         7  -8.1687    223.7411    206.6772   7.6292869826e+01  -2.5664596976e+00    0.1292311   0.08699585  -6.03 0.0002617174    1.550    0.355
         8 -10.3039    140.1230    250.3137   9.9740977379e+01   3.3992006287e+00    0.3534567    0.1772279  36.67  0.001727219    1.661    0.398
         9 -10.7873    139.8352    245.1845   9.9135731236e+01   4.2983767032e+00    0.3657682    0.1647871 -52.74  0.001747047    2.659    0.624
        10 -10.5364    129.0091    249.5186   1.0186304626e+02   5.2190989723e+00    0.3311166    0.1721802  39.72  0.001738246    1.582    0.368
        11 -10.9216    120.3443    245.4873   1.0312104491e+02   7.2300856335e+00    0.2769401    0.2250471  77.12 0.0009776294    1.404    0.288
        12 -10.6357    128.1589    244.0145   1.0135366427e+02   6.2965765939e+00    0.2787112    0.1714891 -60.47 0.0006098944    1.990    0.498
        13 -10.8062    124.6971    243.7943   1.0203079242e+02   6.8657668668e+00    0.3438133     0.175748 -42.33  0.001675543    2.570    0.611
        14 -13.2086     56.8335    185.4088   1.0994052584e+02   2.9092883663e+01     1.247191     0.939355  27.83  0.007064098    1.545    0.353
        15 -15.4943     46.9055    199.4292   1.1377445116e+02   2.7071713983e+01     11.62798     4.466955  72.88   0.02878956    6.177    0.838
        16 -11.6644    112.1880    197.0767   9.8305116759e+01   1.8132398696e+01     1.397936    0.7442616  10.98  0.003456666    7.788    0.872
        17 -10.9482    107.5801    203.7315   1.0037265926e+02   1.7442249297e+01     0.295316    0.2378146  66.11  0.001140088    1.253    0.202
        18 -10.8957    192.8419    194.3366   7.9941936276e+01   4.5131396809e+00     1.020604    0.6095286 -71.27  0.003001637    6.479    0.846
        19 -11.3329    111.6616    204.3402   9.9524064507e+01   1.6646377577e+01    0.4328771    0.2972144  72.46 0.0007167846    1.800    0.445
        20  -9.6976     31.7517    203.5343   1.1748154769e+02   2.7882714755e+01    0.2679777      0.19265 -83.84  0.001300388    1.224    0.183
        21 -10.0479    202.0987    199.2592   7.9025347455e+01   2.0824294161e+00    0.3822644    0.2213957  64.21  0.001242646    5.367    0.814
        22 -10.8284     61.2146    198.5384   1.1042411913e+02   2.5471115256e+01     0.292574    0.2488712 -50.59 0.0002121771    1.403    0.287
        23  -9.1255     66.3351    194.2390   1.0873429403e+02   2.5772288244e+01    0.3141363    0.2215058  49.37  0.001165239    1.324    0.245
        24 -10.7650    121.2177    196.5698   9.6114656694e+01   1.6717587523e+01    0.4342355    0.2386508 -69.19 0.0008135579    2.467    0.595
        25  -8.8079     82.0715    194.9704   1.0511147198e+02   2.3366195567e+01    0.2092392    0.1695929 -23.79  0.001133817    1.712    0.416
        26 -15.9693      6.0852    208.7095   1.2315959450e+02   2.9308844403e+01     5.664005    0.6702693 -68.19   0.01950309    5.054    0.802
        27  -8.8108     72.2104    188.2361   1.0658026899e+02   2.6354300172e+01    0.1911307    0.1411086  74.02 0.0004916669    1.357    0.263
        28  -9.5631    147.7697    186.6011   8.8226511610e+01   1.4126835316e+01    0.2776124    0.2079879 -44.76  0.001289887    1.390    0.280
        29  -8.9884     80.4415    184.0394   1.0399812961e+02   2.6148295780e+01    0.2286584    0.1755871  68.43 0.0007979599    1.299    0.230
        30  -9.9854     99.4191    180.9575   9.8832342147e+01   2.3902229606e+01    0.2687571    0.2071203  40.74 0.0006212138    1.273    0.214
        31  -8.6071     90.3863    181.2335   1.0111990216e+02   2.5289236429e+01    0.2067397    0.1365896 -61.24 0.0002826061    1.505    0.335
        32  -9.2811     93.1939    179.1860   1.0009918455e+02   2.5327244236e+01    0.2323819    0.1845106  65.34 0.0004285218    1.274    0.215
        33  -9.0014     42.9869    179.9961   1.1266842248e+02   3.2064280790e+01    0.1920098    0.1696514  88.55            0    1.066    0.062
        34 -10.0245     46.2003    176.8721   1.1153012506e+02   3.2438672996e+01    0.3007044    0.2591425  88.26 0.0008054523    1.014    0.014
        35  -9.9716    187.4899    175.9750   7.7418677633e+01   8.8823418042e+00    0.3657796    0.2897678 -46.45  0.001318593    1.328    0.247
        36 -17.4807     13.5869    243.4239   1.2363092890e+02   2.1516748397e+01     10.58298      5.38848 -82.40   0.02242771    1.774    0.436
        37  -8.9352    148.4697    175.0567   8.5857803220e+01   1.6450772260e+01    0.2187891    0.1469192 -51.86 0.0007339568    1.558    0.358
        38 -13.1020     71.5357    153.9740   1.0165705883e+02   3.4776838448e+01    0.6682491      0.55147 -63.73  0.001126748    1.138    0.122
        39 -10.2587     92.5980    248.6796   1.0904343129e+02   1.0745484977e+01    0.3853498    0.1898294  55.88  0.001385658    2.011    0.503
        40 -11.6356     70.6972    171.9359   1.0470184785e+02   3.0465334077e+01    0.5352914    0.3528822 -34.42  0.002508329    2.099    0.524
        41 -11.9743     82.9436    159.2015   9.9444628338e+01   3.1777393986e+01    0.9298171    0.6462932  76.52 0.0004273236    1.738    0.425
        42 -10.0566    240.1817    169.5758   6.6187283850e+01   8.1333957274e-01    0.1766488    0.1182953  23.91 0.0007842106    1.660    0.398
        43  -9.1027    185.1637    168.8284   7.6424866356e+01   1.0706255712e+01    0.2129445    0.2037849 -63.02 0.0007085367    1.198    0.165
        44  -8.9356    110.8947    168.0596   9.3705240934e+01   2.4980269064e+01    0.2309684    0.1971837  78.74 0.0005309521    1.254    0.202
        45  -9.0606     36.5247    167.5267   1.1287208108e+02   3.5789452122e+01    0.2340958    0.1426283  61.85  0.000622156    1.684    0.406
        46  -9.9290     33.1012    165.3038   1.1348903522e+02   3.6690632953e+01    0.2784605    0.2006812  44.99  0.001057153    1.431    0.301
        47  -8.5397    135.9774    164.7752   8.6785682522e+01   2.1106307391e+01    0.2028423    0.1230851  39.66 0.0004209985    1.632    0.387
        48  -8.9813    103.6436    213.6858   1.0265077963e+02   1.5953959249e+01    0.1313831    0.1062159  -7.62 0.0006517572    1.742    0.426
        49 -11.6054     90.0860    152.0195   9.6201155088e+01   3.2412234987e+01    0.7354297    0.5012638 -26.24  0.003229059    2.077    0.518
        50 -10.6414    133.7701    144.9782   8.3096341084e+01   2.6066332164e+01      1.15534    0.3281054 -55.01  0.002834116    5.107    0.804
        51  -9.0369    111.2200    149.2678   8.9919086217e+01   2.9405472184e+01    0.3210307    0.2134124  71.79  0.001312542    2.144    0.534
        52  -9.1986    174.8845    149.1105   7.4326450973e+01   1.6722375161e+01    0.2275611    0.2112252 -84.39 0.0005599515    1.234    0.190
        53  -9.4551     39.4760    146.7741   1.0946252393e+02   4.0597128956e+01    0.2936081    0.1793376  41.89  0.001504902    1.729    0.422
        54 -10.2608    103.1897    138.4014   8.9786610434e+01   3.3496663198e+01    0.5780377    0.3546855 -23.65  0.002151001    2.706    0.630
        55 -11.6701     90.8594    137.9246   9.3171061017e+01   3.5763206634e+01    0.2916006     0.260603 -45.16 0.0003731462    1.127    0.112
        56 -11.3486     44.1032    130.1779   1.0556289519e+02   4.4246274496e+01    0.5401762    0.3138471  80.50  0.002236488    2.415    0.586
        57 -10.4978    136.0698    130.1286   7.9023442270e+01   2.8991538332e+01    0.6840249    0.1814729 -51.87  0.001698984    4.720    0.788
        58 -10.1685    105.8885    130.8590   8.7329071622e+01   3.4824326081e+01    0.3667188    0.3308223 -77.26  0.001120842    1.154    0.134
        59 -10.2414     32.9457    131.4098   1.0911671951e+02   4.5094974878e+01    0.2635539    0.2239977 -71.90  0.001020064    1.007    0.007
        60 -10.0250    112.2776    129.2191   8.5154796479e+01   3.4005881541e+01    0.3309088    0.2794596  -4.55 0.0007822551    1.429    0.300
        61  -9.2179    160.9980    128.2522   7.2511128930e+01   2.4055234214e+01    0.3060977     0.201003 -56.64  0.001300842    1.704    0.413
        62  -9.9459     67.1797    126.7332   9.7865763794e+01   4.2207752239e+01    0.5098541     0.254767 -63.79  0.002096582    1.984    0.496
        63 -10.3297     99.3015    125.2452   8.7901036599e+01   3.7383582488e+01    0.3033389    0.2616971 -16.47 0.0007641002    1.326    0.246
        64  -8.8491     93.0150    125.5145   8.9805288785e+01   3.8434180575e+01    0.2257183    0.1966572 -59.73 0.0005378025    1.110    0.099
        65 -10.6455    117.9537    123.6800   8.2239348537e+01   3.4192697227e+01    0.3836454    0.2913646  16.78  0.001121197    1.645    0.392
        66  -9.3414    108.1728    118.2547   8.3628732728e+01   3.7383099359e+01    0.2203865    0.2047275  -9.88 0.0004402313    1.153    0.133
        67 -11.9581     43.2500    109.1759   1.0194310841e+02   4.9536890396e+01    0.5517949    0.3726568 -74.95  0.001926385    1.541    0.351
        68 -12.1282     51.4232    107.2517   9.8795926083e+01   4.9065101317e+01    0.6478068     0.456407 -45.27  0.002404662    1.312    0.238
        69 -10.2110    135.0000    112.5295   7.4816522977e+01   3.3146104998e+01    0.6243386   0.08839901 -44.64  0.001253404    6.944    0.856
        70 -11.0143    115.5194    108.9462   7.9112201711e+01   3.8059599867e+01     0.551852    0.3976557 -44.25  0.002533337    1.357    0.263
        71  -7.9950    140.3560    107.2682   7.2044791460e+01   3.3100383172e+01    0.1580111    0.1240626  11.18 0.0003854171    1.635    0.388
        72  -9.1750    205.5479    110.2223   5.9047876716e+01   1.7871244300e+01    0.2459504    0.2061393  53.18 0.0005961086    1.287    0.223
        73  -9.7808    241.1984    101.6251   5.1518912861e+01   1.2061962946e+01    0.1772243    0.1249663  43.78 0.0009526067    1.708    0.414
        74  -9.9271    231.4177    113.7546   5.5640355850e+01   1.1920697458e+01    0.2510998    0.2335696 -41.41 0.0007222054    1.058    0.055
        75  -9.0323    128.8950     95.9534   7.1841388733e+01   3.8024079963e+01    0.2336164    0.2276347  70.77 0.0005887551    1.060    0.057
        76 -10.2589     51.6305     92.5132   9.5258953958e+01   5.2536191656e+01    0.3682245    0.1874881 -35.07  0.001269796    2.236    0.553
        77  -9.4271    156.4441     88.6860   6.3094417794e+01   3.3136286496e+01    0.3297171    0.2387711 -75.06  0.001284945    1.831    0.454
        78  -8.4279    117.0476     86.0090   7.2136456094e+01   4.2646561837e+01     0.186255    0.1711523  40.08 0.0007721129    1.094    0.086
        79  -9.4240     75.0100     84.9607   8.4949663379e+01   5.0891958540e+01    0.2116084    0.1987695 -22.34 0.0003427455    1.022    0.022
        80  -9.5929     89.8243    212.1467   1.0554053582e+02   1.8402529171e+01    0.2585289    0.2027714 -78.20 0.0007202275    1.315    0.240
        81  -9.4686     59.0071     67.8582   8.5448833738e+01   5.6934393696e+01    0.2025729    0.1848124 -20.11 0.0004885414    1.046    0.044
        82 -12.9810    187.1833     50.2793   4.6803462587e+01   3.2085749685e+01     1.031937    0.9351216 -13.72  0.001595011    1.317    0.241
        83 -10.9999    107.3172    241.9116   1.0535318837e+02   9.8371548587e+00    0.3062167    0.1944273  27.26  0.001514846    1.705    0.414
        84  -8.3802    158.3070    235.6776   9.4056929588e+01   3.0146584874e+00    0.1242897   0.09601456  62.35 0.0007033879    1.643    0.391
        85 -10.8971    163.1455    213.2254   8.9522043755e+01   6.1738712085e+00     0.411653    0.2065026  35.18  0.001862523    1.848    0.459
        86 -11.3236     74.8634    167.2850   1.0291951362e+02   3.1003515016e+01    0.3223966    0.2670293 -36.82  0.001751865    1.429    0.300
        87  -9.3814     31.6640     32.6865   8.4214599199e+01   6.6937191886e+01    0.1298414    0.0800659 -12.71 0.0007046258    1.689    0.408
        88  -9.4331    198.1801     23.3888   3.8504449467e+01   3.2929096719e+01    0.2010191    0.1727842 -29.10 0.0006463628    1.358    0.263
        89  -8.8550    189.5270     14.9981   3.7340038603e+01   3.5896911080e+01    0.1824066    0.1235792 -34.04 0.0009191167    1.571    0.364
        90  -8.4933     71.4490     53.4870   7.5819650404e+01   5.7694619050e+01    0.1351601    0.1242522  -7.47 0.0001544997    1.064    0.060
        91 -10.8081    157.0115    220.4924   9.2004752657e+01   5.8768469388e+00     0.207591    0.1805941 -40.83  0.001027649    1.274    0.215
        92  -9.8476    184.5004    213.0000   8.5043726533e+01   2.6401320578e+00    0.2986224   0.07005497  38.71 0.0009373302    3.956    0.747
