#   1 NUMBER                 Running object number                                     
#   2 MAG_AUTO               Kron-like elliptical aperture magnitude                    [mag]
#   3 X_IMAGE                Object position along x                                    [pixel]
#   4 Y_IMAGE                Object position along y                                    [pixel]
#   5 X_WORLD                Barycenter position along world x axis                     [deg]
#   6 Y_WORLD                Barycenter position along world y axis                     [deg]
#   7 A_WORLD                Profile RMS along major axis (world units)                 [deg]
#   8 B_WORLD                Profile RMS along minor axis (world units)                 [deg]
#   9 THETA_WORLD            Position angle (CCW/world-x)                               [deg]
#  10 FWHM_WORLD             FWHM assuming a gaussian core                              [deg]
#  11 ELONGATION             A_IMAGE/B_IMAGE                                           
#  12 ELLIPTICITY            1 - B_IMAGE/A_IMAGE                                       
         1 -14.1721    204.0840     19.6776   6.2246874638e+01   3.2105035047e+01     2.401316     1.489801  28.23   0.01110611    3.030    0.670
         2 -11.3214      2.1180      5.7827   1.1126200049e+02   7.1667969049e+01    0.4831587    0.1406525 -41.60   0.00251006    2.821    0.645
         3 -11.6485      2.4943     15.0236   1.1483362117e+02   7.0370236059e+01    0.3968073    0.2022674 -52.35  0.002383658    2.430    0.588
         4 -11.2747    189.7272     15.4978   6.2951303959e+01   3.5968557199e+01    0.2497887    0.2158491  89.59 0.0008726501    1.045    0.043
         5 -10.4932    163.4653    250.0149   1.2050100168e+02  -1.2903315572e+00     0.268018    0.1565188  51.49  0.001387218    1.688    0.407
         6 -12.1646    139.4789    248.8091   1.2505297784e+02   2.9744994041e+00    0.5966445    0.2787749  47.98  0.002825664    1.864    0.463
         7 -12.2687    123.6497    249.4403   1.2823843931e+02   5.5107271607e+00    0.7348676    0.2878271  35.44   0.00301654    2.716    0.632
         8 -11.8094    109.0172    247.1313   1.3081066210e+02   8.3296152002e+00    0.3793105    0.2784921  60.15  0.002214629    1.172    0.147
         9 -12.7980    100.7643    248.4949   1.3255903423e+02   9.3917735170e+00    0.7288482    0.6070278 -77.05  0.004824107    1.296    0.229
        10 -11.1541     93.9315    249.8153   1.3400429894e+02   1.0210404627e+01    0.5113228    0.2817006 -46.50  0.002582727    2.659    0.624
        11 -12.9283     88.7428    244.3039   1.3440927407e+02   1.2061633054e+01    0.7506937    0.4895467  50.21   0.00236773    1.294    0.227
        12 -12.7572      5.6406    246.5019   1.4926042416e+02   2.2317145107e+01     1.325732    0.6815307  82.72   0.00860032    1.532    0.347
        13 -14.3726     34.4182    246.5658   1.4450332434e+02   1.9081895343e+01     11.43496     3.209965  30.63  0.009511373   16.198    0.938
        14 -14.0466     44.9001    217.2493   1.4021390308e+02   2.3801296793e+01     1.110697    0.7244318  67.23  0.005417419    1.324    0.245
        15 -11.6214     62.8225    217.6593   1.3669061569e+02   2.1349363872e+01    0.4633527    0.2115993  48.98  0.001170367    1.961    0.490
        16 -14.7298     53.5541    208.8670   1.3765560092e+02   2.4525190894e+01     5.612648     0.999392  50.45   0.01517953    6.683    0.850
        17 -10.1816    228.3656    205.1749   1.0008288774e+02  -4.9461439500e+00    0.2694818    0.2188558 -54.23  0.001000604    1.576    0.365
        18 -10.2248     26.6539    203.9578   1.4260856762e+02   2.8833505465e+01    0.2108575    0.1462675  60.45 0.0003346286    1.304    0.233
        19 -11.6161     64.0250    193.5252   1.3366732571e+02   2.6591311549e+01    0.3907522    0.2567886 -44.81  0.002015321    1.971    0.493
        20  -9.6880    191.9588    192.9281   1.0491904973e+02   3.8285358116e+00    0.3600165    0.1851429 -63.66  0.001136766    4.337    0.769
        21  -8.4100    181.4930    192.4449   1.0702774069e+02   5.9486444988e+00    0.1450421    0.1363815  20.67 0.0001197122    1.031    0.030
        22 -11.1306    100.0243    238.0712   1.3151536338e+02   1.1514700304e+01    0.2951093    0.1880498 -87.75 0.0009935506    1.820    0.451
        23 -11.7100     69.4147    186.2598   1.3150672452e+02   2.7527620937e+01    0.2906092    0.2534079 -47.84 0.0006787589    1.385    0.278
        24 -11.0966     78.9790    174.4329   1.2753205519e+02   2.8930899099e+01    0.2540102    0.2424662 -84.09 0.0003761611    1.141    0.123
        25 -13.2631     66.1495    171.8716   1.3024435488e+02   3.1410358057e+01    0.5266557    0.2825243 -45.36  0.001705569    2.240    0.553
        26 -12.6914     37.7312    226.3266   1.4237233101e+02   2.2759136367e+01    0.3339156    0.2642091 -73.83 0.0007686559    1.343    0.255
        27 -12.0580     86.0382    165.7143   1.2437156047e+02   2.9937051739e+01    0.8318769    0.5808333  61.52  0.004131088    1.523    0.343
        28 -13.0696     65.9534    142.0847   1.2542782101e+02   3.8658755481e+01     2.431518     1.191074 -86.71  0.004916264    5.101    0.804
        29 -13.0494     15.4963    240.6166   1.4731480820e+02   2.2412452338e+01     1.935518    0.6911648  69.71  0.008959229    3.004    0.667
        30 -11.8471     20.3963    229.9610   1.4578258319e+02   2.4007174023e+01    0.4226974    0.2182186  37.44  0.001682896    2.122    0.529
        31 -11.6581    151.4531    228.7216   1.1974737575e+02   4.5376757911e+00    0.7616117    0.1688015  39.39  0.002248863    4.284    0.767
        32  -9.6999     99.0256    150.0428   1.1813214358e+02   3.1578090954e+01    0.2875641    0.2113827 -49.49 0.0006257027    1.343    0.255
        33  -9.0887    101.9460    145.9980   1.1653951013e+02   3.2042414390e+01    0.2359184    0.1816087 -22.03 0.0006125852    1.728    0.421
        34 -12.0461     87.5635    149.0765   1.2095686528e+02   3.3736005754e+01     0.298155    0.2554658 -41.60 0.0006081369    1.259    0.206
        35 -10.5246     39.4304    146.5721   1.3319457842e+02   4.0787300563e+01    0.2527274    0.1944635 -50.36  0.001260792    1.311    0.237
        36 -12.2258     26.9775    138.7937   1.3530877049e+02   4.3863874985e+01    0.5784029    0.2511995  46.59   0.00267944    2.692    0.629
        37  -9.5890    110.3455    135.4405   1.1201425791e+02   3.3033178632e+01     0.334365       0.2321 -23.03  0.001419853    2.043    0.510
        38 -10.5917     97.4816    132.7379   1.1489565223e+02   3.6012996839e+01    0.2889661    0.2364054 -28.93 0.0008048168    1.396    0.283
        39  -9.4312     44.6200    129.6982   1.2909274894e+02   4.4255581222e+01    0.1377606   0.09149739 -34.31 0.0003088815    1.772    0.436
        40 -10.7381     75.3386    228.7374   1.3536328518e+02   1.7207206190e+01    0.3420655    0.1618892  65.16  0.001516881    2.441    0.590
        41  -9.1117    107.1110    122.9031   1.0996380269e+02   3.6584838240e+01    0.2089562    0.1935877 -88.05 0.0002819462    1.131    0.116
        42 -10.9841    167.9866    113.0339   9.2128570349e+01   2.5662578643e+01    0.3772923     0.310012 -85.52 0.0009208558    1.413    0.292
        43  -9.5016    204.7415    110.6879   8.4070091321e+01   1.7584928500e+01    0.3772145    0.2233567  33.77  0.001499389    2.365    0.577
        44  -9.9953    242.3268     93.3317   7.3966138773e+01   1.2463051365e+01    0.1323121    0.1110093   5.03 0.0007051302    1.711    0.416
        45 -10.5427      1.6544     88.3431   1.3468405815e+02   5.7047594411e+01    0.3199673   0.07281467 -62.55  0.001306312    2.950    0.661
        46 -15.6130      9.5647    206.9486   1.4612523458e+02   2.9937087797e+01     10.30025     1.442636 -73.52   0.02409021    5.537    0.819
        47  -9.5558    157.5150     77.4882   8.4940672206e+01   3.5037674106e+01    0.1496541    0.1439268  73.96  0.000106073    1.005    0.005
        48  -8.5718    108.4985     42.4105   8.6000881182e+01   5.1658924397e+01    0.1327951    0.1220164  36.43 0.0001551746    1.070    0.066
        49 -11.8167     55.0940    230.3788   1.3945900149e+02   1.9706653251e+01    0.3895579    0.2700649  83.26  0.002438129    1.238    0.192
        50 -11.4728     51.6024    236.5148   1.4065925214e+02   1.8911959716e+01    0.3387685    0.2205087  68.87  0.001039506    1.273    0.214
        51 -10.9615    141.5341    240.5084   1.2350984378e+02   4.1045553891e+00    0.3202025    0.1548775  60.02  0.001273577    2.930    0.659
