#   1 NUMBER                 Running object number                                     
#   2 MAG_AUTO               Kron-like elliptical aperture magnitude                    [mag]
#   3 X_IMAGE                Object position along x                                    [pixel]
#   4 Y_IMAGE                Object position along y                                    [pixel]
#   5 X_WORLD                Barycenter position along world x axis                     [deg]
#   6 Y_WORLD                Barycenter position along world y axis                     [deg]
#   7 A_WORLD                Profile RMS along major axis (world units)                 [deg]
#   8 B_WORLD                Profile RMS along minor axis (world units)                 [deg]
#   9 THETA_WORLD            Position angle (CCW/world-x)                               [deg]
#  10 FWHM_WORLD             FWHM assuming a gaussian core                              [deg]
#  11 ELONGATION             A_IMAGE/B_IMAGE                                           
#  12 ELLIPTICITY            1 - B_IMAGE/A_IMAGE                                       
         1 -13.1011    240.7557     40.0552   2.4237486762e+01   2.3940279535e+01    0.7203611    0.6081514  84.67  0.004312555    1.316    0.240
         2 -10.3608      2.3448      3.8278   7.2776229753e+01   7.5379175455e+01    0.2664766    0.1361416 -42.80  0.001530137    2.159    0.537
         3 -14.4914      7.4039    191.5842   1.0873846574e+02   3.1385163673e+01     2.294063     1.209202 -63.70  0.006095999    1.796    0.443
         4 -10.1703    139.4235    249.5779   8.1214803933e+01   3.4232024458e+00    0.2160105    0.1654831 -23.10  0.001303876    1.294    0.227
         5  -9.9671    134.5444    248.7908   8.2220997559e+01   4.1626488028e+00    0.2920075    0.1339145 -55.46   0.00131829    2.716    0.632
         6 -10.0743     80.9055    249.9257   9.5007861197e+01   1.0486157730e+01    0.2352244    0.1931249  28.95  0.001419176    1.038    0.036
         7 -15.5837     10.2250    238.0421   1.1076980531e+02   2.0304038590e+01     12.75955     5.222518 -78.21   0.05451035    2.480    0.597
         8 -10.3937     78.8499    206.8441   9.0552428588e+01   2.0213267382e+01    0.3061678    0.2354207 -74.79 0.0005645973    1.485    0.326
         9  -9.3746    194.5522    197.5267   6.0903362754e+01   5.8482458820e+00    0.4406964     0.279418 -72.86  0.001443386    6.157    0.838
        10 -11.6460     36.5231    172.7241   9.8562665896e+01   3.3765853040e+01    0.3791077    0.3060397 -13.70 0.0005216127    1.386    0.279
        11 -11.6314     45.0560    166.8635   9.5157989142e+01   3.4435596664e+01    0.3419686     0.289374 -10.65 0.0004300303    1.277    0.217
        12  -8.3453    110.5684    167.4745   7.5250761322e+01   2.5153037541e+01    0.1521846    0.1463825   1.41 0.0002274185    1.037    0.036
        13 -10.6167     58.9971    157.8473   8.9332449774e+01   3.5206347380e+01    0.2938125    0.2701844 -12.30 0.0003921887    1.103    0.093
        14 -11.3379     22.2742    156.4521   1.0119337171e+02   3.9367606056e+01    0.3630147    0.2515638  41.91  0.001404707    1.496    0.332
        15 -12.8356     43.3822    153.7497   9.3859096698e+01   3.8112147093e+01    0.6266074    0.3764095 -21.22  0.001458023    2.120    0.528
        16 -11.3242     73.4928    137.5500   8.0766152024e+01   3.8550564640e+01    0.4154104    0.3427479 -49.04 0.0001636831    1.194    0.163
        17 -11.9909     68.3405    152.0145   8.5273291894e+01   3.5519935733e+01    0.7423583    0.5842553  33.57  0.001880288    1.268    0.212
        18 -12.6769     68.0937    143.5843   8.3790817647e+01   3.7762816528e+01     1.098731    0.6686605  56.25  0.003349274    2.161    0.537
        19 -12.1681      1.4627    196.0636   1.1060370704e+02   3.0700802976e+01    0.3553388    0.1455532 -82.43 0.0006391589    2.343    0.573
        20  -9.5306    239.6674    149.3256   4.4390973809e+01   8.1266254770e+00    0.1154759   0.08639459 -62.68 0.0007051112    1.710    0.415
        21 -10.0135     39.8957    142.1241   9.3286412156e+01   4.1592844924e+01    0.3357581    0.1930442  60.62  0.001343951    2.344    0.573
        22 -10.6130     86.3444    140.2890   7.7081124196e+01   3.5858465749e+01    0.3894674    0.3070524 -27.27 0.0008457688    1.340    0.254
        23  -9.1299     90.3705    137.2528   7.5131030686e+01   3.5960951472e+01    0.2409316    0.2079196  21.45 0.0004629512    1.145    0.127
        24  -9.7849    242.4939    138.5014   4.2035149445e+01   9.4906146054e+00    0.1203422   0.09482587 -37.57 -7.900687e-06    1.011    0.011
        25 -10.3352    104.6316    130.1548   6.9063220646e+01   3.5203592129e+01    0.6381301    0.3395253  41.01  0.002526832    1.884    0.469
        26  -8.9730     29.5959    128.2458   9.4816044738e+01   4.6290407365e+01    0.2111121    0.1210384 -54.76 0.0007198589    1.569    0.363
        27 -10.1901     88.0675    125.4079   7.3198979549e+01   3.9275436998e+01    0.3059266    0.2643791  14.11  0.000442871    1.160    0.138
        28 -10.8222     24.1441    148.3388   9.9606124696e+01   4.1384872359e+01    0.2731296     0.224909  76.79 0.0006413668    1.292    0.226
        29  -9.8993     55.5014    123.0310   8.4139928820e+01   4.4816148898e+01    0.2362273    0.1466135 -58.21 0.0007668094    1.588    0.370
        30  -8.7882    114.3215    122.3175   6.4312558059e+01   3.5211232326e+01    0.1602064    0.1208191  -7.70 0.0004100523    1.664    0.399
        31 -10.6175    109.1139    229.8842   8.5742565171e+01   1.1093997010e+01    0.5197328   0.08670995  27.19  0.001269853    5.976    0.833
        32  -9.2247    101.6591    118.1719   6.7084840591e+01   3.8564562349e+01    0.2347666    0.2031338  39.43 0.0003375013    1.159    0.137
        33  -8.9901    204.5788    110.6961   4.2076728648e+01   2.0046716743e+01    0.2582012    0.1537869  36.57  0.001290713    2.226    0.551
        34 -10.2043     52.0030    100.7464   8.0433855062e+01   5.0863611923e+01    0.3224853    0.2147316 -74.56  0.001413424    2.024    0.506
        35 -10.6935    241.4090    101.2814   3.5337746765e+01   1.5467258608e+01     0.230042   0.09487575 -38.35   0.00113622    2.087    0.521
        36 -14.0066      9.3580    207.4772   1.0925859759e+02   2.7348087483e+01     3.351771      1.37762 -40.95   0.01302746    3.541    0.718
        37 -10.4862     53.0829     90.8018   7.7422043214e+01   5.3070532055e+01    0.4123592    0.2181699 -50.25  0.001762598    1.847    0.459
        38  -9.3064     41.6067     92.1430   8.2633055721e+01   5.4243288412e+01    0.2372337    0.1905297  28.89 0.0005724725    1.284    0.221
        39  -9.0744    250.3139     88.3391   3.2032634367e+01   1.6008366597e+01    0.1033293   0.08290244 -17.29 0.0007047037    1.698    0.411
        40  -9.9366    167.5710     87.7339   4.3134321517e+01   3.1123849090e+01     0.258839    0.1307562 -36.52  0.001129815    2.051    0.512
        41  -9.1185     97.6685    220.2968   8.7349378260e+01   1.4659574671e+01    0.1440907    0.1013062  52.66 0.0004553117    1.641    0.390
        42  -8.6836    102.3436     83.0406   5.7324660631e+01   4.5942245012e+01    0.1995778    0.1858288 -33.74 0.0004175899    1.121    0.108
        43 -10.2643    184.1327     77.9677   3.8095714692e+01   2.9313105440e+01    0.2985339    0.1483292 -32.94  0.001345932    2.254    0.556
        44 -13.0102    219.7621     53.5535   2.8549382714e+01   2.5929621193e+01    0.9121038    0.6495171 -49.41  0.004973792    1.208    0.172
        45 -11.5920    225.9015     45.5654   2.6444860281e+01   2.5843743483e+01    0.5244834    0.2414613 -89.60  0.002546664    3.041    0.671
        46  -8.2078     95.4570     60.5066   5.2439005857e+01   5.1431147051e+01    0.1412761    0.1310842  53.90 9.944635e-05    1.103    0.093
        47 -10.3610     13.3180     60.0666   8.7769523519e+01   6.4303762908e+01    0.2318673    0.1784256  10.63 0.0004440493    1.268    0.211
        48  -9.7688     11.7866     53.4072   8.6692295824e+01   6.5831491016e+01    0.1829343    0.1095356  -2.00 0.0007393562    1.609    0.378
        49  -9.5271    248.9932    250.0000   5.9752120116e+01  -8.1509437875e+00    0.1580755   0.05312242  24.50 0.0008113731    3.005    0.667
        50  -8.4902     94.5388     46.5082   4.8043639313e+01   5.3782837894e+01    0.1376675     0.123952  49.25 2.823466e-05    1.048    0.046
        51 -10.5139     65.3685    235.1303   9.7311169246e+01   1.5396804711e+01    0.2547556    0.1343902 -73.14  0.001137137    2.270    0.559
        52  -9.5386     70.5255    212.9565   9.3569125344e+01   1.9812563070e+01    0.2066285    0.1398789 -64.64   0.00103151    1.590    0.371
