#   1 NUMBER                 Running object number                                     
#   2 MAG_AUTO               Kron-like elliptical aperture magnitude                    [mag]
#   3 X_IMAGE                Object position along x                                    [pixel]
#   4 Y_IMAGE                Object position along y                                    [pixel]
#   5 X_WORLD                Barycenter position along world x axis                     [deg]
#   6 Y_WORLD                Barycenter position along world y axis                     [deg]
#   7 A_WORLD                Profile RMS along major axis (world units)                 [deg]
#   8 B_WORLD                Profile RMS along minor axis (world units)                 [deg]
#   9 THETA_WORLD            Position angle (CCW/world-x)                               [deg]
#  10 FWHM_WORLD             FWHM assuming a gaussian core                              [deg]
#  11 ELONGATION             A_IMAGE/B_IMAGE                                           
#  12 ELLIPTICITY            1 - B_IMAGE/A_IMAGE                                       
         1 -11.5147     19.6172     60.8694   1.0357263603e+02   6.2144401509e+01       1.4314    0.7373478 -44.25  0.007743502    1.551    0.355
         2 -11.0542     76.3049     42.9784   7.5152349735e+01   5.8431728154e+01     1.037138    0.4918551 -38.02  0.004635407    2.023    0.506
         3 -11.3340     57.8603      3.5711   6.4152817825e+01   6.6833158527e+01     1.346776     0.546786  29.22  0.005812493    2.875    0.652
         4 -12.0421    103.8564     35.3833   6.3591803750e+01   5.4136577783e+01     1.793392    0.9890846   8.11  0.004272101    3.334    0.700
         5 -12.6260     90.9067     22.1534   6.1947949544e+01   5.8556325876e+01     3.202797    0.9462845 -20.21  0.008787927    6.186    0.838
         6 -11.2079     50.9851     25.0346   7.7165665578e+01   6.5293901361e+01    0.6243238    0.4091756  -3.06  0.003368567    1.598    0.374
         7 -11.3254     54.7918     17.7403   7.2259753213e+01   6.5718168046e+01    0.7551745     0.429596 -44.89  0.003854678    2.356    0.576
         8 -13.0209     71.9529     31.3393   7.1925946066e+01   6.0986170294e+01     2.176725     0.751928  44.62  0.008650091    2.901    0.655
         9 -11.4686     59.1538     28.0182   7.5228862922e+01   6.3610622451e+01    0.7169979     0.333313  24.07  0.002992915    2.922    0.658
        10  -9.9543     31.6200     11.8824   7.9498300262e+01   6.9773501564e+01    0.5363366    0.1985472 -40.89  0.002499596    2.753    0.637
        11 -10.3111     27.1914     18.2869   8.4745953127e+01   6.9367393275e+01    0.6245521    0.2821698 -21.35  0.002372799    2.754    0.637
        12 -12.1454     30.2651     24.9117   8.6270554673e+01   6.7989841198e+01      1.02763    0.5860139 -16.45  0.005630785    1.849    0.459
        13 -12.0999     15.8384     37.1636   9.7955453964e+01   6.7195119061e+01    0.9951292    0.7422848 -19.74  0.006762346    1.202    0.168
        14 -11.4630      4.2326     26.7726   9.9924082045e+01   6.9926114999e+01    0.5493329    0.2791543 -28.78  0.003222441    1.728    0.421
        15 -11.3214     11.9569     25.3716   9.5451186999e+01   6.9635370495e+01    0.4444601    0.2285784 -23.65  0.001016903    1.895    0.472
        16 -12.1040     18.5341     14.9882   8.7551864700e+01   7.0770835360e+01     1.222596    0.3674228 -42.92  0.005513342    2.824    0.646
        17 -11.2562      7.9267     19.5944   9.5186752260e+01   7.0933168680e+01    0.5427995    0.2672217  17.68  0.003183528    2.205    0.546
        18 -11.8606     25.2934      8.2527   8.0752567607e+01   7.1025209168e+01    0.7596043    0.3008166 -36.19   0.00258074    2.231    0.552
        19 -12.8566     12.9817      6.1233   8.6152481378e+01   7.2618365751e+01    0.6293433    0.5168405  -8.56  0.003312666    1.216    0.178
        20 -13.2603      5.2600     10.1890   9.2480981817e+01   7.2667648564e+01    0.5739787    0.3897588 -30.21  0.001313051    1.109    0.098
        21 -12.2535      2.4811      2.5879   9.0357126678e+01   7.4037163665e+01    0.2671607    0.2376525 -13.56  0.001139651    1.446    0.308
        22  -9.4859    173.2923     30.6122   4.7673898560e+01   3.8104140463e+01    0.6354734    0.3794931  -3.15  0.002687235    2.627    0.619
        23 -10.2002    157.2708      5.8996   4.2505742583e+01   4.4709375597e+01    0.7296354    0.2811112 -16.78  0.002845314    3.350    0.702
        24 -10.7086    182.0494     15.4880   4.2143575217e+01   3.7652532621e+01     1.267182    0.4266758  48.75  0.004559595    3.377    0.704
        25 -10.6017    161.3946     18.1655   4.5697298621e+01   4.2491679195e+01     0.634977     0.455638 -50.22  0.003417974    1.473    0.321
        26 -10.8230    154.1677     17.6170   4.6625606389e+01   4.4344128728e+01    0.4357175     0.324643  36.77 0.0003665081    1.444    0.308
        27 -10.5771    149.3831     16.0777   4.6891514005e+01   4.5686257436e+01    0.5170801    0.4106497  -3.62  0.001549279    1.464    0.317
        28 -10.6235    151.9831      8.9560   4.4206869096e+01   4.5735040478e+01    0.4640263    0.3209043  40.29   0.00158853    1.513    0.339
        29 -11.4752    169.1114     14.2637   4.3437635861e+01   4.0979305605e+01    0.8694349    0.3741261  64.17  0.003417332    2.045    0.511
        30 -10.3067    173.0745     10.7041   4.1888160582e+01   4.0354978143e+01    0.3306998    0.2410492  54.21  0.001281136    1.345    0.256
        31 -10.3311    203.7067     23.8848   4.1882147324e+01   3.1439944587e+01       1.0634    0.2852378 -36.05  0.003898282    3.131    0.681
        32  -9.5488    205.2139     16.1131   3.9733952980e+01   3.1966274070e+01    0.3405965    0.2454609 -24.16  0.001919294    1.579    0.367
        33 -10.4649    208.8591      4.0187   3.6385467758e+01   3.2376149383e+01    0.5426491    0.3546142 -84.04  0.003069563    1.429    0.300
        34  -9.8155    218.1745      4.2518   3.5659195542e+01   3.0197932931e+01    0.3007921    0.2659481  46.16  0.001258788    1.417    0.294
        35  -8.5863    215.0256      1.2235   3.5201289612e+01   3.1224126076e+01    0.1787093    0.1155619  79.52            0    1.403    0.287
        36 -11.0175    213.6410     29.5587   4.2230095415e+01   2.8394323781e+01    0.6030505    0.4618862  -9.38  0.003165381    1.718    0.418
        37 -10.6489    215.2884     22.5066   4.0308429099e+01   2.8860934164e+01    0.5016862    0.4183274 -54.63  0.001719029    1.108    0.097
        38 -10.5988    212.9745     12.4028   3.8058704735e+01   3.0542957071e+01    0.6282519    0.3393134  77.54  0.002342656    1.762    0.432
        39 -10.6354    148.9674     28.2763   5.0932065044e+01   4.4446771976e+01     1.025438    0.3914926  47.50  0.003861103    2.600    0.615
        40 -10.4641    129.9200     14.6259   4.9800576874e+01   5.0575861092e+01    0.8484106    0.4154231  62.68  0.002678156    1.873    0.466
        41 -11.1962     99.7270      5.5126   5.2696330958e+01   5.8371319536e+01    0.4803192    0.3505335 -22.20  0.002654317    1.467    0.318
        42 -10.4233    123.5655     22.8133   5.4033448516e+01   5.1228375056e+01    0.5627998    0.3619969  14.98   0.00189405    1.956    0.489
        43 -11.4390    131.8308     19.5720   5.1181163163e+01   4.9611320942e+01    0.6829458    0.3824082  42.56  0.003221573    1.757    0.431
        44 -11.0076    121.1456      9.9459   4.9804541341e+01   5.3103044298e+01    0.7657771    0.3058813  44.03  0.003176304    2.377    0.579
        45 -10.6652    102.0642     11.6752   5.4656729465e+01   5.7295110514e+01    0.5740866    0.3090802  36.34  0.002180038    1.814    0.449
        46 -10.7713    110.5715     17.5957   5.4981475196e+01   5.4797936010e+01     0.340232       0.2719  -0.45 0.0002148459    1.305    0.234
        47 -11.7253    116.2390     14.9464   5.2691512795e+01   5.3770288284e+01    0.4970168    0.4275674  22.60  0.002250337    1.136    0.120
        48  -9.9956    231.2405     18.8257   3.7941928615e+01   2.5648484875e+01     0.409201    0.3342917 -75.06  0.002618662    1.063    0.059
        49  -9.2298    243.2190     13.4147   3.5765011375e+01   2.3650867212e+01    0.2921184    0.1628745  65.27  0.001166176    1.855    0.461
        50  -9.6740    198.3011     16.6633   4.0600533313e+01   3.3561697305e+01    0.2427884     0.220718  41.61 0.0009161436    1.301    0.231
        51 -11.6223    108.5989      6.3367   5.1023654233e+01   5.6320512138e+01    0.7849672    0.6613001 -80.26   0.00476617    1.483    0.326
        52 -10.7265     65.8640     20.4756   6.9337466019e+01   6.3528240726e+01    0.5409019    0.4020583 -65.27  0.002253913    2.639    0.621
        53 -10.1295    225.5321      8.5686   3.6064773608e+01   2.8075338565e+01    0.3096719    0.2461208 -13.97 0.0008688108    1.640    0.390
        54  -8.4478    220.4643      9.5340   3.6708872690e+01   2.9122002596e+01     0.239662    0.1620596 -56.83  0.001393021    1.322    0.243
        55 -10.2399     38.3607     10.3886   7.5607691620e+01   6.9091378035e+01    0.4094565     0.234933 -16.01  0.001508008    1.669    0.401
        56  -9.8499     36.4186      6.0525   7.4247218385e+01   6.9897436366e+01    0.2339667    0.1588562  26.48 1.998888e-05    1.378    0.274
        57 -10.5850     42.2774      2.9041   6.9978790879e+01   6.9418667191e+01    0.3328015    0.2068508 -15.73 0.0007753915    1.447    0.309
        58  -9.3967    232.3916     10.7872   3.6020681782e+01   2.6302518251e+01    0.3143174    0.1605885  82.74  0.001600015    1.931    0.482
        59 -10.8973    200.2230      6.0408   3.7671822967e+01   3.4212495220e+01    0.5554473    0.3344801 -45.69  0.003007624    1.583    0.368
        60 -10.6507    164.3154      5.7945   4.1550003192e+01   4.2981864034e+01    0.5530505    0.4887938  16.94  0.002454507    1.324    0.245
        61  -9.7048     77.5562      8.7296   6.0058202136e+01   6.2692516742e+01    0.2280817    0.1911852  26.50 0.0002597695    1.044    0.042
        62  -8.6469     77.6172      4.6955   5.8190544628e+01   6.3063555039e+01    0.2031735    0.1209905  22.93 0.0008779044    1.683    0.406
        63  -9.0152    250.6168      7.2744   3.3933365124e+01   2.2774035052e+01     0.226898   0.09016649 -37.79   0.00108595    2.108    0.526
        64 -12.0680    102.3333     53.4698   7.0782444397e+01   5.1695630527e+01     1.603082    0.9350085  22.91  0.006580817    2.383    0.580
        65 -10.1047    135.1777      6.4223   4.5997337865e+01   5.0067998065e+01    0.6321281    0.3595264 -82.59  0.002399184    2.561    0.610
        66 -10.3879    138.9008      2.9043   4.4202964146e+01   4.9463542619e+01    0.5486749    0.4846926  22.02  0.002779437    1.218    0.179
        67  -9.1090    190.1188      6.6314   3.8826205817e+01   3.6581331532e+01    0.4722341    0.2472201 -47.24  0.002087385    1.877    0.467
        68  -9.3388    185.3680      5.3068   3.8968784982e+01   3.7862132836e+01     0.321407    0.2137288   5.25  0.001647501    2.207    0.547
        69  -9.1142    181.3899      4.7130   3.9233630915e+01   3.8887530207e+01    0.4485649    0.2927235  49.78  0.002428733    1.608    0.378
        70  -9.6863     67.4832      6.0302   6.2007038550e+01   6.4872160205e+01     0.266286    0.1853552 -20.32 0.0009912791    1.426    0.299
        71  -9.8794     71.6050      3.6565   5.9538886895e+01   6.4325220105e+01    0.3420236    0.2494877 -37.00  0.001770636    1.679    0.404
        72  -9.8712    243.7666      4.1639   3.3741425118e+01   2.4552263576e+01    0.3904235    0.1535923 -39.01  0.001522937    2.117    0.528
        73  -8.2854    145.7117      5.6430   4.4070787214e+01   4.7572442552e+01    0.1386532   0.08996137  35.53 0.0007024897    1.680    0.405
        74  -8.8255    229.7199      3.2679   3.4539876227e+01   2.7697754752e+01     0.223805    0.1497099   5.70  0.001122324    2.669    0.625
        75  -8.6596     84.6353      3.3892   5.5606268290e+01   6.1764764313e+01    0.2616322    0.1321559  13.18 0.0009179327    2.590    0.614
        76  -9.1032    248.6710      1.8494   3.2934087064e+01   2.3764868184e+01     0.184883    0.1509525  76.86 0.0008520516    1.316    0.240
        77  -9.3071     45.1454    144.4832   1.1149387468e+02   4.0087665520e+01    0.3272665     0.171524 -47.04  0.001525966    2.080    0.519
        78  -9.2670    211.4361    250.3727   9.1273855995e+01  -6.7592008735e+00    0.2322782     0.123061  37.07  0.001337145    1.616    0.381
        79  -9.7358    162.4341    250.2220   1.0021973132e+02   5.6957903073e-01    0.2418705    0.1428122  37.31  0.001406214    1.382    0.276
        80 -10.0789     40.1372    146.4918   1.1308627127e+02   4.0144516230e+01    0.3111294    0.2406095 -34.11   0.00112033    1.649    0.393
        81 -10.8738     38.1833    143.0698   1.1313704273e+02   4.1182550591e+01    0.3882783    0.3252768 -39.91  0.001628219    1.416    0.294
        82  -9.0722     10.5386    144.4825   1.2039965604e+02   4.3325891645e+01    0.1949035    0.1587295 -49.51 0.0005920121    1.413    0.292
        83 -10.6491      6.2777    142.3903   1.2125429598e+02   4.4135336812e+01    0.2723568    0.1766994 -87.72 0.0004306326    1.264    0.209
        84 -10.8414     29.9152    142.7540   1.1526631614e+02   4.2081340889e+01    0.5281975    0.2170624 -58.45  0.001534753    2.048    0.512
        85  -9.4277     27.5295    136.9326   1.1515573292e+02   4.3713206403e+01    0.2641936    0.1376042 -67.35  0.001345719    1.555    0.357
        86 -10.7662    235.6550    139.5129   6.5802343032e+01   6.1712715432e+00    0.3801119    0.2192872 -15.20  0.001601889    2.346    0.574
        87  -9.2560     98.8048    139.9787   9.6247190572e+01   3.3583196756e+01    0.2308794    0.1906698 -87.38 0.0006581097    1.305    0.234
        88  -9.3689     47.4762    139.4645   1.1012996091e+02   4.1053772425e+01     0.256105    0.1980044 -71.08  0.001085705    1.109    0.098
        89 -10.4719     88.2144     97.3556   8.9165481257e+01   4.5530414026e+01    0.6073152    0.4030618 -48.88  0.002873841    1.394    0.283
        90 -11.7021     66.5945    134.4870   1.0401759510e+02   3.9896008864e+01    0.8295391    0.7017406  -2.27 0.0005174251    1.530    0.347
        91 -11.5831     85.9425     88.4527   8.7373536063e+01   4.7920281681e+01     1.294742    0.5740341  38.53  0.005073836    2.426    0.588
        92 -11.9330     77.1724     97.3811   9.2634246142e+01   4.7327076134e+01      1.25165    0.7651181 -46.97  0.005797693    1.483    0.326
        93 -10.7031     73.1609     89.4732   9.1797492709e+01   4.9753936734e+01    0.7358083    0.2813646  38.90  0.002777294    2.836    0.647
        94 -11.3613     61.4111    120.3973   1.0282257910e+02   4.4051625536e+01    0.8532822    0.3813635 -64.30  0.002179424    2.147    0.534
        95 -11.5965     68.5336    117.0177   9.9993718656e+01   4.3917038514e+01     1.631277    0.3917116 -52.63  0.005103666    3.403    0.706
        96  -9.9791      5.1547    147.3234   1.2198666555e+02   4.3059727145e+01     0.234429    0.1619844 -87.28 0.0007039044    1.147    0.128
        97 -10.3845     22.6683    136.2202   1.1636291854e+02   4.4316087410e+01    0.3684851    0.1732282 -61.95  0.001379398    1.720    0.419
        98  -9.9507      3.0610    136.2369   1.2147046019e+02   4.5806368517e+01     0.297078    0.2178006   2.68  0.001914629    1.972    0.493
        99  -9.0173     77.5379    135.5288   1.0116197731e+02   3.8081099349e+01    0.2534576    0.1213695  47.66 0.0007162816    2.321    0.569
       100  -9.8809     55.2884    133.3720   1.0699022996e+02   4.1630957802e+01    0.2605864    0.2374855  51.98  0.001587352    1.211    0.174
       101 -10.2871    248.8649    132.2129   6.2058992805e+01   4.9553103995e+00    0.2588496    0.1889198  19.36  0.001387723    1.655    0.396
       102  -9.7155     73.8273    130.2105   1.0116414109e+02   3.9932379945e+01    0.3539712    0.2357235  75.75  0.001340525    2.000    0.500
       103 -10.2354     55.9264    126.2623   1.0555340591e+02   4.3304102431e+01    0.4038279    0.1816277 -61.04 0.0009706275    1.916    0.478
       104  -9.0895    131.2892    125.0006   8.4240253403e+01   3.0944952806e+01    0.4090387    0.1733094 -35.90  0.001282576    3.097    0.677
       105  -8.6498     74.5303    124.9769   9.9902861104e+01   4.1113639554e+01    0.2144637    0.1309084 -57.91 0.0003965255    1.480    0.324
       106 -10.3063     93.2340    121.3123   9.3702685508e+01   3.9038466778e+01    0.5228695    0.4031031 -54.94  0.002633685    1.212    0.175
       107 -11.2899     75.5358    120.0770   9.8569894068e+01   4.2162261971e+01    0.2584813    0.2459694  46.89 0.0003519078    1.152    0.132
       108  -9.9748     50.9739    117.0445   1.0529589734e+02   4.6159891995e+01    0.3466697    0.1654566 -53.44  0.001550286    1.794    0.443
       109 -10.3186    116.3763    116.4346   8.6030591042e+01   3.5922873981e+01    0.3126349    0.2770851  30.56 0.0006431376    1.207    0.171
       110  -9.7106    104.1629    116.2147   8.9366688692e+01   3.8309544796e+01    0.2928329    0.2787581 -86.76  0.001591169    1.092    0.084
       111  -9.4915    108.5186    114.8861   8.7807650562e+01   3.7804264824e+01    0.4017687     0.235824 -42.52  0.001272242    1.682    0.405
       112  -9.7009     97.4654    115.2839   9.1047790694e+01   3.9741198069e+01    0.2776782    0.2136494  39.91 0.0008875664    1.384    0.277
       113 -10.5384     96.6498    109.3151   8.9787831035e+01   4.1290907508e+01    0.4873159    0.3641632 -53.77  0.001621069    1.271    0.213
       114  -9.2585     82.6011    114.9313   9.5317491463e+01   4.2323419311e+01    0.2714714    0.2164077  49.17 0.0009582919    1.371    0.271
       115 -10.3314     48.2722    112.1602   1.0517437223e+02   4.7661193365e+01    0.4933592    0.3048947  -5.92  0.002219482    2.674    0.626
       116 -10.4929     62.6661    110.0397   1.0026839199e+02   4.6410035093e+01    0.6391903    0.4094657   8.39  0.002918392    2.316    0.568
       117  -8.2644    193.4460    111.4693   6.6685316383e+01   2.0020760256e+01    0.1526934    0.1436336 -31.67 0.0001546273    1.018    0.018
       118 -10.4971    113.2178    107.6364   8.4602876993e+01   3.8560170371e+01    0.6042405    0.3485028  29.45  0.002269731    2.189    0.543
       119 -10.7940    106.2135    102.1434   8.5101358471e+01   4.1169704252e+01    0.7959538    0.5476619  80.71  0.003208073    2.447    0.591
       120  -9.1333     23.9511    108.6784   1.1207614334e+02   5.0862427129e+01    0.2741809    0.1610421  22.41  0.001476631    2.107    0.525
       121  -8.6290    103.6684    108.7327   8.7599587908e+01   4.0145801202e+01    0.1498925    0.1194718  -7.89  0.000270025    1.582    0.368
       122 -11.8104    141.3831    102.6395   7.5778392272e+01   3.3692306880e+01     1.077274    0.5773934  25.16  0.003399174    3.503    0.715
       123 -10.7542    133.4945    102.0541   7.7613337367e+01   3.5561387711e+01    0.9747167    0.3477153 -50.80  0.002825348    3.292    0.696
       124  -9.6939    197.3652    104.5100   6.4157867016e+01   2.0442900025e+01    0.3261187    0.2641439 -12.46 0.0006271998    1.405    0.288
       125 -10.5525     51.5087     92.6616   9.9870045488e+01   5.1946915564e+01    0.7549336    0.3204249 -53.62  0.003218641    1.963    0.491
       126 -10.6041     39.3905     80.5297   1.0110904424e+02   5.6074521633e+01    0.7482014    0.4712971 -77.44  0.003668856    2.075    0.518
       127 -10.5866     49.5242    102.9657   1.0288353050e+02   4.9739546535e+01    0.7057138    0.6107968 -84.39  0.004216026    1.226    0.185
       128 -10.1108     56.2098     86.4267   9.6688902851e+01   5.2808726096e+01    0.5602739    0.3165276  -3.56  0.002155663    3.413    0.707
       129  -9.7740     52.4773     83.2679   9.7151349254e+01   5.3989584211e+01    0.6397473    0.2480262 -46.96  0.002303282    2.206    0.547
       130  -9.6640     40.0523     96.5374   1.0460483762e+02   5.2296684749e+01     0.518878    0.3324189  -2.99  0.002599521    2.213    0.548
       131  -9.9088     54.2284    100.2830   1.0076074466e+02   4.9823734616e+01    0.2882663    0.2086613 -74.26 0.0009797647    1.475    0.322
       132  -9.4556     55.8619     96.1755   9.9260811890e+01   5.0594097221e+01     0.267327    0.1857943 -27.10 0.0008065064    1.656    0.396
       133 -10.1894     39.6774     91.9406   1.0372222243e+02   5.3417141475e+01    0.4536491    0.2755806 -33.50   0.00193489    1.792    0.442
       134 -10.7992     34.3253     91.5602   1.0546700927e+02   5.4028642619e+01    0.5407196    0.3201811   5.72  0.002693739    2.347    0.574
       135  -8.7307     62.7125    102.8402   9.8615091144e+01   4.8132055291e+01    0.3760507    0.2268748 -41.45   0.00166113    1.631    0.387
       136  -9.1649     67.2450    100.5571   9.6614937610e+01   4.8052671502e+01     0.307401    0.2833827 -52.70  0.001802117    1.037    0.036
       137  -9.2447     39.1028    102.7299   1.0620096241e+02   5.0917267375e+01    0.3247201    0.1749079  32.65  0.001392809    2.126    0.530
       138  -9.2987     33.8858     99.3958   1.0723476851e+02   5.2218963152e+01    0.2753336     0.221121 -36.82  0.001674765    1.271    0.214
       139 -10.0013      3.6971     98.2904   1.1680148541e+02   5.4711281191e+01    0.4249643    0.2347053  73.67  0.001683214    2.349    0.574
       140  -9.6374      3.5469     92.4865   1.1598656991e+02   5.6069589307e+01    0.3148882    0.1402883 -56.61  0.001321267    1.672    0.402
       141 -10.9956      3.2642     89.0300   1.1553982717e+02   5.6883426348e+01    0.8637378    0.2030549 -62.70  0.002976016    2.669    0.625
       142 -10.0422      7.5504     85.5923   1.1351245901e+02   5.7436253816e+01    0.2720887    0.1947869 -56.62 0.0007212218    1.096    0.088
       143  -9.0641     10.6621     99.3173   1.1474719428e+02   5.4054092575e+01     0.196282    0.1647173  89.53 0.0007346204    1.228    0.186
       144  -8.8797     93.8552     97.9088   8.7591368689e+01   4.4419420244e+01    0.2302283     0.188879 -28.69  0.000555369    1.259    0.206
       145  -9.7275    156.1057     96.4214   7.0510335313e+01   3.1602497519e+01    0.3991888    0.2225911 -33.58 0.0008865446    1.881    0.468
       146 -10.8658    122.8876     79.8932   7.3856223723e+01   4.2461490933e+01    0.5124491    0.3962359 -25.25  0.001986723    1.360    0.265
       147 -10.9500    116.9297     95.0290   8.0052336176e+01   4.0601912674e+01    0.6144231    0.5359414  56.70  0.001672248    1.243    0.196
       148  -8.6201    126.7755     93.3852   7.6893204846e+01   3.8864599687e+01    0.3171265    0.2159253  31.28 0.0007266211    1.690    0.408
       149 -11.2294    119.3623     87.2977   7.7091860530e+01   4.1725721061e+01    0.6117562    0.4705612 -78.90  0.002302674    1.793    0.442
       150  -9.7176    189.4836     93.9213   6.2858384359e+01   2.4219994183e+01    0.2902753    0.2384665   4.09 0.0008839276    1.498    0.332
       151  -8.2452    139.6599     93.7624   7.3683280356e+01   3.5926921294e+01    0.1536845    0.1210241  16.91 0.0001564789    1.551    0.355
       152  -9.4542    103.6926     92.5362   8.3123912494e+01   4.3790658575e+01    0.5128281    0.2901098  20.77  0.001840399    2.944    0.660
       153  -9.9463    106.6832     87.8441   8.0859162617e+01   4.4217637106e+01    0.4564396     0.209617 -43.25  0.001155629    2.080    0.519
       154  -8.3624    187.4501     89.5051   6.2053682242e+01   2.5504817444e+01    0.1532952    0.1436025 -53.14 0.0001389966    1.033    0.032
       155 -10.1500    112.3542     88.0962   7.9296924637e+01   4.3021360358e+01    0.4486944    0.1973884 -33.60   0.00151139    2.780    0.640
       156  -9.2569    145.7280     87.4135   7.0341269652e+01   3.5806099173e+01    0.4006582    0.2141049  42.50  0.001069489    1.985    0.496
       157  -9.8425    146.1083     83.6854   6.9143038460e+01   3.6441216587e+01    0.4660564    0.3545096  -6.09  0.002108816    1.684    0.406
       158 -11.0566    138.5112     69.1188   6.6465725085e+01   4.0926049860e+01    0.7898722    0.4626599  54.73  0.002145855    1.757    0.431
       159 -11.1941    135.6026     81.6958   7.1105288795e+01   3.9259805839e+01    0.7779975    0.6051497 -16.19  0.003678316    1.478    0.323
       160 -10.7745    145.6079     76.0544   6.6949997883e+01   3.7994767814e+01    0.5443203    0.4199041  -9.52  0.001080532    1.574    0.365
       161 -10.6772    140.4697     76.5218   6.8314621033e+01   3.9118074753e+01    0.6427611    0.4010658 -36.91  0.002798112    1.585    0.369
       162  -9.0590    223.4920     85.7789   5.5038634057e+01   1.7859291106e+01    0.2394312     0.224634 -46.76  0.001395842    1.045    0.043
       163  -9.3492     74.5126     84.2721   8.9876194497e+01   5.0709012464e+01    0.4081278      0.21917  26.15  0.001210147    2.307    0.567
       164 -10.7273    160.4887     81.6782   6.5289577905e+01   3.3401259555e+01    0.5822234    0.3095537  60.02   0.00188645    2.113    0.527
       165 -12.6228    118.4029     68.9155   7.1550727566e+01   4.5541208617e+01     1.228243    0.9146324  36.22  0.002628999    1.387    0.279
       166 -11.0944    105.4745     64.5504   7.3745900371e+01   4.9096408719e+01     1.131896     0.891823 -17.53  0.005799245    1.329    0.248
       167 -10.2619    182.8098    249.3942   9.6321617806e+01  -2.4180596516e+00    0.3291028    0.1458709  33.22  0.001644403    1.958    0.489
       168  -8.4093    217.3222    248.3116   8.9915310996e+01  -7.3381949511e+00    0.1207668   0.07518409   8.79 0.0005564231    1.652    0.395
       169 -11.7253     78.2368     61.3247   8.1288291179e+01   5.4847734455e+01     0.817739     0.564695  15.49   0.00328885    1.713    0.416
       170  -8.5688     30.3046    248.3676   1.2410721329e+02   1.9262107213e+01   0.09234054   0.07923974 -58.04            0    1.746    0.427
       171 -12.2537     31.7465     42.0064   9.2450689765e+01   6.4856714535e+01    0.9888109    0.7130897  -0.90  0.003009898    1.424    0.298
       172 -10.4801    113.3571     32.0882   5.9844364662e+01   5.2474974856e+01     0.465627    0.3027488  -0.33  0.002193777    1.939    0.484
       173 -10.3772    148.0196    247.0947   1.0252275531e+02   3.2646475287e+00    0.1876469    0.1531179  39.75 0.0004549232    1.009    0.009
       174 -10.1436      3.9792    246.0424   1.2829599208e+02   2.2418469549e+01    0.2336647    0.1571733 -63.30  0.001525946    1.940    0.484
       175 -10.2362    174.0380    245.2181   9.7360988316e+01  -4.8613133471e-01    0.2049055     0.148623 -18.93 0.0008293747    1.674    0.402
       176  -9.1390    224.6810    244.6622   8.8048759651e+01  -7.9221078067e+00    0.1227384   0.07508792   6.31 0.0007049455    1.707    0.414
       177 -10.1426    188.8576    243.8990   9.4405455063e+01  -2.5723765165e+00    0.2242571    0.1397467  38.77 0.0007776648    1.387    0.279
       178 -12.5039     49.6541     39.2216   8.3744366824e+01   6.3224444455e+01    0.6079206     0.376907  24.87  0.003337741    1.694    0.410
       179 -11.7918     56.8960     37.3954   8.0092043964e+01   6.2502124301e+01    0.5152173    0.3324659  -9.47  0.001669928    1.738    0.425
       180 -11.6799     88.2675     57.1714   7.6471545797e+01   5.3825944125e+01     0.353195    0.3332739 -12.90   0.00126176    1.074    0.069
       181 -11.6647     86.9869     51.9947   7.5000908849e+01   5.4977765529e+01    0.4239695    0.3466836  25.19 0.0005270128    1.214    0.176
       182  -9.6281    169.1209     78.3852   6.2522497603e+01   3.1913027240e+01    0.3585902    0.2949545  66.69  0.001218656    1.283    0.221
       183 -10.0522    165.9440     73.7115   6.1804771170e+01   3.3511281006e+01    0.4519303    0.3919818  18.79   0.00230989    1.316    0.240
       184  -9.4024    164.4963     68.7702   6.0634848077e+01   3.4716079324e+01     0.312565    0.2500637 -43.82  0.000956587    1.235    0.190
       185  -9.5471     92.6840     76.3396   8.1549356261e+01   4.9306557997e+01    0.3010002    0.2346379  12.23 0.0009935517    1.478    0.324
       186  -9.9094    189.5232     77.3115   5.8349845339e+01   2.7158844636e+01     0.489989    0.2472244  41.23  0.001435692    2.446    0.591
       187  -8.9280     62.4020     98.7950   9.7747879186e+01   4.9132375539e+01    0.2646565    0.1779182 -62.34  0.001321303    1.428    0.300
       188 -10.3317      4.8716     77.0435   1.1291062092e+02   5.9529944132e+01    0.2610621    0.2175173  64.15 0.0009417605    1.505    0.336
       189  -9.6640      3.5373     73.0390   1.1263721537e+02   6.0497092396e+01     0.276159    0.1211831 -53.20  0.001181907    1.660    0.397
       190  -9.2124    204.0353     75.6335   5.5454154358e+01   2.3984626121e+01    0.3928153    0.2504806  22.93   0.00158159    2.623    0.619
       191  -9.5473     70.5686     76.0411   8.8756646142e+01   5.3102778992e+01    0.3619224    0.2799967  13.64  0.001744807    1.455    0.313
       192  -9.2465    248.3252     76.6710   4.9512729942e+01   1.4023999722e+01    0.1435634   0.09120397 -61.04 0.0007050211    1.701    0.412
       193 -11.7024     21.3880     93.4743   1.1023835166e+02   5.4678251516e+01      1.30522    0.7062807  66.31  0.005822379    3.047    0.672
       194 -10.1511     42.7464     24.4407   8.0391393441e+01   6.6537651625e+01    0.2871025    0.1976193  34.70 0.0009234529    1.599    0.375
       195 -12.0729    102.4261     78.2175   7.9152233597e+01   4.7062673822e+01    0.9029784    0.8046711  47.89  0.004887228    1.211    0.174
       196 -10.9358    131.5342     56.6627   6.4084256015e+01   4.4689407056e+01     1.236104    0.7916566   6.25  0.004936959    2.503    0.601
       197 -10.1704    136.3667     42.2482   5.8100512477e+01   4.5724708399e+01    0.6187057    0.3157871 -48.35  0.001954212    2.354    0.575
       198 -10.5217    135.9540     34.0421   5.5384299251e+01   4.6924287028e+01    0.5213734    0.3131428  10.79  0.002139595    2.591    0.614
       199 -10.8404    148.9608     34.2340   5.2877175824e+01   4.3716640283e+01     1.361607    0.3829293  51.43  0.004520388    3.160    0.684
       200 -11.4493    164.4923     55.0957   5.6518870475e+01   3.6927428883e+01     1.523698    0.9542204 -68.12  0.006316724    2.232    0.552
       201 -11.5329    154.9090     43.2251   5.4648069969e+01   4.1045707188e+01    0.9582019    0.6305846  58.17  0.003793153    1.457    0.314
       202 -10.0257    118.1410     42.4235   6.2447160633e+01   4.9977150331e+01    0.4382384    0.3175125 -30.22  0.002243788    1.401    0.286
       203 -11.4296    149.2585     65.5106   6.2852737665e+01   3.8986501830e+01    0.9690752     0.510269 -36.25   0.00335109    1.882    0.469
       204 -11.1191    141.9461     44.7353   5.7736323811e+01   4.4021545398e+01    0.4019642    0.2959659  14.77 0.0005009563    1.689    0.408
       205 -11.0580    145.7289     48.3717   5.8135692221e+01   4.2570555288e+01    0.3556274    0.2669967  47.78 0.0002629904    1.302    0.232
       206 -10.5391    143.7957     58.1204   6.1717153885e+01   4.1532890053e+01    0.2911401    0.2612824  57.80 0.0004341899    1.115    0.103
       207 -12.6469    147.2592     53.8054   5.9572360235e+01   4.1374882408e+01    0.4079404    0.3581533  41.97 0.0003798488    1.138    0.122
       208  -9.5509    177.5262     68.3766   5.8009254698e+01   3.1582814963e+01    0.4657871    0.3088455  63.87  0.002132339    1.581    0.367
       209  -8.5751     46.1838     68.7756   9.5372597590e+01   5.7923756602e+01    0.1861275    0.1352913 -27.61 0.0005464262    1.333    0.250
       210  -8.6525    248.3530     68.2814   4.7585512322e+01   1.5289498372e+01    0.1249119    0.1035425  17.99 0.0007015028    1.655    0.396
       211  -8.8846    132.0079     66.9934   6.7373236028e+01   4.2821515903e+01    0.2418089    0.1815359  14.95  0.001088705    1.658    0.397
       212  -9.2971     82.8382     67.2190   8.1751261218e+01   5.2910879056e+01    0.2898268    0.1671668  39.11  0.001326282    1.831    0.454
       213  -8.9454     87.7730     65.5992   7.9580356827e+01   5.2345844991e+01    0.3093532    0.2292619 -35.26  0.001595248    1.268    0.211
       214  -8.6687    226.2876     65.5544   4.9655848931e+01   2.0461745038e+01    0.2554875    0.1157963 -34.32 0.0009952039    2.045    0.511
       215  -9.5249    207.3132     60.6844   5.1026778970e+01   2.5587232226e+01    0.3711879    0.2454775 -23.59  0.001761074    1.710    0.415
       216  -8.3767    182.0020     61.2355   5.5168256728e+01   3.1636345811e+01    0.2681762    0.1957376  45.82 0.0004112766    1.462    0.316
       217 -11.0056    193.2648     54.9380   5.1572943449e+01   2.9837325297e+01    0.6260136     0.434726  31.57  0.002829466    1.903    0.475
       218 -10.0275    174.1654     56.7801   5.5250261422e+01   3.4267471211e+01    0.6889799    0.3838753  -8.75  0.002227072    3.375    0.704
       219  -9.8104    180.3888     43.8955   5.0459909295e+01   3.4602349369e+01    0.4009172    0.2924527  12.03  0.001437826    1.923    0.480
       220 -11.4883    184.4767     55.3479   5.3078973283e+01   3.1933361508e+01    0.7420818    0.3375882 -45.13  0.002919756    2.196    0.545
       221 -10.2328    179.3989     49.1667   5.2139516820e+01   3.4103186070e+01    0.3845738    0.3295666 -33.27  0.001958328    1.197    0.164
       222 -10.5369    137.7462     59.1030   6.3415917156e+01   4.2822797500e+01    0.2986901    0.2471016  27.06  0.000330542    1.296    0.228
       223  -8.8876    212.0504     59.9455   5.0164586164e+01   2.4582469722e+01    0.2118445     0.172456  17.88 0.0004668265    1.631    0.387
       224  -9.2174    200.6777     59.7132   5.1744909627e+01   2.7319743599e+01    0.3230509    0.1600357  57.75  0.001300458    2.034    0.508
       225  -8.3141    220.3324     59.6688   4.8976305344e+01   2.2702552198e+01    0.1517207   0.09676667 -64.04 0.0007052113    1.724    0.420
       226  -8.9343    250.4619     58.5245   4.5131416186e+01   1.6283106361e+01    0.1323176    0.1121344 -52.09 0.0002566996    1.018    0.018
       227 -10.1539     71.0191     52.5711   8.0679799213e+01   5.7679462544e+01    0.3615797    0.2541395 -34.85  0.001371603    1.306    0.234
       228  -9.7256    233.4460     55.9878   4.6448552414e+01   2.0290862493e+01    0.4502233    0.2588768  55.66  0.002216343    1.911    0.477
       229  -8.9526    224.1402     56.1481   4.7613797065e+01   2.2353344121e+01    0.1910201    0.1864171 -17.05 0.0004437352    1.198    0.165
       230  -9.2740     11.9345     56.2513   1.0551254807e+02   6.3657384583e+01    0.1832642    0.1620974  36.12  0.001297222    1.475    0.322
       231  -9.4329    244.1065     54.9408   4.4999707779e+01   1.8130084150e+01    0.2023686    0.1766656 -49.87 0.0005030605    1.066    0.062
       232  -9.7891     51.2917     53.1337   8.8317278052e+01   6.0474883691e+01    0.3060386    0.2008184   1.95  0.001241155    1.851    0.460
       233 -11.5804     58.1450     48.6955   8.4029051573e+01   6.0363038356e+01    0.6823478    0.6624414  48.76  0.003513496    1.360    0.264
       234  -9.7511     63.7767     47.0293   8.1256021105e+01   5.9819844307e+01    0.2576519    0.1822532 -35.91 0.0007799948    1.296    0.228
       235 -10.7668     66.8031     43.5402   7.8777321458e+01   5.9943633664e+01    0.4288169     0.284633 -40.09  0.001833146    1.470    0.320
       236  -9.6821    238.1126     52.0013   4.4974011851e+01   1.9837946666e+01    0.2007525    0.1787151 -60.80  0.001229679    1.045    0.043
       237 -10.1903    228.5214     51.0472   4.5837249351e+01   2.2096928783e+01    0.4116142    0.2231156 -56.87  0.001176594    1.902    0.474
       238  -8.7664    211.8938     51.0778   4.7903794624e+01   2.5925900266e+01    0.3516001    0.1902249 -33.57  0.001599982    1.786    0.440
       239  -8.8084      9.9625     52.2660   1.0528067133e+02   6.4612866178e+01     0.160072    0.1266903 -29.93 0.0003594206    1.164    0.141
       240 -12.0294     32.3242     58.8550   9.7824609989e+01   6.1478659646e+01    0.5753383    0.4386645  16.97  0.003594151    1.476    0.323
       241  -9.6261    198.4821     54.4187   5.0647768919e+01   2.8645806998e+01    0.2223179    0.2124383  75.45 0.0005161496    1.091    0.084
       242 -12.0265     70.8077     68.8461   8.6400650971e+01   5.4569431544e+01     1.558712    0.8459485  50.09  0.006730265    2.488    0.598
       243 -10.2015    172.6850     47.1429   5.2663933627e+01   3.6064799911e+01    0.3860816    0.3259916  87.05  0.002080792    1.217    0.178
       244 -10.4978    207.5089     46.0192   4.7168382297e+01   2.7681309633e+01     0.563203    0.1954126  57.80  0.002121226    2.780    0.640
       245  -8.6342    207.7815     41.9680   4.6080766586e+01   2.8172871487e+01    0.1999738     0.172331  -3.07 0.0004746884    1.455    0.313
       246  -9.5583    220.0405     43.6562   4.5018833539e+01   2.5062057593e+01    0.3967547    0.1664279 -37.45  0.001376149    2.123    0.529
       247  -9.0207    211.0000    240.0222   8.9752359675e+01  -5.3669583132e+00    0.1713471   0.06568755 -38.09  0.000725069    2.888    0.654
       248 -10.9671     14.3564    237.8007   1.2621866649e+02   2.2899599589e+01    0.4050964    0.1772909  80.20  0.002333792    2.062    0.515
       249  -9.7208     12.9741    232.1553   1.2616507455e+02   2.4103678648e+01    0.2502622    0.1216391  56.90  0.001141808    1.597    0.374
       250 -10.3152    193.1801    237.6183   9.2651039045e+01  -2.3507350402e+00    0.3216889    0.1538873 -47.01  0.001592192    2.684    0.627
       251 -11.5347     15.8764     30.8398   9.5629474465e+01   6.8356069408e+01      0.23677    0.2037522   2.99 0.0004498119    1.299    0.230
       252  -9.6415    190.4035    236.1690   9.2946846727e+01  -1.7135265363e+00    0.2104547    0.1734726 -69.28 0.0007242538    1.921    0.479
       253  -8.8361     55.9878    238.2305   1.1893835882e+02   1.8093860581e+01    0.1639177    0.1266923  68.74  0.001161279    1.020    0.020
       254 -10.3994    141.9402    244.1788   1.0330735054e+02   4.6686581366e+00    0.3419128    0.2537956  28.07  0.001609999    1.319    0.242
       255  -9.5099    182.4815    234.8859   9.4246647063e+01  -2.8373725901e-01    0.2964114    0.1254362  48.96  0.001260538    2.807    0.644
       256  -8.9033     21.0392    232.3770   1.2478534791e+02   2.3234774921e+01    0.1536409    0.1082496  62.00 0.0007149681    1.125    0.111
       257  -8.4315    227.1787    231.6205   8.5484908816e+01  -6.6251363287e+00    0.1646156    0.0940458  25.29 0.0003967228    1.565    0.361
       258  -8.8647    219.1597    230.8789   8.6794696873e+01  -5.3541999577e+00     0.178927    0.1498607  30.48 0.0006132178    1.276    0.216
       259  -9.2247    135.8486    229.9817   1.0264395353e+02   8.0098034223e+00    0.1959039    0.1442951 -18.67   0.00108714    1.994    0.499
       260  -9.7218    248.6988     44.4439   4.2143687989e+01   1.8616465120e+01     0.280928    0.1853452 -11.78   0.00109993    2.287    0.563
       261 -10.1938    116.9479     49.6968   6.5358670813e+01   4.9151139566e+01    0.5083681     0.371872   6.87   0.00187121    1.662    0.398
       262  -8.7834    190.2790     41.7772   4.8381044948e+01   3.2445045523e+01    0.4220787    0.2156207 -43.41  0.001849653    1.888    0.470
       263 -11.2071    192.4852     32.5740   4.5546213164e+01   3.3105522523e+01    0.5025839    0.3245054 -34.36  0.001115033    1.550    0.355
       264  -9.7881    234.9990     40.5475   4.2624127073e+01   2.2096680940e+01    0.3774888    0.2573547  -0.87  0.001318803    2.484    0.597
       265  -9.8834    214.9738     40.3989   4.4800982854e+01   2.6682795576e+01    0.4897936    0.3275369  -2.52  0.002279741    2.395    0.583
       266  -7.8093      2.6187     43.7051   1.0615187076e+02   6.6779640304e+01    0.1273987   0.06293112 -34.34  0.000701992    1.757    0.431
       267  -8.6500    197.2303     41.7459   4.7403211405e+01   3.0747181880e+01    0.1776981    0.1568525  40.83 0.0003702542    1.299    0.230
       268 -10.5303    121.0749     54.6475   6.6016483734e+01   4.7429538248e+01    0.5199533     0.465062  35.83  0.002086847    1.094    0.086
       269  -8.6277    225.1940     41.5711   4.3918577214e+01   2.4161370314e+01    0.1792482     0.118225  55.51 0.0009317427    1.665    0.399
       270  -9.5983    173.4759     38.8606   5.0081399327e+01   3.7006894934e+01    0.4190874    0.2843702   8.08  0.001894341    2.194    0.544
       271 -10.1267    140.1288     52.3291   6.0645493481e+01   4.3332629087e+01    0.4416124    0.3041136  37.98  0.001307688    1.536    0.349
       272  -8.7843    202.2550    229.0081   8.9587920230e+01  -2.5256411699e+00    0.1676694    0.1408379  15.76 0.0004352121    1.025    0.024
       273  -8.8212    137.3722    224.7656   1.0162579672e+02   8.6837399501e+00    0.1669198     0.119004 -39.69 0.0007882537    1.694    0.410
       274 -10.4112    183.1177     33.6091   4.7110401461e+01   3.5285886669e+01     0.714601    0.4189711  -7.07  0.002990699    2.674    0.626
       275 -10.3544    178.7850     30.5619   4.6856071341e+01   3.6741726384e+01    0.6324959    0.3422854  47.34  0.002835989    1.985    0.496
       276  -9.1454     41.2519    221.5671   1.2040412179e+02   2.3118296529e+01    0.1798692    0.1260389 -58.53 0.0007087068    1.737    0.424
       277 -10.4403    179.8367     25.0458   4.5127290432e+01   3.7139427119e+01    0.5247189    0.2989768 -67.80 0.0002894836    2.178    0.541
       278  -8.4911    167.5382    220.5238   9.4926730975e+01   4.4186584321e+00    0.1301708    0.1136888  28.65 0.0001144622    1.007    0.007
       279  -8.6704    235.2096    219.3960   8.1964505672e+01  -6.1720923454e+00    0.1682783    0.1058025  42.02 0.0009599548    1.774    0.436
       280  -9.5332      2.9678    213.3125   1.2694535085e+02   2.8754092536e+01    0.1526051    0.1137128  73.36 0.0006679016    1.070    0.065
       281  -9.6500     13.3472    211.8703   1.2497467283e+02   2.8072040977e+01    0.2311881   0.08465546 -87.19   0.00110865    2.581    0.613
       282  -8.7871    143.2668    209.2868   9.8129859993e+01   1.0536860353e+01    0.1959179    0.1156338 -66.72 0.0008899921    2.381    0.580
       283  -9.3339    236.0341    207.3203   7.9640232089e+01  -4.6286385574e+00    0.1714744    0.1372954  16.88 0.0003390041    1.127    0.113
       284 -10.1643    202.0848     37.9104   4.5740488063e+01   3.0082054632e+01    0.3084355    0.2393951 -56.20            0    1.221    0.181
       285  -8.9008    227.6818     31.2781   4.1182613475e+01   2.4938594245e+01    0.2648537    0.1700491 -74.90 0.0008614425    1.599    0.375
       286 -10.3567    226.6164     27.5933   4.0413425278e+01   2.5639434375e+01    0.6515002    0.3496862  89.00  0.003100127    2.091    0.522
       287 -10.1613    219.4762     35.0833   4.2963319777e+01   2.6332283661e+01    0.4344227    0.2238185 -50.19  0.001387367    1.821    0.451
       288  -9.7370    223.8142     34.5840   4.2373813591e+01   2.5397407148e+01    0.3258444    0.2440597 -32.32  0.001033791    1.374    0.272
       289 -10.0728    207.0223     33.5028   4.3983737548e+01   2.9466959259e+01    0.4585423    0.2667232 -85.54  0.002108883    2.033    0.508
       290  -9.1164    124.0407    206.0066   1.0171199898e+02   1.4431809629e+01    0.1909598    0.1722071  55.76            0    1.010    0.010
       291  -9.9136    234.0585    199.5282   7.8533194492e+01  -3.2015648075e+00    0.2177235     0.154673  -5.55   0.00126557    1.349    0.259
       292  -9.4456     27.5088    193.6426   1.2094303806e+02   3.0508156379e+01    0.2068628    0.1793073  66.47  0.001142562    1.208    0.172
       293  -9.7057     11.3090    192.8074   1.2416277168e+02   3.2270877936e+01    0.2749321    0.1346849  42.45  0.001598775    1.942    0.485
       294  -8.3897     32.6988    192.6389   1.1978331716e+02   3.0179875740e+01    0.1160641   0.08448239 -51.63 0.0007036434    1.721    0.419
       295  -8.5994    215.6479    189.6918   7.9999960147e+01   1.3284625097e+00    0.1419746   0.09574693   4.50 0.0007043323    1.716    0.417
       296  -9.2315     11.4392    184.7246   1.2357833127e+02   3.4021872394e+01    0.1937008    0.1535951 -64.06 0.0006277225    1.419    0.295
       297  -9.5179    211.1356     17.1651   3.9404208453e+01   3.0448525967e+01    0.3872034    0.1809141  57.20  0.001566176    2.171    0.539
       298  -8.5874      8.0078    186.0000   1.2436920480e+02   3.4045243156e+01    0.1384229    0.1059377  80.61            0    1.039    0.038
       299  -9.6523    122.0458     35.9778   5.9161783729e+01   4.9973804816e+01    0.4968863     0.189783  55.78  0.001325846    2.490    0.598
       300  -8.8794      3.2152     34.5884   1.0311872371e+02   6.8532035043e+01    0.3775382    0.1176363 -35.05   0.00135211    2.995    0.666
       301 -10.5467    245.3987     33.6211   4.0033883303e+01   2.0742188362e+01    0.4198211    0.2783505  74.29  0.001716243    1.555    0.357
       302 -10.8029    235.8286     32.6645   4.0709010620e+01   2.2941948371e+01    0.4541702    0.3533658   4.14  0.001382998    1.936    0.483
       303 -10.4936    238.8415     26.0396   3.8918719518e+01   2.3108735561e+01     0.490406    0.2579233  60.03  0.001883708    2.033    0.508
       304  -8.5792    199.1798     31.8119   4.4489608989e+01   3.1568520297e+01    0.1811309    0.1601078  34.61 0.0007741167    1.355    0.262
       305 -10.4151    167.6637     29.1373   4.8089547037e+01   3.9688418383e+01     0.251422    0.2360731  56.18 0.0004114376    1.083    0.076
       306  -9.6941    167.0619     24.8201   4.6879283224e+01   4.0346033816e+01    0.3143262    0.2251039 -47.20  0.000846291    1.440    0.305
       307  -9.6838    249.1464    180.9863   7.2315584774e+01  -2.8103827520e+00     0.306938   0.07938424 -36.13  0.001083685    3.489    0.713
       308  -9.6327    147.4783     23.9692   4.9786368144e+01   4.5312385917e+01    0.2641355    0.1897874  59.37 0.0006700807    1.282    0.220
       309  -8.3814     18.3242    182.6681   1.2198642027e+02   3.3845315811e+01    0.1296128    0.0703326  68.90 0.0007050582    1.705    0.414
       310  -9.4723    244.0000    179.9768   7.2983046574e+01  -1.8440543645e+00    0.2160584    0.0663211 -36.19 0.0008065883    2.971    0.663
       311 -10.5799    115.1662     23.8650   5.6307688481e+01   5.3062915492e+01    0.4651072    0.3187998  55.31  0.001007092    1.376    0.273
       312  -9.4095     26.6546    179.3846   1.1992020195e+02   3.3774226454e+01     0.295575    0.1415817 -57.12  0.001508738    2.132    0.531
       313 -10.1574      1.7998    178.5514   1.2514398718e+02   3.6203267290e+01    0.3317207    0.1327092 -77.82  0.001721433    1.970    0.492
       314  -8.9877     36.8108    179.2851   1.1766804214e+02   3.2734918574e+01    0.2025006    0.1307283  59.83 0.0007575589    1.449    0.310
       315  -8.8017     80.0382    176.9377   1.0740148640e+02   2.7753346814e+01    0.2428312    0.1222284 -44.84  0.001015998    2.531    0.605
       316  -8.6692     70.4807    174.5285   1.0933249176e+02   2.9678586228e+01    0.1352903    0.1190327  87.07 0.0001238221    1.014    0.014
       317 -10.2094    246.1481    171.2604   7.0850587527e+01  -8.5097418557e-01    0.2440611    0.1637199 -53.09  0.001243677    2.103    0.525
       318 -10.3511    111.2581     13.3955   5.3195109344e+01   5.5067022031e+01    0.2628119    0.1807733  71.37  0.000751837    1.621    0.383
       319  -8.6446    185.4698     24.3259   4.4181564803e+01   3.5829320948e+01    0.2929384    0.1665073 -51.46  0.001172615    1.811    0.448
       320  -9.4224    160.5951     24.8772   4.7891648602e+01   4.1952508904e+01    0.3004367    0.2205107 -85.08  0.001557285    1.508    0.337
       321  -8.1772    140.4379     23.4600   5.0887544140e+01   4.7099642279e+01    0.1381095    0.1261455  46.87 0.0003849029    1.042    0.041
       322  -8.6009     75.0000     19.0000   6.5511246240e+01   6.2061085462e+01     0.245353     0.156466  48.82  0.001175017    1.608    0.378
       323  -9.5241     83.0276     20.8189   6.3740305811e+01   6.0301677985e+01     0.361552    0.2471152  22.71  0.001985867    1.445    0.308
       324  -9.4657     79.5562     18.8233   6.3958411357e+01   6.1214595163e+01    0.4490572    0.1696295  41.24  0.001878533    2.489    0.598
       325 -10.3700    246.8744     18.8275   3.6657159351e+01   2.2246356114e+01    0.4617832    0.2204249  76.73  0.002178025    2.125    0.529
       326 -12.2402     32.7329    166.0146   1.1724616986e+02   3.6246104167e+01    0.3645893    0.2507435 -59.80 0.0008079476    1.433    0.302
       327 -10.4020    189.0553     19.3348   4.2362308383e+01   3.5514565319e+01    0.2391721     0.212643  59.62 0.0003089402    1.176    0.150
       328  -9.1858    238.4979     15.4996   3.6588285508e+01   2.4432781943e+01      0.27185    0.1590281  66.86  0.001312937    1.735    0.424
       329  -9.4816     18.9072    165.8181   1.2043138461e+02   3.7626911897e+01    0.1806265    0.1481241 -72.40  0.000883399    1.201    0.167
       330  -8.1891     44.2778     19.2922   7.7349458333e+01   6.7078227487e+01    0.1228112   0.08040596  -2.91 0.0003144448    1.525    0.344
       331  -8.8409     53.8201    179.3889   1.1383245036e+02   3.0733308457e+01    0.1648712    0.1263483  23.95  0.000953826    1.685    0.406
       332 -10.1998      1.8764    158.9286   1.2372343546e+02   4.0613915047e+01    0.5020915    0.1611779 -83.46  0.001538308    2.831    0.647
       333  -9.0733     71.4693     16.7085   6.5660793743e+01   6.2987236790e+01    0.3051024    0.1306575  34.23  0.001323316    2.450    0.592
       334  -9.9790     12.7099    166.1229   1.2186284876e+02   3.8100715062e+01     0.212258    0.1804194  64.61  0.001089473    1.227    0.185
       335 -10.2023     36.4316     27.0713   8.4368262486e+01   6.6929841935e+01    0.2409971    0.1811143 -21.93 0.0007391749    1.086    0.080
       336  -9.0477    193.8747     14.7428   4.0577064390e+01   3.4840308106e+01    0.2488708    0.1580186 -79.96  0.001269958    1.643    0.391
       337  -9.4426    221.8823     12.8068   3.7356496800e+01   2.8442767167e+01    0.2594028    0.1605816  68.37  0.001274943    1.569    0.363
       338  -9.4381     28.5108    158.2808   1.1742624793e+02   3.8494112592e+01    0.1949031    0.1642934  48.24 0.0003059062    1.322    0.244
       339 -11.9792     48.3510    124.2029   1.0738807382e+02   4.4706028089e+01    0.9983518    0.6429996 -59.65  0.004676629    1.326    0.246
       340 -11.3719     37.3418    110.7734   1.0829496216e+02   4.9152994883e+01    0.8262086    0.7098963  26.66  0.003745567    1.391    0.281
       341 -10.9084      4.4780     54.7701   1.0826280547e+02   6.4408532353e+01    0.7748579    0.3980892 -61.14   0.00438113    1.572    0.364
       342 -12.6509     15.6525    151.3785   1.1982688925e+02   4.1288592579e+01    0.9347787    0.6828243 -47.73  0.003158167    1.583    0.368
       343  -9.1887     66.2947     12.5891   6.5534238092e+01   6.4397372886e+01    0.2245303    0.1160161  50.25  0.001125679    2.032    0.508
       344 -10.7756     34.6733    131.4761   1.1245720292e+02   4.4365769281e+01    0.4252322    0.2198534 -71.25 0.0001697506    1.666    0.400
       345 -13.2084     12.2395    126.3614   1.1797912195e+02   4.7511745952e+01     1.005975    0.4695569 -85.17 0.0009477633    2.104    0.525
       346 -12.4583     34.6707    121.4655   1.1092723690e+02   4.6811154124e+01     1.185448     1.124729  11.57  0.007882103    1.298    0.230
       347 -10.6162     19.6100    118.7413   1.1490673987e+02   4.8786533833e+01    0.4703628    0.2446265 -62.76   0.00134077    1.511    0.338
       348 -12.3540     11.2641    107.2670   1.1575018873e+02   5.2135670927e+01     1.513352    0.5103562 -47.75  0.006499229    2.731    0.634
       349 -10.8361     26.0210     84.8902   1.0691638782e+02   5.6308929736e+01    0.6382254    0.4310137  -1.60  0.003628137    1.881    0.468
       350 -11.1414     24.9870     66.7514   1.0298852397e+02   6.0457413625e+01     1.056263    0.2605017 -46.62   0.00398606    3.050    0.672
       351  -9.4351    235.4930    249.3606   8.6917119503e+01  -9.9582667790e+00    0.2170469    0.1183071  34.95 0.0008603153    1.628    0.386
       352 -12.3029     55.5507     67.0178   9.1322074058e+01   5.7136756971e+01      1.16151    0.6480117 -43.70  0.003624673    1.559    0.359
       353 -11.5436     18.7076     82.7090   1.0905337288e+02   5.7374328323e+01    0.8600685    0.3607633 -46.50  0.002930095    1.992    0.498
       354 -11.4421     30.8282     72.6522   1.0227048653e+02   5.8660518875e+01    0.8259498    0.3317249 -43.20  0.003676077    2.174    0.540
       355 -11.3567     40.4237     65.8703   9.6715233122e+01   5.9184064959e+01     1.228471    0.5337578 -29.74  0.004700807    3.265    0.694
       356 -11.2760     43.0658     51.8568   9.1166169021e+01   6.1739890390e+01    0.6186557     0.330935 -29.39  0.003011049    1.930    0.482
       357 -10.6487     36.7578     51.9069   9.3779553019e+01   6.2435025511e+01    0.3085933     0.225503 -27.79 0.0007335625    1.204    0.169
       358  -9.2619    249.5020    155.0185   6.6906332670e+01   1.1473052981e+00    0.1844218    0.1034102 -52.13 0.0006178896    2.470    0.595
       359 -10.1090     45.4574    151.1845   1.1234259875e+02   3.8421229945e+01    0.3603024    0.2025166 -65.93 0.0009188656    1.527    0.345
       360 -10.0744     30.6920    151.6009   1.1613940447e+02   3.9874783842e+01    0.2654977    0.1922004 -66.99 0.0005419747    1.211    0.174
       361  -8.7135     34.4860    150.4755   1.1504911248e+02   3.9767555141e+01    0.1304738    0.1079573 -78.20 5.691446e-05    1.043    0.042
