#   1 NUMBER                 Running object number                                     
#   2 MAG_AUTO               Kron-like elliptical aperture magnitude                    [mag]
#   3 X_IMAGE                Object position along x                                    [pixel]
#   4 Y_IMAGE                Object position along y                                    [pixel]
#   5 X_WORLD                Barycenter position along world x axis                     [deg]
#   6 Y_WORLD                Barycenter position along world y axis                     [deg]
#   7 A_WORLD                Profile RMS along major axis (world units)                 [deg]
#   8 B_WORLD                Profile RMS along minor axis (world units)                 [deg]
#   9 THETA_WORLD            Position angle (CCW/world-x)                               [deg]
#  10 FWHM_WORLD             FWHM assuming a gaussian core                              [deg]
#  11 ELONGATION             A_IMAGE/B_IMAGE                                           
#  12 ELLIPTICITY            1 - B_IMAGE/A_IMAGE                                       
         1 -11.1192     78.3196     31.6678   7.3236579443e+01   5.9994074986e+01    0.4987814    0.3198558 -30.34  0.001568034    1.502    0.334
         2 -10.7249     30.3851     24.1716   9.0004808959e+01   6.8105791850e+01    0.4365836    0.3514602 -17.22  0.002282267    1.066    0.062
         3 -11.1069     38.5700     17.7589   8.3180847816e+01   6.8183222677e+01    0.3482074    0.2236674  12.83 0.0001837569    1.530    0.347
         4  -9.8569     34.8217     13.9920   8.3153661237e+01   6.9198909718e+01    0.2951235    0.1756047 -18.09  0.001712266    1.531    0.347
         5 -10.3759      2.1252     21.8682   1.0350783741e+02   7.0736705570e+01     0.283187    0.1815375 -43.11  0.001330452    1.158    0.136
         6 -10.7241    111.1334     18.7843   5.8027895741e+01   5.4802618332e+01    0.4045239    0.3104178  27.99   0.00129297    1.235    0.190
         7  -9.1369     85.0000     12.0244   6.2398803345e+01   6.1192286049e+01    0.2746515     0.137304 -32.64 0.0007991618    2.122    0.529
         8 -10.1113     86.9395     17.5579   6.4260065489e+01   6.0184991942e+01    0.3858038    0.3066277   6.19  0.001618332    1.165    0.141
         9 -10.6449    149.8046     18.3553   4.9797694736e+01   4.5423424830e+01    0.3338148    0.3024643  70.60 0.0006056761    1.062    0.058
        10  -9.8405    154.5844     17.7174   4.8775863725e+01   4.4275369917e+01    0.6841778    0.2828424  -8.83  0.002186877    4.456    0.776
        11 -10.3019    101.4418     16.5080   5.9610353549e+01   5.7231235692e+01    0.5121208    0.3079034  50.25  0.001857878    1.511    0.338
        12  -9.9129    102.4796     13.4647   5.8069196657e+01   5.7321861749e+01    0.2644222    0.2252585  51.93 1.708769e-05    1.184    0.155
        13  -9.9715     23.8636      3.8305   8.3520962536e+01   7.1893795435e+01    0.3964704    0.3660797 -48.85  0.002895642    1.909    0.476
        14 -10.4572     16.9206      3.4458   8.7113735154e+01   7.2663357211e+01    0.6459622    0.3367277  19.82   0.00389618    1.927    0.481
        15 -10.9869     22.1302     15.5062   9.0265574243e+01   7.0342929052e+01    0.5326865    0.4213297  -6.77  0.003806967    1.139    0.122
        16 -10.3583     10.2933     15.0744   9.6396057238e+01   7.1412317099e+01    0.4254471    0.2153859 -44.97  0.002220316    1.602    0.376
        17  -9.4554      8.0333     12.0507   9.6317849447e+01   7.2079079017e+01    0.3105548    0.1213557 -47.84   0.00163555    2.122    0.529
        18 -10.7121      7.0252      3.2243   9.2711172595e+01   7.3554532712e+01    0.4507124    0.3816903  54.94   0.00279639    2.446    0.591
        19 -10.4318     19.3282     10.9111   8.9569772684e+01   7.1327395546e+01    0.2107551     0.157915  -6.89 0.0003832681    1.128    0.114
        20 -11.0111     15.9646      8.4560   9.0203360115e+01   7.2012615654e+01    0.4643591    0.1895923  25.79  0.001657985    2.576    0.612
        21 -10.6465    182.1434     13.1746   4.3403841234e+01   3.7709875344e+01    0.6191827    0.3014021  60.25  0.002799811    1.835    0.455
        22  -9.2370    187.3745      8.7481   4.1527803422e+01   3.6835466297e+01    0.2700804    0.2606064 -42.22  0.001010439    1.164    0.141
        23 -10.4157     58.1384     13.3676   7.2512385680e+01   6.5966875007e+01    0.4414236     0.281576  35.22  0.001586589    1.492    0.330
        24 -10.3211    120.0509     12.7385   5.3582337470e+01   5.3341025511e+01    0.3702634    0.2814911 -44.99  0.001232455    1.554    0.357
        25  -9.9421    123.3210     11.6706   5.2476606139e+01   5.2661378737e+01      0.34956    0.2713673  33.63  0.001253903    1.220    0.180
        26  -9.6144    210.3492      9.5688   3.9327936652e+01   3.1069321384e+01    0.3648563    0.2216808 -44.42  0.001396483    1.564    0.361
        27  -9.0151    212.8264      5.8118   3.8158758013e+01   3.0860795446e+01    0.2253389     0.172364  86.38   0.00133988    1.172    0.147
        28  -9.9455     47.4341      8.9358   7.4782463877e+01   6.8183410431e+01    0.3182427    0.2140626  10.86  0.001277395    1.351    0.260
        29  -8.6574    238.1494      9.1584   3.6810516955e+01   2.4618153467e+01    0.1838132    0.1221162 -61.14 0.0007222382    1.325    0.246
        30  -9.3241     40.1958      8.3963   7.7775391765e+01   6.9279812303e+01    0.2344962    0.1725447 -21.44  0.001119123    1.223    0.182
        31  -8.8870     37.8321      4.7300   7.6960470505e+01   7.0066368625e+01    0.1595946     0.138772  10.71 0.0002247903    1.332    0.249
        32  -8.7993    129.0646     10.8656   5.1010457402e+01   5.1344883456e+01    0.1963119     0.177753 -68.62 0.0005110214    1.279    0.218
        33  -8.2082     73.3108      8.2766   6.4434953556e+01   6.3877834274e+01     0.132734   0.08246195  21.29 0.0003410983    1.558    0.358
        34  -9.0327      1.7554      7.4891   9.7873183235e+01   7.3248894451e+01    0.2238759   0.09084346 -28.32 0.0009341044    2.199    0.545
        35  -8.6789    158.3921      6.6636   4.4629646432e+01   4.4387190653e+01    0.2306325    0.1495833  82.46 0.0006113033    1.565    0.361
        36  -9.1510     78.6196      6.8978   6.2039377873e+01   6.2993751310e+01    0.2765032    0.1569281  29.31  0.001421474    1.670    0.401
        37  -8.8011    108.0064      5.9567   5.3611658354e+01   5.6786387390e+01    0.2056948    0.1812806  35.22 0.0006855695    1.030    0.029
        38  -9.4424    104.5985      2.1410   5.2833205535e+01   5.7887683318e+01    0.4309904     0.231783  84.00  0.001693012    3.449    0.710
        39  -7.9515    234.2915      5.6556   3.6320994901e+01   2.5865154207e+01    0.1367421   0.07619649 -60.31 0.0007027346    1.658    0.397
        40  -9.1872    127.0740      5.0447   4.9250852939e+01   5.2351471441e+01    0.2615384     0.174957  63.22  0.001009276    1.357    0.263
        41  -9.8991     90.1678      3.5002   5.7065672736e+01   6.0945630460e+01    0.3233105     0.241235  66.53  0.001151094    1.573    0.364
        42  -9.6575     85.1828      1.3148   5.7467706407e+01   6.2181445860e+01    0.2643469     0.107455  55.81  0.001168363    2.274    0.560
        43  -9.0251     30.5069      2.9871   7.9611959176e+01   7.1231856849e+01    0.2821236    0.1322776 -25.74  0.001109162    1.911    0.477
        44  -9.3967     51.9612      2.5780   6.9550311555e+01   6.8223225508e+01    0.2941612    0.1546033  27.83  0.001054094    1.793    0.442
        45  -8.1137     42.3812      2.1780   7.3475711510e+01   6.9735098190e+01    0.1515256    0.0983364 -30.09 0.0006164765    1.573    0.364
        46  -8.8616    242.0991      1.4454   3.4812244039e+01   2.4563887929e+01     0.173551    0.1074256  80.81 0.0004866089    1.507    0.336
        47  -8.6698    137.2909      1.3652   4.6117760562e+01   5.0144917685e+01    0.1822649    0.1179756  78.01  0.000475252    1.576    0.366
        48  -9.0276    189.6995      1.7373   3.9350833121e+01   3.6924439669e+01    0.3451183     0.154571  89.55 0.0007707804    2.621    0.618
        49 -10.1389     17.7434    103.8101   1.1634009874e+02   5.2191529274e+01    0.3287629    0.2771931 -23.86  0.002203411    1.415    0.293
        50  -8.3782    128.0211    109.4706   8.4032783861e+01   3.5069017780e+01    0.2298796    0.1561169  40.91 0.0007571113    1.512    0.339
        51  -8.0713    100.3827    109.2759   9.1800809404e+01   4.0570310671e+01    0.1547571    0.1188189  -7.38 0.0007001047    1.712    0.416
        52 -10.7803      7.3104    107.9147   1.2005235786e+02   5.1895106195e+01    0.3074993    0.2256136   6.89 0.0001407559    1.820    0.450
        53 -10.3827      8.3079    102.1128   1.1899185191e+02   5.3196897035e+01    0.3815113    0.2281552 -84.82  0.001327991    1.558    0.358
        54  -8.1441     71.9602    107.7477   1.0006551017e+02   4.5546313975e+01    0.1635955    0.1258949  30.58 0.0002917419    1.450    0.310
        55  -9.2473     52.0007     91.4510   1.0275640198e+02   5.1996390238e+01    0.2792871    0.1742107 -60.83 0.0004084597    1.457    0.314
        56 -10.5196     57.6632    104.3939   1.0382431304e+02   4.8248489007e+01    0.4877027    0.2473041 -67.88  0.002078612    2.093    0.522
        57 -10.6491     53.4323     98.4784   1.0389228588e+02   5.0170084883e+01    0.5379568    0.2885815 -53.54   0.00255414    1.579    0.367
        58 -10.0669     58.6732    100.2157   1.0257147541e+02   4.9124336869e+01    0.3110433    0.2119141  13.82 0.0009908524    1.865    0.464
        59 -10.0487    123.4649    103.8318   8.3740778758e+01   3.7285544875e+01     0.417094    0.2399404 -40.17  0.001690178    1.735    0.424
        60  -8.2533     45.4336    106.2221   1.0808466393e+02   4.9200599007e+01    0.1745372    0.1173339 -72.74  0.000285212    1.426    0.299
        61  -8.8743     41.6514    106.1249   1.0925909586e+02   4.9612893612e+01    0.2118035    0.1506239 -77.78 0.0008304766    1.387    0.279
        62 -10.5535     79.8053    103.2810   9.6547422030e+01   4.5445612946e+01    0.4094456    0.3243211 -38.45  0.001715136    1.237    0.191
        63  -8.5232     48.8611    105.1026   1.0677679585e+02   4.9101267589e+01    0.1839029     0.136392 -45.52 0.0002974478    1.264    0.209
        64 -10.1957    108.5788    103.0029   8.7742976563e+01   4.0481733834e+01    0.3882767    0.2695842  25.82 0.0006668664    1.695    0.410
        65  -8.6668     94.6607    101.8322   9.1580477308e+01   4.3326719222e+01    0.2410385    0.1773192 -35.17 0.0007098149    1.390    0.280
        66  -8.3072     89.9939    102.0634   9.3070977398e+01   4.4079524244e+01    0.1696769    0.1625391 -40.55 -0.001877172    1.029    0.028
        67  -8.9042     42.9181    100.6484   1.0778716331e+02   5.0800041284e+01    0.1723909      0.16498 -45.23 0.0007850931    1.140    0.123
        68  -8.0982      1.2472    100.6406   1.2094153592e+02   5.3926286659e+01    0.1187153   0.07631422  82.24  0.000662286    1.603    0.376
        69  -9.1872    102.0411     98.8834   8.8549742571e+01   4.2663111774e+01    0.2560637    0.1826124  71.03  0.001101846    2.037    0.509
        70 -10.3994     69.4144     97.1026   9.8332390590e+01   4.8439169615e+01    0.3813914    0.2483192 -59.22   0.00101334    1.459    0.315
        71  -9.2419     18.7400     97.9951   1.1511560868e+02   5.3496598304e+01    0.2127722    0.2003608  89.88 0.0006247966    1.204    0.170
        72  -9.3220     15.9555     95.2283   1.1556218277e+02   5.4335999040e+01    0.2148301    0.1950338  62.13 0.0006750894    1.309    0.236
        73  -9.0612    147.8971     96.5784   7.5266365280e+01   3.3400274365e+01    0.2764814    0.2174634 -24.60 0.0005950833    1.364    0.267
        74  -8.3384     97.0439     96.2166   8.9328074676e+01   4.4188670691e+01    0.1974677    0.1243826  37.63 0.0008687758    1.683    0.406
        75  -9.6765     79.8122     94.9839   9.4416119431e+01   4.7386834002e+01    0.3239501    0.2993544 -28.33  0.001840402    1.069    0.065
        76  -8.1800     32.6234     96.7295   1.1038224680e+02   5.2707177959e+01    0.1338051   0.08486082 -35.51 0.0006996046    1.686    0.407
        77 -10.3451    138.9123     90.5409   7.5777340148e+01   3.6717838228e+01    0.7128367    0.3119159 -28.72  0.002149823    3.381    0.704
        78  -9.7438    132.5050     93.5345   7.8344089539e+01   3.7550234794e+01     0.275307     0.264309  -0.29 0.0005845472    1.044    0.042
        79  -9.8943     37.8260     93.6788   1.0804535475e+02   5.2956475928e+01    0.2343856    0.1871198 -56.47 0.0001496025    1.041    0.040
        80  -9.1518      1.0000     93.9989   1.2015417546e+02   5.5475087244e+01    0.2534242   0.09634082 -70.28 0.0003823484    1.964    0.491
        81  -9.9243      1.5100     90.5358   1.1951435733e+02   5.6248053275e+01    0.4147009     0.179325 -40.08  0.001851785    2.366    0.577
        82  -9.0381    153.5158     92.9930   7.2860338784e+01   3.2803590796e+01    0.2326201     0.155622 -38.83 0.0003140184    1.478    0.323
        83 -10.2583     89.2804     92.2486   9.0641319442e+01   4.6458050161e+01    0.2998323    0.2702048 -21.00 0.0005722958    1.115    0.103
        84  -8.7028      9.2897     93.0131   1.1736924111e+02   5.5264333991e+01    0.1698586    0.1303325 -67.85 0.0004932288    1.036    0.035
        85  -9.9183    108.9513     88.2547   8.3423133504e+01   4.3678377686e+01    0.5608315    0.1990412 -48.97  0.001794648    2.950    0.661
        86  -9.3557     42.9029     90.8190   1.0571122549e+02   5.3131879514e+01    0.3100789    0.2328021  54.34  0.001750731    1.652    0.395
        87 -10.9405    124.8228     85.8210   7.8124713967e+01   4.0856018441e+01    0.5293987    0.3771763 -45.38  0.001309699    1.401    0.286
        88 -10.2610    135.1700     83.1802   7.4527971801e+01   3.9062257702e+01    0.4725843     0.319304  69.63 0.0003488305    2.043    0.511
        89 -10.6449    121.1073     87.8263   7.9771691397e+01   4.1245953507e+01     0.420471     0.365194 -79.03 0.0003033642    1.394    0.283
        90  -8.6586     15.9982     89.2492   1.1454474834e+02   5.5729575362e+01    0.1984498    0.1013769 -49.36  0.001047809    1.629    0.386
        91  -8.8056    145.4459     88.4228   7.3490025436e+01   3.5625051236e+01    0.1552646    0.1537907 -12.58 7.398136e-05    1.019    0.019
        92  -9.0788    102.3361     86.8017   8.4984886009e+01   4.5289593919e+01    0.2099128    0.1958777  42.89  0.001024425    1.145    0.126
        93  -9.4437     85.9528     86.8540   9.0171886154e+01   4.8235349256e+01    0.2591546    0.2048042 -46.57 0.0009391397    1.182    0.154
        94 -10.7930    173.8465     84.8265   6.5922368505e+01   2.9436142227e+01    0.3064793    0.2700508 -77.80 0.0004405043    1.270    0.212
        95 -10.5152     75.8011     82.4345   9.2254507330e+01   5.0857632582e+01    0.3958246    0.2908534 -54.51  0.002029402    1.338    0.253
        96  -8.7707     81.2474     84.7703   9.1110032423e+01   4.9476923485e+01    0.3049438    0.2186761 -16.72  0.001260707    1.692    0.409
        97  -9.1282     80.2955     80.9860   9.0313624352e+01   5.0466105912e+01    0.2330959    0.1919495 -11.79 0.0007239404    1.300    0.231
        98  -9.3083     66.0634     84.4044   9.6136498483e+01   5.1841235901e+01    0.2419001    0.1849632 -56.39 0.0007100505    1.253    0.202
        99 -10.1611     46.0830     83.9566   1.0300332261e+02   5.4395298304e+01    0.2230394    0.1962564 -42.49  0.001379668    1.053    0.050
       100  -9.4650     41.8205     84.5747   1.0465717533e+02   5.4695546382e+01    0.2563064    0.1981584  66.98  0.001447356    1.702    0.412
       101 -10.4479    157.5255     83.9740   6.9266177504e+01   3.3596961200e+01    0.4152531     0.239484  30.41  0.001527096    2.361    0.576
       102 -10.8534    154.0220     79.4678   6.8725528063e+01   3.5299029239e+01    0.5430054    0.3182928  58.08  0.001014217    1.843    0.457
       103  -8.1749     57.2382     84.3598   9.9184335897e+01   5.3011285430e+01    0.1440388   0.09058541 -35.64 0.0001860104    1.589    0.371
       104  -8.2927     33.6833     84.2757   1.0746181314e+02   5.5534064538e+01    0.1205101   0.09628098  76.54 0.0002579321    1.568    0.362
       105  -9.5080    167.2506     82.9765   6.6793907493e+01   3.1401983390e+01    0.2159195    0.1331581 -37.07  0.000875966    1.602    0.376
       106 -10.9546    144.1215     81.2626   7.1656293586e+01   3.7342629417e+01    0.5262473    0.3803861  65.41 0.0009020515    1.628    0.386
       107  -8.9920     96.7000     79.2137   8.4416405176e+01   4.7979832045e+01    0.2609579    0.1893297 -50.72    0.0010485    1.407    0.289
       108  -9.9487     98.7264     75.0590   8.2456550372e+01   4.8458810335e+01    0.4459953    0.3363266 -62.55  0.001191698    1.650    0.394
       109  -9.8612     97.0939     69.3063   8.1086462535e+01   4.9931777909e+01     0.334112    0.2149835 -40.11 0.0004932653    1.487    0.327
       110 -11.6315    104.3155     78.8274   8.1923301895e+01   4.6592754555e+01    0.7428272    0.5448585  -0.59  0.001080823    1.761    0.432
       111 -10.0998    110.2679     71.5475   7.7771322114e+01   4.6846461525e+01    0.3227313    0.2507922 -16.18 0.0007287486    1.396    0.284
       112  -8.9228     70.6613     83.5444   9.4320557839e+01   5.1381591474e+01    0.2457149    0.1427209  24.96  0.001086533    2.038    0.509
       113 -10.6163    131.6773     86.8028   7.6558127916e+01   3.9129139862e+01    0.4030974    0.2934609 -25.36 0.0008552377    1.500    0.333
       114 -10.7209      6.4941     80.0986   1.1621817580e+02   5.8388634371e+01    0.3125797    0.3001058 -89.34  0.001176674    1.264    0.209
       115  -9.7167      5.4644     75.0284   1.1569341096e+02   5.9588092923e+01    0.3241411    0.1385522 -51.38 0.0009616156    1.751    0.429
       116  -9.2662     55.4649     80.2044   9.8704235114e+01   5.4173883505e+01     0.302075    0.2089098 -33.69  0.001595348    1.410    0.291
       117  -8.6798     51.1581     80.8976   1.0042525325e+02   5.4529703312e+01    0.1881329    0.1702009 -62.25 0.0003703415    1.158    0.136
       118  -9.4910     49.0643     76.9625   1.0013860877e+02   5.5656766804e+01    0.2660625    0.2363987 -88.19  0.000678047    1.376    0.273
       119  -9.9464     64.2721     70.4552   9.2705547499e+01   5.5162140358e+01    0.3859808    0.2923764  34.91  0.001445432    1.470    0.320
       120  -9.2558     54.0770     74.6791   9.7677562473e+01   5.5576942699e+01    0.4056582    0.2071187 -24.32    0.0015792    3.008    0.668
       121  -9.7959     58.4262     71.0165   9.5013905382e+01   5.5830123021e+01    0.3369373    0.2547686 -15.96  0.001295813    1.412    0.292
       122  -8.7521     22.2725     80.5996   1.1073263092e+02   5.7298216634e+01    0.1953465    0.1492717 -12.60 0.0008961019    1.523    0.344
       123  -8.9275     57.0041     88.9874   1.0045048642e+02   5.1974337645e+01    0.2112831    0.1663409  81.12 0.0007891862    1.675    0.403
       124  -8.6408     43.7806     79.0889   1.0261549515e+02   5.5751052207e+01    0.1930696    0.1310199 -37.89 0.0009753812    1.360    0.265
       125  -8.5637     15.5884     78.8489   1.1277343767e+02   5.8151302499e+01     0.169622    0.1024362 -77.01 0.0004676462    1.656    0.396
       126  -8.3852     28.5017     78.0077   1.0792273387e+02   5.7412268888e+01    0.1908428    0.1020242 -56.41 0.0003945566    1.481    0.325
       127 -11.9749    142.2036     68.7858   6.8214007892e+01   4.0123097771e+01    0.8183132    0.7624999  31.97  0.004196884    1.062    0.058
       128 -10.8949    136.4944     75.5237   7.1795263836e+01   4.0240567250e+01       0.4082    0.3668314  39.28  0.002097792    1.109    0.099
       129 -10.4755    136.4940     70.0011   7.0028859474e+01   4.1267966376e+01    0.4235731     0.335768 -13.86  0.001586325    1.399    0.285
       130 -10.7346     76.4127     75.3676   8.9928382196e+01   5.2304129465e+01    0.6145917    0.2990949  26.18  0.001709145    2.629    0.620
       131  -9.3704     21.1790     75.6532   1.1008773816e+02   5.8503074260e+01    0.2747955    0.1982301  82.47 0.0006950261    1.808    0.447
       132  -8.5019     35.9924     76.3238   1.0477511982e+02   5.7143523279e+01     0.166891    0.1466615 -44.35 0.0002719722    1.068    0.064
       133 -10.9593    158.4218     73.5520   6.5919023149e+01   3.5299411257e+01     0.485979    0.3474357 -24.23 0.0009630252    1.522    0.343
       134 -10.8978    162.6162     67.4588   6.3138850549e+01   3.5317970498e+01    0.6417003    0.4220328  60.07  0.002828742    1.568    0.362
       135 -10.9066    152.0486     73.0521   6.7215742468e+01   3.6960157817e+01     0.489127    0.4224419 -45.92 0.0007504317    1.184    0.155
       136 -11.3443    151.0172     64.3793   6.4725955653e+01   3.8736490287e+01    0.7703565    0.5719191 -77.26  0.003422918    1.841    0.457
       137  -9.0007    129.9174     75.6806   7.3569188015e+01   4.1734339359e+01     0.313517       0.1326  42.01  0.001078977    2.485    0.598
       138  -9.4833     10.4458     73.8684   1.1366646670e+02   5.9585653741e+01    0.3132928    0.1944866  72.76  0.001247234    2.353    0.575
       139  -8.8772    172.9935     73.9928   6.2945327374e+01   3.1589711766e+01    0.1886635    0.1781485  57.45 0.0004426238    1.064    0.061
       140  -8.6416     38.7438     71.4064   1.0249078059e+02   5.7982112330e+01    0.1719103    0.1296777  13.83 0.0005054793    1.522    0.343
       141  -9.1410     45.5365     73.0185   1.0037158284e+02   5.6925892137e+01    0.2420609    0.2254094 -74.77  0.001543103    1.256    0.204
       142  -8.6865     42.3422     72.7040   1.0148124518e+02   5.7333142814e+01    0.1879891    0.1639098  43.11  0.001168141    1.409    0.290
       143  -8.9900     17.4699     70.6059   1.1037321300e+02   5.9890349831e+01    0.3476281    0.1193612 -56.75  0.001553176    2.076    0.518
       144  -9.1103     14.8731     67.7713   1.1073831176e+02   6.0686073684e+01    0.1755942    0.1285865 -43.99 0.0003082773    1.144    0.126
       145  -8.6154     27.9619     68.5285   1.0587095373e+02   5.9582874901e+01    0.3062857    0.1363575 -35.39 0.0009222995    2.342    0.573
       146  -9.4110    105.3382     67.2474   7.7819814411e+01   4.8697921446e+01    0.3307416    0.2622194  75.90 0.0008103737    1.790    0.441
       147  -8.0122    112.4892     63.4490   7.4387338517e+01   4.7909211144e+01    0.2281987    0.1396332  34.59 0.0006561143    1.745    0.427
       148  -9.9182    108.9650     62.1224   7.4968556484e+01   4.8903706963e+01    0.5079873    0.2785085 -34.91  0.001551216    1.811    0.448
       149  -9.2085     89.0834     66.9256   8.2895265379e+01   5.1900025190e+01     0.390541    0.2778326 -80.20  0.000988825    2.679    0.627
       150 -10.5947     44.6247     63.6193   9.8026799715e+01   5.9065805266e+01     0.480821    0.2954661 -36.45  0.001466302    1.460    0.315
       151  -8.7627    116.6119     66.2843   7.4162169030e+01   4.6491658236e+01      0.21088    0.1414594 -26.42 0.0009378704    1.576    0.366
       152  -8.5178     79.2937     64.8210   8.5517755726e+01   5.4024293640e+01    0.2751953     0.171836 -55.98  0.001249283    1.917    0.478
       153 -10.6752      2.1903     62.3869   1.1451218790e+02   6.2543875335e+01    0.2830639    0.1722011 -66.01 0.0004457032    1.333    0.250
       154 -10.4396      5.7111     58.9790   1.1239500038e+02   6.3117841126e+01    0.2235778     0.181743 -37.97 0.0006942744    1.160    0.138
       155  -8.2307    211.6908     64.6726   5.3526322750e+01   2.3534130177e+01    0.1456085    0.1143113  18.95  0.000481501    1.659    0.397
       156 -10.5635    172.3555     62.0436   5.9513058338e+01   3.3758824220e+01    0.4604587     0.321202 -22.75  0.001375921    1.586    0.370
       157  -9.5385     32.3728     63.0206   1.0268868650e+02   6.0409129353e+01    0.2913021    0.2517901 -88.52  0.001857108    1.502    0.334
       158  -9.3929     67.1616     61.4710   8.8739712533e+01   5.6609054522e+01    0.4612137    0.3736519 -63.93  0.001476657    1.555    0.357
       159 -10.4676    162.9228     60.3291   6.0874712029e+01   3.6426087917e+01     0.420644    0.3802277  -7.74  0.001436045    1.185    0.156
       160  -9.4064    159.4885     57.0229   6.0550734901e+01   3.7824476870e+01    0.3392312    0.2208544  -5.66  0.001194901    2.194    0.544
       161 -10.0248    162.5668     52.8927   5.8625439609e+01   3.7686444929e+01    0.4233952    0.3316597   1.36    0.0011486    1.551    0.355
       162  -8.8945    219.8502     61.3985   5.1490084664e+01   2.2086079687e+01    0.2121979    0.1750148 -55.83 0.0007724071    1.151    0.131
       163 -10.1530    131.0138     61.0873   6.8491530190e+01   4.4145551965e+01    0.4265586    0.3189254  46.49  0.002055642    1.314    0.239
       164  -9.0516    120.7715     60.7625   7.1112258963e+01   4.6565099013e+01    0.2641203    0.2012129 -19.28 0.0008448857    1.388    0.279
       165 -10.5572     95.5065     56.9756   7.7317017645e+01   5.2580512664e+01      0.55169    0.3787942  -4.77  0.002264185    1.833    0.454
       166  -9.1013     88.9248     60.4909   8.0729697802e+01   5.3178001148e+01    0.2170368    0.1407773  38.78  0.001032968    1.590    0.371
       167 -10.2934     59.9719     57.6345   9.0140087861e+01   5.8405812264e+01     0.370843    0.3092587  -9.39  0.001495527    1.152    0.132
       168  -8.8655     50.3885     59.8245   9.4588178960e+01   5.9198899545e+01    0.1839692    0.1386663 -38.24 0.0004284721    1.126    0.112
       169  -9.1784    184.0899     57.6428   5.6048271954e+01   3.1475506889e+01    0.3139187    0.2473986 -12.81 0.0009989988    1.476    0.322
       170  -9.6816    104.9179     56.4231   7.4175544227e+01   5.0776450628e+01    0.3715394     0.249435 -13.56  0.001355529    1.782    0.439
       171 -10.8705    200.1469     56.4493   5.3068643778e+01   2.7620463158e+01     1.057225    0.6564927 -13.00  0.004459785    2.229    0.551
       172  -9.9244    206.0000     53.9945   5.1518652024e+01   2.6537494999e+01    0.6662602    0.2447973 -26.38  0.002199753    3.328    0.700
       173  -9.6941    203.6504     51.6951   5.1240177523e+01   2.7453959209e+01    0.2695499    0.2591785  36.31 0.0007670954    1.155    0.134
       174  -8.8589    179.0491     58.4773   5.7191347440e+01   3.2625672617e+01    0.2229406    0.1459063  58.30 0.0003940309    1.505    0.336
       175  -9.1736    150.5208     57.9876   6.2787113793e+01   3.9922572175e+01    0.3060896    0.2044704  37.04  0.001354201    1.612    0.380
       176 -10.0170    149.6585     51.1049   6.0734396184e+01   4.1222699258e+01    0.4050934    0.2251318  70.28  0.001566093    2.292    0.564
       177 -10.2971    146.1519     56.1504   6.3172044750e+01   4.1304958199e+01    0.4953811    0.3143701  21.05  0.001422687    2.236    0.553
       178  -8.9932    144.7188     52.6800   6.2351005183e+01   4.2210315347e+01    0.2731319    0.2152447  12.33 0.0007022195    1.477    0.323
       179  -9.9245     83.8755     47.6434   7.7727192701e+01   5.6427867653e+01    0.4917756    0.3323703   2.54  0.002355118    1.814    0.449
       180  -8.9781     78.3631     55.9003   8.2728329079e+01   5.5912253528e+01    0.2633201    0.1756047 -25.59 0.0007419634    1.501    0.334
       181  -8.7533     81.2857     53.3517   8.0769782413e+01   5.5879792622e+01    0.2843267    0.1909101 -17.64 0.0009118962    1.631    0.387
       182  -9.0443     69.4822     56.6133   8.6200623322e+01   5.7215933587e+01    0.2948879     0.124342 -42.93  0.001206676    2.166    0.538
       183  -8.3908     40.2109     57.5690   9.7931438872e+01   6.0806501779e+01     0.156507    0.1145869  -6.66 0.0001682386    1.467    0.318
       184  -8.4242     34.4971     57.5162   1.0024193007e+02   6.1383363267e+01    0.2260603    0.1084818 -54.02 0.0009634136    1.784    0.440
       185  -9.9974     36.3031     53.5031   9.8254971549e+01   6.2039026174e+01    0.2832992    0.2122826 -58.67  0.001000895    1.415    0.293
       186  -8.8925    111.9208     55.8007   7.1876981700e+01   4.9391372998e+01    0.2244172    0.1899599   5.93 0.0006175043    1.209    0.173
       187  -9.1854     26.1017     56.1031   1.0328952882e+02   6.2414236847e+01    0.1865297    0.1603428 -18.70 0.0004387096    1.180    0.152
       188  -9.2112     30.5155     56.0523   1.0144362367e+02   6.2052382150e+01    0.1975779    0.1499909 -19.84 0.0004857909    1.284    0.221
       189  -8.6020     29.4520     52.5429   1.0082999464e+02   6.2873189894e+01    0.1922662    0.1051007 -53.26 0.0001299397    1.555    0.357
       190  -9.1194    221.9067     55.1024   4.9597753856e+01   2.2534435716e+01    0.2119158    0.1941241 -59.99 0.0004985699    1.005    0.005
       191 -10.7078    174.1348     51.7525   5.6075294868e+01   3.4905926070e+01    0.6482396    0.2174013 -32.62   0.00215748    2.952    0.661
       192  -9.0203    121.8068     48.6138   6.6564714331e+01   4.8352078425e+01    0.2956414    0.2236477  77.73  0.001396226    1.781    0.439
       193  -9.0629    122.2943     53.3407   6.8114259268e+01   4.7480594220e+01    0.2790101    0.2100789 -28.39 0.0006336343    1.340    0.253
       194 -10.2384    126.0230     49.9002   6.5920932554e+01   4.7167309448e+01    0.5313041    0.3518035 -29.77  0.001839976    1.541    0.351
       195  -9.9451    135.0881     52.4878   6.4549599569e+01   4.4598143659e+01    0.4442984    0.2893261 -25.75  0.002005327    1.629    0.386
       196  -8.8728     86.0958     54.3602   7.9481329635e+01   5.4834606047e+01    0.2011002    0.1799708  32.13  0.001145785    1.187    0.158
       197 -10.6234    106.2548     50.7777   7.1724360917e+01   5.1461433860e+01    0.4609194    0.3344574  83.05 0.0008823793    2.386    0.581
       198  -8.9702     97.2138     47.7833   7.3380127264e+01   5.3835429639e+01    0.3261212      0.31868 -53.78  0.001924249    1.238    0.192
       199  -9.1951     14.9515     51.6756   1.0675555174e+02   6.4148827022e+01    0.1985013    0.1374259 -21.94  0.000394383    1.430    0.301
       200  -9.7727     19.0253     50.6879   1.0473086197e+02   6.4079812712e+01    0.2841785    0.2167653 -53.00  0.001552161    1.166    0.142
       201  -8.4097    234.4804     51.4453   4.7114396320e+01   2.0142048482e+01    0.1357321    0.1237549 -57.99 0.0003047654    1.038    0.036
       202  -9.6590    179.4476     50.9824   5.4901351811e+01   3.3662736406e+01    0.2302236    0.1450743 -32.78  0.001032229    1.606    0.377
       203  -9.2775    213.2765     49.2891   4.9245420210e+01   2.5439323611e+01    0.2883345    0.2357096  88.30 0.0008749908    1.239    0.193
       204 -11.0411     58.6807     47.8504   8.7148183875e+01   6.0471447838e+01    0.5046598    0.3037322  12.46  0.002153166    2.062    0.515
       205  -9.3833     49.2892     49.3382   9.1473498161e+01   6.1427782338e+01    0.2466457    0.1703186 -20.38 0.0007461655    1.412    0.292
       206 -10.1182     46.0637     47.2565   9.2060952783e+01   6.2218412848e+01    0.3124228    0.2172456  -9.26 0.0001808599    1.511    0.338
       207  -8.9739      5.7257     48.3111   1.0984666699e+02   6.5377242816e+01    0.2355851    0.0998876 -38.15  0.001023355    1.987    0.497
       208  -9.1245    231.5802     47.7365   4.6550273024e+01   2.1326027319e+01    0.2396255     0.157926  55.17 0.0006856023    1.645    0.392
       209  -8.9825     34.7713     47.3376   9.6879405963e+01   6.3428544300e+01    0.2550736     0.173292  74.12  0.001020118    3.794    0.736
       210  -8.6045     10.9665     48.0436   1.0748899197e+02   6.5147124174e+01     0.162579    0.1383197  77.91 0.0005602012    1.654    0.395
       211  -8.5307    221.7837     47.6831   4.7725330206e+01   2.3623996938e+01    0.2887698    0.1042121  56.33   0.00108829    2.751    0.636
       212  -8.7532     90.7448     47.6599   7.5418914029e+01   5.5134638566e+01    0.2787806    0.1261113  41.07  0.001132706    2.216    0.549
       213  -9.1026    187.2196     43.1041   5.1316764615e+01   3.2804279298e+01    0.2711786    0.2143353  -3.47 0.0007558874    1.564    0.361
       214 -10.2465    152.2232     45.4726   5.8342502502e+01   4.1414726664e+01    0.5263569    0.1993982  57.35  0.001861096    2.491    0.599
       215 -10.0240    140.6801     44.3110   6.0441963228e+01   4.4472017129e+01     0.376132    0.2810342   3.65  0.001106032    1.610    0.379
       216  -9.6900    143.4975     42.5155   5.9206914368e+01   4.4029714306e+01     0.482882    0.2596329 -43.23  0.002013086    2.023    0.506
       217 -11.0879    167.2555     43.3624   5.4753280904e+01   3.7881094273e+01    0.3651587    0.3205886  25.62 0.0009868278    1.242    0.195
       218  -8.2265      1.3369     45.1800   1.1097445321e+02   6.6232807761e+01    0.1500859   0.09018531 -66.50   0.00023606    1.524    0.344
       219  -9.5272    108.5977     44.0440   6.8534227504e+01   5.2036194774e+01    0.4177688    0.2049395  49.06  0.001627383    1.991    0.498
       220  -9.4826     36.2221     43.0218   9.4745629096e+01   6.4120948801e+01    0.2836425    0.1541365 -53.26  0.001456974    1.836    0.455
       221  -8.8932     81.5393     42.9186   7.6702369476e+01   5.7649862933e+01    0.2110067    0.1281014 -33.60  0.001023329    1.571    0.364
       222  -8.4874     69.9788     43.0903   8.0956883548e+01   5.9611112735e+01    0.1565427    0.1351233  -9.15 0.0003016125    1.008    0.008
       223  -8.9475     44.3575     42.7219   9.1118482531e+01   6.3277826387e+01    0.2432017    0.1500907 -18.08 0.0008413353    1.725    0.420
       224 -10.2598     47.2394     35.7471   8.7166246124e+01   6.4181720566e+01     0.422169     0.321041 -55.20  0.002308245    1.738    0.425
       225  -9.6122    204.3265     41.0717   4.8267147350e+01   2.8776185187e+01    0.3541401    0.2043231 -49.64  0.001033643    1.732    0.423
       226  -8.7954     99.2304     41.2931   7.0266770257e+01   5.4457797788e+01    0.3130695    0.2249178 -85.43  0.001333661    2.810    0.644
       227  -7.9167     78.6419     42.6935   7.7633853972e+01   5.8206563911e+01    0.1466084    0.0994326   4.32 0.0007040725    1.727    0.421
       228  -9.2104     68.8598     36.5857   7.8754516672e+01   6.0879431413e+01    0.3179718     0.208427  13.49  0.001328739    1.691    0.409
       229  -9.8247     63.6554     41.0049   8.2550528814e+01   6.0968399811e+01    0.2654955    0.2043066 -18.90  0.001539664    1.157    0.136
       230  -9.3823     62.9603     36.3200   8.0921862432e+01   6.1865072262e+01    0.3241045    0.2423117  35.02  0.001448035    1.433    0.302
       231  -9.1084     55.7952     41.3028   8.5802034612e+01   6.2065236704e+01    0.2824733    0.1929687  54.08  0.001434325    2.351    0.575
       232  -9.0171    197.4030     41.0529   4.9221516744e+01   3.0507597417e+01    0.2767788    0.2019234  77.67 0.0008168729    1.386    0.278
       233  -9.6554    150.2194     34.0288   5.4958853426e+01   4.3484308596e+01    0.5970964    0.2198827 -18.91  0.001811891    4.207    0.762
       234  -9.2445    150.0298     41.0000   5.7317772734e+01   4.2602052156e+01    0.3860572    0.2111425  71.45   0.00153185    2.221    0.550
       235  -9.2699    149.1297     37.8116   5.6438850125e+01   4.3263911941e+01    0.2909701    0.2077186 -22.75 0.0004326418    1.509    0.337
       236  -8.8334    227.8808     39.6868   4.4997981295e+01   2.3279679106e+01    0.2143929    0.1656996  53.81  0.001192434    1.436    0.303
       237 -10.7081    127.5620     36.8604   6.0868133005e+01   4.8718689698e+01     0.504218    0.3860235  62.19  0.001593611    1.357    0.263
       238  -8.8730    112.4738     40.5051   6.6108917828e+01   5.1710768379e+01    0.1435176    0.1349428  16.77 0.0002139369    1.043    0.041
       239 -10.4941     32.4628     37.0006   9.4210913588e+01   6.5634829005e+01    0.5751464    0.2097732 -39.15  0.002455421    2.329    0.571
       240  -8.6663     37.2229     32.4266   9.0254038011e+01   6.5956728224e+01    0.1460343    0.1338939 -30.22 0.0003054329    1.321    0.243
       241  -9.2772      3.0144     39.5013   1.0870057434e+02   6.7309473031e+01     0.246021     0.147657  18.76  0.001055199    2.009    0.502
       242 -10.1011    161.6402     37.8087   5.4029589463e+01   4.0077853259e+01    0.4230659    0.2448329  53.44 0.0002945007    1.617    0.382
       243  -9.4840    157.5306     37.4873   5.4690098139e+01   4.1171950961e+01    0.5272947    0.2630146  30.68  0.001834521    3.161    0.684
       244  -9.0903    249.5006     37.4910   4.2228382649e+01   1.8698541145e+01    0.2780322    0.1474634 -62.21  0.001322078    1.998    0.499
       245  -9.0277    245.7041     35.5856   4.2158891104e+01   1.9774787435e+01    0.2738906    0.1967659  67.76 0.0008619163    1.464    0.317
       246  -8.7332    122.2711     38.3293   6.2708636952e+01   4.9771781469e+01    0.1788389    0.1656603 -69.37 0.0005023511    1.279    0.218
       247  -9.4330     75.0588     37.9207   7.7003633526e+01   5.9615013666e+01    0.2166778    0.1760053 -22.03 0.0003926518    1.136    0.120
       248  -9.8506     81.4621     26.4810   6.9934497161e+01   6.0140596087e+01    0.3488232    0.3061537 -47.79  0.001748102    1.487    0.328
       249  -9.7715     82.4563     36.3142   7.3729960309e+01   5.8532865826e+01    0.3495764    0.2362553 -25.45  0.001382216    1.420    0.296
       250  -9.1909    106.4889    247.5192   1.1294642438e+02   9.8271218776e+00    0.2631118    0.1906154 -28.97  0.001569567    2.388    0.581
       251  -8.9495    174.4757     35.5613   5.1116791330e+01   3.7075703586e+01    0.2607636    0.1462892 -10.51   0.00102924    2.584    0.613
       252  -9.1152    191.4698     34.5284   4.8237772800e+01   3.2865453495e+01    0.3260186     0.206944  63.91  0.001015148    1.502    0.334
       253  -9.3827    194.4464     32.4680   4.7247521981e+01   3.2374687755e+01    0.2307774    0.2043034 -21.66 0.0009601448    1.257    0.204
       254  -8.2509    106.8530     34.8917   6.5527815452e+01   5.3762830831e+01    0.1740501    0.1669221 -60.27 0.0003629264    1.266    0.210
       255 -10.6880    236.3679     31.3260   4.2081706469e+01   2.2407742118e+01      0.60322    0.3933291  56.76  0.003254766    1.679    0.405
       256 -10.1156    238.9902     22.6374   3.9808046850e+01   2.2884074419e+01    0.3658087    0.2557649  77.48  0.001251885    1.405    0.288
       257  -8.4475     86.5100     34.4807   7.1607270948e+01   5.8038268744e+01    0.1394353    0.1220719   5.83 1.248164e-05    1.001    0.001
       258  -9.4553    185.5071     30.7361   4.8004589716e+01   3.4860037845e+01    0.5378246    0.1979918 -19.95  0.001718158    4.021    0.751
       259  -9.8860    180.6712     28.8786   4.8165617523e+01   3.6323737264e+01    0.3398009    0.2393641  48.31  0.001265141    1.450    0.310
       260  -9.7067    183.6280     25.2046   4.6672170224e+01   3.6006346756e+01    0.2756875    0.2257357  25.16  0.001010547    1.464    0.317
       261  -8.9522    114.7818     32.8155   6.2568679342e+01   5.2263164010e+01    0.2440813    0.1973486  79.31 0.0006311614    1.585    0.369
       262  -9.2482    110.6575     29.6537   6.2437972011e+01   5.3615960347e+01    0.3098861    0.2503015 -85.37  0.001541597    1.755    0.430
       263  -8.9202     99.9892     33.1544   6.6829969197e+01   5.5488902874e+01    0.2395485    0.1382938  29.17  0.001066444    1.904    0.475
       264  -8.0576     44.3066     38.7049   8.9606974455e+01   6.4020626649e+01    0.1672211    0.1233457 -50.18 0.0004598763    1.517    0.341
       265  -9.4866    221.6797     31.2923   4.3607178274e+01   2.5829968951e+01    0.2651641    0.1878181 -88.61  0.001420395    1.424    0.298
       266  -9.2693    201.1759     29.1718   4.5464557258e+01   3.1096658372e+01    0.2164734    0.1893955 -52.33 0.0003330737    1.116    0.104
       267  -9.1366    205.7684     26.6564   4.4232398699e+01   3.0263478547e+01    0.3859837    0.2761056  37.32  0.001680186    1.744    0.427
       268  -9.0187    142.6219     31.8022   5.5727440055e+01   4.5682130823e+01     0.449609    0.1801528  56.16  0.001714786    2.229    0.551
       269  -8.5670    120.1195     32.1721   6.0960751059e+01   5.1109609142e+01    0.1835489    0.1671525  83.59 0.0003320148    1.296    0.228
       270  -9.0844     57.8920     31.3775   8.0871549540e+01   6.3436656954e+01    0.2260033    0.1623952 -38.23 0.0009607261    1.416    0.294
       271  -9.5196    125.5942     30.0652   5.8850555932e+01   5.0080510404e+01    0.2615617    0.1801063  43.44 0.0001305649    1.351    0.260
       272  -8.8717     65.3522     29.9371   7.7285567479e+01   6.2495946115e+01    0.1987615    0.1498791 -41.80  0.001134694    1.528    0.345
       273  -8.7134     20.8379     30.5331   9.7230620889e+01   6.7882654966e+01    0.1972372    0.1070441  27.20  0.001121961    2.108    0.526
       274  -9.8067    237.4844     26.9317   4.0942295056e+01   2.2702473113e+01    0.2882825     0.240932 -88.86  0.000733379    1.139    0.122
       275  -9.0839    204.6801     31.6791   4.5699264133e+01   2.9913489138e+01    0.2689143    0.2215518  16.90  0.001314374    1.567    0.362
       276  -8.2025    157.6705     29.7008   5.2143365926e+01   4.2127176903e+01    0.1514985    0.1030225  34.27 0.0007030045    1.641    0.391
       277  -7.9619     70.2989     29.6626   7.5286441769e+01   6.1710274743e+01    0.1205784    0.1068711 -60.09 0.0007033836    1.659    0.397
       278  -9.4805     47.3820     27.9152   8.3809565521e+01   6.5474192162e+01    0.2642989    0.1748725 -13.92 0.0008591966    1.443    0.307
       279 -12.4633     76.2733    218.9940   1.1590627382e+02   1.9370148350e+01    0.9132012    0.5631117  47.64  0.003233662    1.384    0.278
       280 -10.8790     69.1256    217.7050   1.1719967250e+02   2.0599945108e+01    0.4039787    0.2657909  86.22  0.001226316    1.489    0.328
       281  -9.7318     90.6322    214.8358   1.1256719234e+02   1.8129886855e+01    0.3694774    0.1684719  34.23  0.001700091    2.295    0.564
       282 -10.0725     16.3789     27.6859   9.8343126707e+01   6.8754517283e+01    0.3207953    0.1660423 -35.54  0.001603854    1.533    0.348
       283  -9.2614    215.4113     27.3771   4.3313017964e+01   2.7819288898e+01      0.40366    0.2471872  79.67  0.002009649    1.643    0.392
       284  -7.9263    154.6459     27.2632   5.1890165310e+01   4.3192858331e+01    0.1449612    0.1074264 -76.44 0.0002562443    1.621    0.383
       285  -9.2413    120.8049     26.3797   5.8610426871e+01   5.1674530267e+01    0.2709608    0.2104399  18.58 0.0008143893    1.334    0.250
       286  -8.7543     68.4726     25.6376   7.4207105298e+01   6.2606375149e+01    0.2351716    0.1428647  20.48  0.001185888    1.757    0.431
       287  -8.6244    196.9852     25.5570   4.5007830321e+01   3.2582423031e+01    0.2089994    0.1290998  72.37  0.001010304    1.551    0.355
       288  -9.2045    227.2591     23.1771   4.1035641150e+01   2.5510335511e+01    0.2968729    0.1893954 -84.71  0.001069693    1.607    0.378
       289 -10.1578    179.1678     22.9680   4.6644333058e+01   3.7404771789e+01    0.3230916    0.2575714 -58.43 0.0009941913    1.288    0.224
       290  -8.7135     98.6359     23.9501   6.3481683109e+01   5.6982405799e+01    0.1896655    0.1640105  -5.49 0.0005611786    1.127    0.112
       291  -8.7076     57.9163     23.8738   7.7550722962e+01   6.4578250373e+01    0.1569556    0.1458994   5.90   0.00034604    1.296    0.228
       292 -10.2663    163.9736     22.0659   4.8645321511e+01   4.1402778809e+01    0.4283483     0.227275  46.75 0.0008246205    1.885    0.470
       293  -8.6643    117.0509     22.7131   5.8114081360e+01   5.2989617824e+01    0.2006471    0.1663803  46.87 0.0005167823    1.112    0.101
       294  -9.3277      4.3082     17.4612   1.0066030200e+02   7.1401271627e+01    0.2062326    0.1271441  24.83 0.0006390718    1.972    0.493
       295  -8.2391    155.6946    214.3642   9.9005732331e+01   7.5875108088e+00    0.1322836    0.1000209  70.94 0.0007037457    1.740    0.425
       296  -9.2392      8.0866     22.2829   1.0052001424e+02   7.0310690253e+01    0.2061514     0.160367 -25.49 0.0006191032    1.093    0.085
       297  -9.6204    141.8007     20.5105   5.1986556397e+01   4.7211890228e+01    0.3589067    0.3071687 -61.33  0.002016963    1.325    0.245
       298  -9.2923     27.5332     36.4112   9.6253339409e+01   6.6215113463e+01    0.2024006    0.1588197 -30.40 0.0001888402    1.023    0.022
       299  -9.6283     53.1609     20.5703   7.8002977803e+01   6.5776025944e+01    0.4805509    0.2981858  14.89  0.002629309    1.674    0.403
       300  -9.2322    222.4897     20.2030   4.0782006331e+01   2.6982447383e+01    0.2471272    0.1854053  49.01 0.0007392681    1.555    0.357
       301  -9.1566    131.2606     20.0847   5.3934041347e+01   4.9873206729e+01    0.3184813    0.2536708 -79.16  0.001424629    1.561    0.360
       302  -9.0585    124.0101    205.9718   1.0441287402e+02   1.4579946371e+01    0.1878827    0.1655384  49.19            0    1.026    0.026
       303  -9.4528      1.3743    185.4192   1.2812665618e+02   3.4699357452e+01    0.3653449   0.08217134 -77.37   0.00149117    3.495    0.714
       304  -8.7098     89.2131     21.0247   6.5063204195e+01   5.9311667496e+01     0.272867    0.1715711 -15.97 0.0007248714    1.634    0.388
       305  -9.3582     13.0161    174.2095   1.2502486006e+02   3.6149823392e+01     0.167127    0.1222148 -40.62  0.001069709    1.959    0.490
       306 -10.3685      7.4761    168.4644   1.2578757308e+02   3.7885080857e+01    0.2235308    0.1725144 -62.18  0.001563338    1.417    0.294
       307 -11.2189     18.6907    159.1602   1.2254362280e+02   3.9051969480e+01    0.4460316    0.2460649  74.17   0.00244615    1.766    0.434
       308  -8.7757     69.7793     19.4601   7.0929930797e+01   6.3216046788e+01    0.1972022    0.1398993 -12.44 0.0005315355    1.315    0.240
       309  -8.6949    119.7228     19.0465   5.6073913456e+01   5.2769419599e+01    0.1924793    0.1663076  23.97 0.0004419907    1.105    0.095
       310 -10.1835      2.1049    160.0438   1.2634985959e+02   4.0175279481e+01    0.3632161    0.1235465 -79.86  0.001084764    2.367    0.578
       311 -11.0078      2.8384    152.9575   1.2566127460e+02   4.1718814604e+01    0.3515349    0.2234641 -55.65  0.001030823    1.648    0.393
       312  -9.6804     29.0396     17.8795   8.7848843970e+01   6.9268276462e+01    0.2436999    0.1566758  -1.98 0.0004947425    1.518    0.341
       313  -9.0631     11.6799    151.6454   1.2350812078e+02   4.1358916786e+01    0.1834072    0.1128971 -53.52  0.000668443    1.717    0.417
       314  -8.7239     11.8564    144.8660   1.2285201710e+02   4.2914124809e+01    0.1664138    0.1160634  77.24  0.001047387    1.297    0.229
       315  -9.9217    248.4038    143.8852   6.6945862363e+01   2.5882754240e+00    0.2816456    0.1755699  37.23  0.001192563    1.733    0.423
       316 -11.1097      6.9171    140.9432   1.2369565359e+02   4.4185972656e+01    0.4431972    0.2252582 -70.36  0.002012765    1.531    0.347
       317  -8.9486     21.6842    141.9730   1.2012269527e+02   4.2804909327e+01     0.171384    0.1327363 -84.15 0.0006382302    1.045    0.043
       318  -9.9067     36.4722    141.8107   1.1630358259e+02   4.1485444967e+01    0.2176739    0.1805445  37.63  0.001040887    1.397    0.284
       319  -8.9372     29.6159    138.0793   1.1762912135e+02   4.3034811446e+01    0.2208848    0.1641364 -10.70   0.00128321    1.981    0.495
       320  -8.2532     44.6852    141.6530   1.1412554430e+02   4.0669686083e+01    0.1350764   0.09010486 -43.47 0.0007047426    1.720    0.418
       321  -9.4242     46.1050    135.6882   1.1289054866e+02   4.1961327930e+01    0.2215612     0.151996  61.98  0.001198545    1.579    0.367
       322  -9.3503     16.0182    142.0179   1.2155017208e+02   4.3256912994e+01    0.2373283     0.105835  79.08  0.001034069    2.724    0.633
       323 -10.2570    226.6034    134.3140   6.8506456384e+01   8.3524272918e+00    0.4540691    0.2913398  60.24  0.002073094    2.061    0.515
       324  -8.7765    144.5024     13.9632   4.9240275028e+01   4.7213055821e+01    0.1942414    0.1394704 -19.50 0.0008211737    1.541    0.351
       325  -8.8152    241.5159    134.5085   6.5983229280e+01   5.3924257498e+00    0.1418804    0.1238703 -18.81 0.0001581402    1.005    0.005
       326 -10.5551     37.6112    126.8799   1.1393933755e+02   4.4980995897e+01    0.3067183    0.1959259 -68.32  0.000427249    1.311    0.237
       327  -9.3337     67.0893     12.8190   6.8806843461e+01   6.4512173875e+01    0.2869989      0.14587  36.82  0.001358137    1.817    0.450
       328  -9.1892      4.4996    130.5211   1.2332617602e+02   4.6771294210e+01    0.1216899   0.09299527 -84.81 -0.0001191899    1.048    0.045
       329  -9.6311     32.8718    127.9243   1.1541629420e+02   4.5179316136e+01      0.32662    0.1525753 -63.01 0.0008115529    1.730    0.422
       330  -8.7150     93.3163     10.4381   5.9255424562e+01   5.9624479404e+01    0.1702184    0.1241954  63.26 0.0004567019    1.565    0.361
       331 -10.7959     30.9519    122.6837   1.1521153926e+02   4.6620048212e+01    0.5429626    0.2643957 -52.96 0.0008497732    1.830    0.453
       332 -10.8352    230.4764    123.5215   6.5294866073e+01   9.4296727626e+00    0.6601129    0.4503066 -41.85  0.003026469    1.399    0.285
       333 -10.5322     48.7839    125.5675   1.1055293979e+02   4.4133853410e+01    0.3346599    0.3053718 -24.12   0.00181668    1.305    0.234
       334  -8.4736     23.4996    125.4656   1.1768501076e+02   4.6587148771e+01    0.1277527    0.1032182 -75.30 0.0001794579    1.003    0.003
       335 -10.8683     11.4568    122.6169   1.2064912724e+02   4.8166264106e+01      0.37194    0.3130814  -7.48  0.001966381    1.595    0.373
       336  -8.7083     93.7987    122.1898   9.6825168471e+01   3.8654712836e+01    0.2053856    0.1716369 -31.90 0.0006809913    1.301    0.231
       337  -8.8829     74.3979    122.1376   1.0245490570e+02   4.1708787557e+01    0.2936488    0.1698058  51.24  0.001302909    2.009    0.502
       338  -9.5239     69.5436    118.0999   1.0305959574e+02   4.3378425765e+01    0.3545998     0.239029 -69.63  0.001179648    1.482    0.325
       339  -9.8970     98.2918    117.4176   9.4420241211e+01   3.9021152563e+01    0.2827585    0.2564047  11.67 0.0007291661    1.232    0.188
       340 -10.4322     58.0259    117.1695   1.0632752552e+02   4.5106675336e+01     0.330505    0.2617041 -48.44  0.001039682    1.206    0.171
       341 -10.5812     26.0871    116.1059   1.1566017663e+02   4.8622067953e+01    0.4802292    0.2692363  15.22  0.002491819    2.406    0.584
       342  -9.2580     27.3324    108.5704   1.1413476064e+02   5.0328661326e+01    0.4212156    0.1468492 -72.29  0.001635181    2.789    0.641
       343  -8.5761     87.5128    116.5291   9.7365841410e+01   4.1058776581e+01     0.254009    0.1315347  48.18  0.001021929    2.201    0.546
       344 -10.7867     11.4153    114.7277   1.1971769282e+02   5.0033725668e+01    0.2602383    0.1988084 -54.07 0.0005859311    1.252    0.201
       345  -9.8045      2.2793    113.5515   1.2216469784e+02   5.0865532921e+01    0.3049413    0.2000002  83.31  0.001425611    1.459    0.315
       346  -9.7781     39.0596    114.9773   1.1163521789e+02   4.7728612495e+01      0.32811     0.259693 -67.80   0.00164491    1.064    0.060
       347  -9.5397     16.3310    112.1022   1.1795345027e+02   5.0322241096e+01    0.3986168    0.1774309  76.66  0.001515126    3.846    0.740
       348  -9.3822     50.1449    112.0657   1.0774286778e+02   4.7274055651e+01    0.2241547    0.1957849  73.93 0.0005191427    1.248    0.198
       349  -9.1549     90.4135    110.8770   9.5163703032e+01   4.1932069599e+01    0.3056068    0.2698865  67.00  0.001041004    1.259    0.205
       350 -10.4423     19.5635    109.2168   1.1658790561e+02   5.0777129875e+01     0.547004    0.1928894  42.75  0.002330903    3.366    0.703
