#   1 NUMBER                 Running object number                                     
#   2 MAG_AUTO               Kron-like elliptical aperture magnitude                    [mag]
#   3 X_IMAGE                Object position along x                                    [pixel]
#   4 Y_IMAGE                Object position along y                                    [pixel]
#   5 X_WORLD                Barycenter position along world x axis                     [deg]
#   6 Y_WORLD                Barycenter position along world y axis                     [deg]
#   7 A_WORLD                Profile RMS along major axis (world units)                 [deg]
#   8 B_WORLD                Profile RMS along minor axis (world units)                 [deg]
#   9 THETA_WORLD            Position angle (CCW/world-x)                               [deg]
#  10 FWHM_WORLD             FWHM assuming a gaussian core                              [deg]
#  11 ELONGATION             A_IMAGE/B_IMAGE                                           
#  12 ELLIPTICITY            1 - B_IMAGE/A_IMAGE                                       
         1 -17.3528    142.5307     84.6225   7.8545467055e+01   3.7076360469e+01      5.89474       4.5498  -6.79   0.02847922    1.527    0.345
         2 -17.3916    212.8140    119.7227   7.3890746625e+01   1.6473302175e+01      4.77562     3.354446 -17.19   0.02619791    1.338    0.253
         3 -18.6481    178.5839    139.1783   8.4464598647e+01   2.0169421906e+01     4.848141     2.602933  42.63   0.02297448    1.772    0.436
         4 -17.0031    184.5475     93.0041   7.2168824001e+01   2.6225316877e+01     4.775393     2.504365 -39.16   0.02056107    1.886    0.470
         5 -18.3252    191.7600    162.7313   8.6712857758e+01   1.4307911838e+01      6.02253     3.588661   2.73   0.02886574    2.333    0.571
         6 -17.6616    125.8316    154.2336   9.8691862175e+01   2.7129460954e+01     4.894818     3.704917  75.06   0.02671411    1.734    0.423
         7 -12.6329    216.5753     25.9060   4.8603351481e+01   2.7465222216e+01     0.702826    0.2274197 -40.81 0.0004261199    2.748    0.636
         8 -11.2313    175.1194     22.2758   5.2092376424e+01   3.8103892915e+01    0.2487963    0.2361598 -41.42 0.0003995437    1.035    0.034
         9 -12.5705    239.1001     16.3788   4.4164406477e+01   2.3304062421e+01    0.3790827    0.2558452 -65.63  0.001485834    1.583    0.368
        10 -10.3074     12.4853     15.9953   1.0319951166e+02   7.3269918063e+01    0.3221228    0.1020427 -57.40  0.001335617    2.624    0.619
        11 -10.7838     89.6637     14.9960   6.5883493356e+01   6.0707933139e+01    0.3330736    0.1289902 -26.08  0.001238866    2.538    0.606
        12 -10.8552    205.9136     13.3613   4.5974031740e+01   3.1225018914e+01    0.2594064     0.193197 -10.62 0.0006442217    1.380    0.276
        13  -9.9848     76.8651     11.7917   6.8259708540e+01   6.3977420642e+01    0.2095755    0.1702851  13.81 0.0004124102    1.204    0.169
        14 -11.2991     22.8801     10.4345   9.3535639383e+01   7.3362908017e+01    0.3763326    0.1596359 -50.92  0.001519594    2.191    0.544
        15 -12.4164    125.1788      8.5020   5.4496997777e+01   5.2621035276e+01    0.2865942    0.2590352 -32.02 0.0003269592    1.141    0.124
        16 -11.9255    248.9303      5.9775   4.0909151152e+01   2.2132854926e+01    0.4819506    0.1800062 -10.13  0.001839612    3.501    0.714
        17 -10.9284    196.9033      9.2293   4.5543297864e+01   3.3817438246e+01    0.2115784    0.1725187 -53.55 0.0005458413    1.192    0.161
        18 -10.6469    244.3059      8.6538   4.1849787888e+01   2.2877082417e+01    0.1383615   0.07464325 -48.79 0.0007042289    1.695    0.410
        19 -12.1354    238.3580      4.0033   4.1029713746e+01   2.4556092097e+01    0.2963008    0.2187891   0.41 0.0008027935    1.517    0.341
        20 -10.7129    107.4064      4.5901   5.6215017012e+01   5.7559954323e+01    0.2602535    0.2048384  28.76 0.0006911335    1.246    0.197
        21 -10.0351      7.2676      4.7490   1.0133066360e+02   7.5974651606e+01    0.1784011    0.1403828  12.24 0.0006689397    1.430    0.301
        22 -10.7276    201.9996      3.9520   4.3521897842e+01   3.3010846579e+01    0.1608669    0.1510579 -55.82 0.0003848639    1.021    0.020
        23 -11.3911    212.3910      4.8414   4.2982769994e+01   3.0417787629e+01    0.2818403    0.2023411  49.08  0.001140578    1.532    0.347
        24 -10.7891     39.7776      2.6914   7.8586317165e+01   7.2325248753e+01    0.2466971    0.1974525  44.84   0.00150474    1.490    0.329
        25 -11.3072    207.4917      1.9534   4.2515140580e+01   3.1836444999e+01    0.2701126    0.1974652  80.57  0.001293297    1.411    0.291
        26 -10.5592    141.4585      1.7282   4.9093776781e+01   4.8921835704e+01    0.2692594    0.1769374 -79.81 0.0008120255    1.784    0.440
        27 -10.6121     33.0222    236.0226   1.2603539301e+02   2.4839601244e+01    0.1562741    0.1088626  54.75  0.001217005    1.018    0.018
        28 -12.4177    192.9296    249.6063   9.9691802728e+01   3.8751231619e+00    0.3134007    0.1567817  33.11 0.0006673071    1.440    0.305
        29 -10.4161    113.0816    249.9720   1.1302201102e+02   1.3949418513e+01    0.1509029    0.1108506  40.20 0.0003108536    1.016    0.016
        30 -10.4172    164.0599    235.2445   1.0275370768e+02   9.1631429753e+00     0.196378    0.1144508  27.75 0.0006524498    1.419    0.295
        31 -11.5570    165.1043    231.0358   1.0207063708e+02   9.5140395853e+00    0.2518485    0.1815599  44.82 0.0008074912    1.379    0.275
        32 -11.2962    139.2955    223.8658   1.0580386712e+02   1.3952445683e+01    0.2506083    0.1713435 -69.83  0.001633007    2.328    0.570
        33 -11.1808    149.0844    234.0428   1.0520945916e+02   1.1317201094e+01    0.1713486    0.1282313  32.80 0.0003274928    1.009    0.009
        34 -12.4244    143.2605    230.1232   1.0579843557e+02   1.2593556384e+01    0.5029264    0.3240688  61.31  0.003007066    2.171    0.539
        35 -10.9277    118.4907    235.1196   1.1074271531e+02   1.5211569351e+01    0.2066561    0.1237422  33.58 0.0006896469    1.351    0.260
        36 -11.4982    201.2165    233.1829   9.6295072714e+01   4.4247049015e+00    0.1904548    0.1469327  29.71 0.0002318706    1.229    0.186
        37  -9.8480    245.5253    233.5105   8.9503165566e+01  -1.2144278450e+00    0.1039979   0.06978498  14.98 0.0001240758    1.014    0.014
        38 -11.6323    175.2641    231.9538   1.0044259232e+02   8.0289432879e+00    0.2972004    0.2291261 -17.93  0.001492068    1.515    0.340
        39 -10.0488    171.3790    232.1856   1.0113302897e+02   8.5286569331e+00     0.143881    0.1187695  25.54 0.0003244737    1.133    0.117
        40 -10.7829    228.2034    232.0873   9.1895922660e+01   1.0436467643e+00    0.1812085    0.1112974  26.64 0.0006277793    1.200    0.167
        41 -11.0776    214.5959    230.6026   9.3805669936e+01   2.9255057093e+00    0.2909962    0.1627277  46.76  0.001799487    2.265    0.559
        42 -11.1901     97.7908    231.0165   1.1411121495e+02   1.8407745873e+01     0.214232    0.1767476  67.68   0.00172023    1.277    0.217
        43 -10.8566     70.2360    230.6056   1.1910798500e+02   2.1754485981e+01     0.324056    0.1030797  44.76  0.001733917    2.240    0.554
        44 -11.2030    156.0562    228.7030   1.0336859528e+02   1.1030434357e+01    0.3038168    0.1915075 -15.85  0.001600987    2.358    0.576
        45 -11.2903    128.0379    229.7150   1.0848567389e+02   1.4689501400e+01    0.1503423    0.1401713  38.67 0.0006054178    1.220    0.180
        46 -10.3903    107.9365    230.5210   1.1221623386e+02   1.7200283674e+01    0.2610016    0.0906433  31.37  0.001035297    2.878    0.653
        47 -10.9797     82.7049    229.9884   1.1678582873e+02   2.0395343895e+01    0.3011002    0.1185271  33.94 0.0009304151    2.142    0.533
        48 -14.3163    239.5677    222.1442   8.8737555766e+01   4.9775460970e-01    0.5708088    0.3391684  36.10  0.003709721    1.562    0.360
        49 -11.2930    230.2325    219.8599   8.9820925781e+01   1.9075699963e+00    0.2589698    0.1532529  39.16 0.0009901666    1.664    0.399
        50 -11.5200    150.0633    228.0312   1.0434924662e+02   1.1934423219e+01    0.2730024    0.1246484  42.97  0.001561714    1.801    0.445
        51 -10.9580    219.7153    225.7367   9.2316133730e+01   2.7245309689e+00    0.3243626    0.1271665  27.70  0.001432314    2.292    0.564
        52 -11.3462    216.3963    222.0388   9.2311520467e+01   3.5240736005e+00    0.1916792    0.1441854  19.68 0.0003961028    1.082    0.076
        53 -10.9762    219.1379    248.8766   9.5521482138e+01   6.8717659843e-01    0.2008608    0.1279399  34.68 0.0008598315    1.384    0.277
        54  -9.8278      2.2905    208.3120   1.3053724094e+02   3.2073997440e+01   0.08136538   0.07248114 -64.03 0.0001919704    1.586    0.370
        55 -11.8380    105.6479    205.6099   1.1016088741e+02   2.1253084887e+01    0.3587792    0.1914703  22.54  0.001648127    2.485    0.598
        56 -11.2513    233.2846    203.6682   8.6847214715e+01   3.0660990788e+00    0.2029246    0.1667621 -17.06  0.001551781    1.455    0.313
        57 -11.2958     69.1058    203.0327   1.1724052049e+02   2.6350780509e+01    0.2420218    0.1731691  60.67  0.001131948    1.217    0.179
        58 -10.8422    102.2267    200.6753   1.1030823068e+02   2.2519264838e+01    0.2188963    0.1510601 -59.55  0.001324767    1.717    0.417
        59 -10.4318     44.8675    202.0681   1.2204301170e+02   2.9232233825e+01    0.2317145     0.141091  31.39  0.001526017    1.627    0.385
        60 -10.9281    214.1984    248.9847   9.6290087282e+01   1.2818411156e+00    0.2083524    0.1082439  28.72  0.001042947    1.382    0.276
        61  -9.3513    123.5868    199.7409   1.0591118014e+02   1.9669268587e+01    0.1179869   0.08303446  14.71 0.0001091614    1.747    0.428
        62 -10.6874     69.5528    194.6431   1.1642629539e+02   2.7769900301e+01    0.2953414    0.1897372  23.27  0.001793876    1.850    0.459
        63 -10.2154     46.8456    195.1031   1.2117506356e+02   3.0269555512e+01    0.1298973     0.123886  84.32 0.0003472368    1.299    0.230
        64 -10.7122    175.0979    244.9551   1.0203343637e+02   6.6290512763e+00    0.3057203    0.1411708  25.15  0.001765406    2.113    0.527
        65 -11.7083     52.3370    191.9724   1.1980547953e+02   3.0244918105e+01    0.2940907    0.1529612  32.45            0    1.825    0.452
        66  -9.6409     76.7220    192.3314   1.1470949271e+02   2.7300739880e+01    0.1183481   0.07391109  63.47 0.0003461697    1.602    0.376
        67 -11.4218    105.9556    190.2062   1.0833337450e+02   2.3760176814e+01    0.2866863     0.145105  37.81  0.001253732    1.683    0.406
        68  -9.8930     81.2861    187.6104   1.1326599454e+02   2.7569407570e+01    0.1589838    0.1022104  30.23 0.0008670448    1.571    0.363
        69 -11.0011     96.3712    185.4860   1.0979602750e+02   2.5928840063e+01     0.196774    0.1692071  51.36 0.0001531345    1.016    0.016
        70  -9.9602    248.0268    185.5058   8.1555500499e+01   2.8402597322e+00    0.1598149   0.09297612  33.20 0.0007041817    1.527    0.345
        71 -10.6566    108.2454    219.5486   1.1110571235e+02   1.8753306026e+01    0.1622822    0.1501905 -76.33 0.0006258832    1.334    0.250
        72  -9.7666     17.4716    184.5168   1.2664977018e+02   3.5091045110e+01    0.1070337   0.08353325  65.82 -9.727975e-07    1.027    0.026
        73 -10.6511     24.9943    181.9706   1.2492674838e+02   3.4900897675e+01    0.1611716     0.127484  65.13 0.0003061522    1.021    0.020
        74 -11.0426     85.6246    180.7936   1.1158187990e+02   2.8247488691e+01    0.2287944    0.1725927  60.69 0.0006380677    1.236    0.191
        75  -9.6113      9.4041    181.4348   1.2819597831e+02   3.6356840389e+01    0.1066463   0.07930168  66.43 1.432923e-05    1.021    0.021
        76 -10.4617     51.3425    180.0769   1.1907129132e+02   3.2590715914e+01     0.185255    0.1441682  33.61 0.0005873896    1.345    0.256
        77 -12.5303     91.7199    165.1100   1.0825753715e+02   3.0383079789e+01    0.6059418    0.3091837 -69.50 0.0005256461    2.401    0.583
        78 -11.9598     77.8370    169.0281   1.1197088324e+02   3.1527675284e+01    0.4397185    0.2269303  66.49  0.001684467    2.590    0.614
        79 -12.3600     85.3488    165.7721   1.0982660462e+02   3.1150597730e+01    0.5246542    0.3607944   3.88  0.001855871    2.423    0.587
        80 -11.7819     98.2742    166.7940   1.0697659120e+02   2.9108287333e+01     0.330262    0.2269115  39.61 0.0009882645    1.316    0.240
        81 -11.2035     95.4242    176.9227   1.0895738110e+02   2.7615518766e+01    0.2582979    0.2075378 -61.78  0.001431857    1.386    0.279
        82 -12.4753     90.5087    174.4909   1.0974852177e+02   2.8758024041e+01    0.5769705    0.2792284  33.24  0.002294006    1.995    0.499
        83 -10.2045     13.4044    176.7779   1.2713736141e+02   3.6922120792e+01    0.1453358   0.08671854 -73.59 0.0009563109    1.661    0.398
        84  -9.9842     68.7390    175.0346   1.1471592587e+02   3.1521628702e+01    0.1553966    0.1379668  75.46            0    1.089    0.082
        85  -9.9649     55.6830    169.3113   1.1712893026e+02   3.4213342162e+01    0.1263401   0.07438382  62.41 0.0004112864    1.640    0.390
        86  -9.6885     33.5121    169.4981   1.2224358242e+02   3.6539246809e+01    0.1158239   0.09143548  66.66 -0.0001206275    1.032    0.031
        87 -11.7209     66.1809    164.4992   1.1417559142e+02   3.3924293141e+01    0.3928358    0.2373334  70.12  0.002150449    1.814    0.449
        88 -11.7450    249.1775    160.5097   7.6807403758e+01   5.2647463020e+00      0.28446    0.2564797 -16.30  0.001120364    1.451    0.311
        89 -12.8533     76.1567    159.3644   1.1118517908e+02   3.3681041305e+01    0.4838733    0.4075804  30.90  0.000519075    1.275    0.215
        90 -10.9442     83.1956    152.3615   1.0853045174e+02   3.4149498735e+01    0.2238543    0.1958674  65.69  0.000836253    1.058    0.055
        91 -12.4479     80.5412    149.1147   1.0872631138e+02   3.5195935864e+01    0.4565491    0.2468912 -57.62  0.001972566    1.892    0.472
        92 -12.3928    100.9082    172.6081   1.0717558822e+02   2.7627459087e+01    0.4351792    0.3263147  89.50  0.002621657    1.593    0.372
        93 -10.5102     56.9822    158.0141   1.1567311104e+02   3.6367533094e+01    0.1844392    0.1533372  70.33  0.000463656    1.057    0.054
        94 -11.6196     42.2177    160.8816   1.1951881115e+02   3.7414734301e+01    0.5135352    0.1634362 -78.43  0.002057754    3.617    0.724
        95 -10.9125     15.7079    156.0666   1.2549572001e+02   4.0902197216e+01    0.1614498    0.1217917  83.67 0.0003977281    1.116    0.104
        96 -10.3143     73.4977    218.9285   1.1765190324e+02   2.3193783491e+01    0.2354336    0.1033521 -68.53  0.001354778    2.695    0.629
        97 -17.3833    191.5597    115.6130   7.6625302255e+01   2.1269999521e+01     4.049977     1.806653  57.58   0.01524876    3.073    0.675
        98 -11.2866    125.6868    205.0612   1.0615194659e+02   1.8545767830e+01    0.3363481    0.1879034  50.09 0.0003427992    1.718    0.418
        99 -10.9926     16.4828    161.2084   1.2562090028e+02   3.9773938835e+01    0.1919563     0.140514  38.30 0.0007407079    1.374    0.272
       100 -12.8111     71.8060    139.0376   1.0950683646e+02   3.8544996140e+01    0.6125333    0.3689848  70.91  0.002582086    2.061    0.515
       101 -10.6844     36.9160    142.0914   1.1908998624e+02   4.1969517153e+01    0.3299435     0.142795  88.74  0.001434103    2.805    0.644
       102 -11.1965    248.6904    138.2646   7.2433268418e+01   7.8010055965e+00     0.318795    0.1826873  50.66  0.001352862    2.151    0.535
       103 -10.0386     23.0890    137.8189   1.2233728393e+02   4.4200933214e+01    0.1886787    0.1327866  67.97 0.0006390487    1.254    0.203
       104  -9.9211     55.5758    135.9395   1.1341379683e+02   4.1288275160e+01    0.1702473   0.09098238 -45.76 0.0003171226    2.307    0.567
       105 -11.7168     75.0484    128.2957   1.0694574044e+02   4.0458505249e+01    0.2538953    0.2499759  36.25 0.0008980626    1.141    0.123
       106 -11.2992     78.0221    131.9222   1.0673674621e+02   3.9236192917e+01     0.227534     0.182468 -57.26  0.001327338    1.268    0.212
       107 -13.2620    123.1385    214.7615   1.0777533212e+02   1.7454059756e+01    0.4587252    0.3832115  65.16  0.001663319    1.342    0.255
       108 -11.6267     68.4942    131.4836   1.0925941841e+02   4.0649535110e+01     0.222244    0.2075663  65.10 0.0006275048    1.064    0.060
       109 -11.7276     64.0997    127.0395   1.0979100648e+02   4.2222085706e+01    0.3681133    0.2219327  58.72  0.001195612    1.797    0.443
       110  -9.5789     47.6358    132.6869   1.1516565105e+02   4.2929583733e+01    0.1242895   0.09314817 -34.69 0.0007039956    1.760    0.432
       111 -11.4802     69.6652    121.5291   1.0731123403e+02   4.2724457145e+01    0.2807107    0.1998657  63.31  0.001146318    1.497    0.332
       112 -11.9207     67.9120    114.6074   1.0659849437e+02   4.4541543852e+01    0.2677501    0.2500381 -47.82  0.001153931    1.162    0.139
       113  -9.9040     27.2048    118.0059   1.1927325265e+02   4.8331687460e+01    0.2128577     0.111884 -50.55  0.001048786    2.066    0.516
       114 -10.0540    250.1807    114.4182   6.7092644445e+01   1.0295326489e+01    0.2590282    0.1439005 -22.07  0.001378645    1.549    0.354
       115 -11.2449      5.9946    114.4825   1.2522805840e+02   5.0766639338e+01    0.1976532    0.1325786 -85.67 0.0007525674    1.230    0.187
       116 -17.1281    171.8595    154.6590   8.8954878145e+01   1.8982693406e+01     1.711979    0.9962491  16.49  0.007686045    2.408    0.585
       117 -10.3666     73.5327    110.0786   1.0406035688e+02   4.4784197954e+01    0.2113652    0.1282691 -59.95 0.0006569457    1.579    0.367
       118 -10.6419     57.9699    109.9502   1.0876906894e+02   4.6927491710e+01    0.1959512    0.1781538 -89.17 0.0003201138    1.020    0.019
       119 -10.9733     33.2831    109.1924   1.1634062314e+02   4.9834878853e+01    0.2084034    0.1854314  76.36 0.0002986999    1.081    0.075
       120 -10.5857     24.1992    108.9840   1.1915781778e+02   5.0697250926e+01     0.237429    0.1506555  80.07  0.001328816    1.537    0.350
       121 -12.0830    128.5089    211.1676   1.0633837948e+02   1.7233050863e+01    0.3109943    0.2598106 -59.51 0.0009887326    1.512    0.339
       122 -11.4193     79.6144    106.1167   1.0141529686e+02   4.4774893141e+01    0.2785738    0.2044547  30.83  0.001459984    1.490    0.329
       123 -10.3248    241.2223    104.3609   6.6019671653e+01   1.3090285522e+01    0.2138709    0.1502254 -10.99 0.0006605057    1.277    0.217
       124 -11.4174     84.9326    100.3013   9.8504738167e+01   4.5242539037e+01    0.2693768    0.1973939 -48.57 0.0006524964    1.337    0.252
       125 -12.5699     92.4159     93.7750   9.4637173329e+01   4.5423008427e+01    0.6483198    0.3038483 -59.17            0    2.484    0.597
       126 -12.7637     98.4854     91.3835   9.2195317087e+01   4.4849219538e+01    0.4879543    0.3814514 -41.21  0.002090636    1.273    0.215
       127 -12.3683    101.0527     98.1187   9.3207799341e+01   4.2926319027e+01    0.6393649    0.2883258  50.55  0.002425005    2.551    0.608
       128 -11.8879    103.6116     95.0693   9.1683560644e+01   4.3105022295e+01    0.3726225     0.267201 -45.45  0.001030667    1.370    0.270
       129 -12.7012     72.9405     97.3741   1.0155009666e+02   4.7786187677e+01    0.5143147     0.370937 -64.23  0.001443831    1.350    0.259
       130  -9.9413    132.8827    246.4928   1.0931431715e+02   1.1907779401e+01    0.1622442   0.07579948  38.84  0.001012536    1.554    0.356
       131 -10.9489     61.0394     97.4354   1.0539850133e+02   4.9455971978e+01    0.2244381    0.1715129 -53.97 0.0004364993    1.244    0.196
       132 -12.1914    227.3521     90.7465   6.4673866395e+01   1.7456461834e+01    0.3342796    0.2965097  63.48  0.002038196    1.387    0.279
       133 -10.5428     46.1285     93.2322   1.0954817608e+02   5.2290467963e+01    0.2668036      0.15418 -54.08 0.0007997986    1.593    0.372
       134 -12.2733     87.9945     88.7546   9.4677784762e+01   4.7302573713e+01     0.545822    0.4065059 -21.45  0.002507903    1.711    0.416
       135 -11.1864     66.2940     90.2161   1.0206645802e+02   5.0413830807e+01    0.3179117    0.2481298  38.94  0.001110104    1.363    0.266
       136 -11.4121     59.3427    216.0556   1.2014235700e+02   2.5280794382e+01    0.3146659    0.2585015   8.67  0.002369941    1.735    0.424
       137 -11.9679    248.5287     87.8725   6.1190749163e+01   1.3692808548e+01    0.2658805    0.1991837  -5.35 0.0004628293    1.227    0.185
       138 -12.9929    104.9257     84.9307   8.8506915807e+01   4.4994261338e+01    0.6236606    0.5354869  83.40  0.002658437    1.385    0.278
       139 -11.6598    239.8626     85.8850   6.1797263490e+01   1.5582828065e+01    0.2426416    0.2160689  24.53 0.0004112062    1.186    0.156
       140 -11.1528    239.5120     82.0324   6.0898573181e+01   1.6114047384e+01    0.2697362    0.1910212 -25.14 0.0008413231    1.218    0.179
       141 -10.2804    230.7877     85.3795   6.2864222970e+01   1.7441972080e+01     0.222376    0.1532828  41.06 0.0008057005    1.537    0.349
       142 -10.4110      8.5070     81.1201   1.2109949742e+02   5.8459762207e+01    0.2166863    0.1474143  49.75 0.0008252675    1.583    0.368
       143 -10.4300    248.0162     77.9257   5.8865272188e+01   1.4943143974e+01    0.1954825    0.1634457  -9.67 0.0005185567    1.056    0.053
       144 -11.7469     98.4067     77.3708   8.8205969305e+01   4.7846057166e+01    0.3811143    0.2798175 -83.25  0.001676263    1.997    0.499
       145 -10.2671    230.7573     74.7647   6.0188476206e+01   1.8759517173e+01    0.3030141    0.1925997  -9.59  0.001163547    1.616    0.381
       146 -11.4590     87.4237     73.6971   9.0543910398e+01   5.0690009778e+01     0.383034    0.2464544 -18.00  0.001210117    2.425    0.588
       147 -12.0016     85.9305     68.2249   8.9305806817e+01   5.2128896480e+01    0.3685439    0.3286832 -74.54 0.0008438931    1.248    0.198
       148 -10.1766    225.9253     72.3106   6.0180035377e+01   2.0070885907e+01    0.3204878    0.1758936  -5.87  0.001169433    2.282    0.562
       149 -11.0066    236.0048     71.9607   5.8821187042e+01   1.8020328887e+01    0.2149352     0.172884 -29.10 0.0003355489    1.121    0.108
       150 -11.9209     93.3682     71.3856   8.7905713947e+01   5.0068457388e+01    0.2933541    0.2648522 -72.06 0.0003273652    1.213    0.176
       151 -12.1051     24.1123     71.2839   1.1347659809e+02   5.9715768363e+01     0.226419    0.2066028 -67.04 0.0003300679    1.079    0.073
       152 -10.9939     53.1668     69.7503   1.0158953108e+02   5.6975042043e+01    0.2948876    0.1644806 -46.67  0.001033385    1.675    0.403
       153 -10.7940     43.5478     69.0420   1.0516628429e+02   5.8327704360e+01    0.2231249     0.178264 -29.08  0.001025986    1.385    0.278
       154  -9.5471     13.5549     68.4298   1.1725965788e+02   6.1185372542e+01    0.1252597    0.1042053 -71.86 7.833789e-05    1.007    0.007
       155 -10.8898      6.6977     68.0371   1.2001926967e+02   6.1696128938e+01    0.2033081    0.1743421 -29.39 0.0006446969    1.352    0.260
       156 -10.0395    244.3611     66.7011   5.6526974439e+01   1.6946658919e+01    0.2034679    0.1388468  84.66 0.0009928367    2.120    0.528
       157 -10.7348    241.1029     63.6442   5.6125226609e+01   1.7952156396e+01    0.3195696    0.1721374 -32.34 0.0006127885    1.584    0.369
       158 -11.1358    155.7511    245.2274   1.0529286279e+02   9.1127816708e+00    0.2263938    0.1087028  33.24 0.0008112129    1.580    0.367
       159 -16.9978    208.3358    180.2232   8.6974961166e+01   9.3087097644e+00     3.672646     2.252054  27.77   0.02185814    1.415    0.293
       160  -9.4205     37.2969     65.3209   1.0675521843e+02   5.9895503720e+01    0.1373112   0.08991548 -37.63 0.0003496301    1.618    0.382
       161 -11.9908    129.7419     61.9723   7.4451567218e+01   4.4056336909e+01    0.3413101    0.2790169  82.80 0.0002914696    1.529    0.346
       162 -10.2791     47.6096     62.7812   1.0183365272e+02   5.9297416243e+01    0.1915811    0.1212964 -68.60 0.0003259621    1.657    0.397
       163 -10.9288     29.9135     62.6147   1.0918787403e+02   6.1272246278e+01     0.237748    0.1690769 -69.75 0.0003968734    1.274    0.215
       164 -10.5120    210.2618     60.1584   5.8986158654e+01   2.5027850905e+01    0.2529522    0.1742229 -71.87 0.0007866622    2.012    0.503
       165 -10.5830     10.0720     59.4723   1.1716778949e+02   6.3547443843e+01    0.2630673    0.1284489 -55.87   0.00124131    1.671    0.402
       166 -12.5284    137.8026     58.3545   7.1284881494e+01   4.2752203496e+01     0.599899     0.301743  40.00  0.001792318    2.238    0.553
       167 -10.9165     35.1782     57.7209   1.0565097887e+02   6.1898989866e+01    0.3956098    0.1940247 -42.51  0.001807957    2.034    0.508
       168 -10.2413     18.4808     58.0085   1.1312678047e+02   6.3328373725e+01    0.1914502    0.1080048 -68.02  0.000371437    1.498    0.332
       169 -10.5337      2.2550     57.9779   1.2038509288e+02   6.4325225408e+01    0.2702383    0.1593046  23.48  0.001255743    2.022    0.505
       170 -11.5607    210.2742     54.3282   5.7351908344e+01   2.5747999522e+01    0.3472081    0.2798711 -83.79  0.001438529    1.510    0.338
       171 -13.0910    201.0881     52.3450   5.8007058657e+01   2.8137383343e+01    0.4611714    0.3761048  25.56 0.0008564438    1.318    0.241
       172 -11.6133    206.4760     50.0181   5.6618540121e+01   2.7154668765e+01    0.3952993    0.1872902 -31.93  0.001324653    1.868    0.465
       173 -10.5176    110.9091     55.0786   7.6987701126e+01   4.9598326554e+01    0.2505882    0.2174868  45.37 0.0003854237    1.183    0.155
       174 -12.3834    184.1324     52.4766   6.0520792761e+01   3.2207651014e+01    0.7693375    0.3150862 -36.36  0.002925428    2.243    0.554
       175 -12.0210    249.3052     53.0150   5.2603876705e+01   1.7476231208e+01    0.2309577    0.1874829 -25.38  0.000283673    1.043    0.041
       176 -12.2876    125.2236     52.3132   7.2166482488e+01   4.6766585849e+01    0.5442005    0.4241345  16.36  0.002630313    1.478    0.324
       177 -11.0114    128.9732     49.2296   7.0119105993e+01   4.6368488045e+01    0.2892106    0.2128256 -39.55 0.0007411877    1.351    0.260
       178 -11.9143    118.5133     50.6959   7.3290519691e+01   4.8620927096e+01    0.5453723    0.3649661 -50.76  0.001562701    1.677    0.404
       179 -10.7513    114.4411     47.5376   7.3179734336e+01   5.0102105618e+01    0.2373064    0.2237377 -16.18 0.0005272583    1.021    0.020
       180 -10.4260     59.1081     52.9039   9.3974184795e+01   5.9921667653e+01    0.3523812     0.150084  45.06  0.001391212    2.772    0.639
       181 -12.9781    147.3572     46.3598   6.5028837914e+01   4.2252386170e+01    0.5553477    0.3662136 -28.26 0.0004687148    1.483    0.325
       182 -10.5759     65.9853     50.7865   9.0458651619e+01   5.9284910075e+01    0.2627977     0.195416 -52.48  0.000665546    1.313    0.238
       183 -11.6609    242.3582     48.2468   5.2086032620e+01   1.9407990553e+01    0.2748965    0.2531502  29.32 0.0007398518    1.203    0.169
       184 -11.0476    122.2242    244.0535   1.1092367267e+02   1.3564589449e+01    0.3109338    0.1078072  41.22  0.001693562    2.094    0.522
       185 -10.9200     29.6323     48.7634   1.0559769817e+02   6.4532225581e+01    0.2769163    0.1533289 -67.82  0.001351061    1.783    0.439
       186 -10.3144    230.3545     47.3934   5.3092727790e+01   2.2054815567e+01    0.2612285    0.1739537 -43.03  0.000914076    1.436    0.304
       187 -11.0206     94.9640     48.0285   7.9084160228e+01   5.4349166357e+01    0.2224827    0.2093797  -6.35 0.0004108467    1.035    0.034
       188 -10.6508    114.3733     55.9011   7.6322591805e+01   4.8670935274e+01    0.2781669    0.2306923  -5.73   0.00119582    1.319    0.242
       189 -13.1927    191.8949     43.2888   5.6567673919e+01   3.1470372088e+01    0.5577338    0.3073396 -27.52  0.001557378    1.683    0.406
       190 -11.0419    186.6303     44.1231   5.7563901064e+01   3.2664898474e+01    0.2652988    0.2044913 -83.37 0.0006334354    1.558    0.358
       191 -10.4379     13.3309    216.8908   1.2878891214e+02   2.9702934110e+01    0.1364709    0.1016464  69.13  0.001138084    1.120    0.107
       192 -12.0325    155.2866     43.9694   6.2652086640e+01   4.0584595733e+01     0.355094    0.2714816 -30.46  0.001032074    1.269    0.212
       193 -10.8400    223.4910    216.9148   9.0434072925e+01   3.0816095713e+00    0.2237229    0.1292479  32.15  0.001495837    1.383    0.277
       194 -12.0216    237.2722    213.5089   8.7779855273e+01   1.5831195318e+00     0.206441     0.145887  22.03 0.0004372677    1.130    0.115
       195 -11.0638    130.4109     44.1480   6.7891793025e+01   4.6809589030e+01    0.3155104     0.226943  66.59 0.0005890158    1.553    0.356
       196 -11.6265    119.1814     43.1980   7.0257495602e+01   4.9688698865e+01    0.3851634    0.2417736  -1.36   0.00152949    2.319    0.569
       197 -10.5721    124.7697     43.0343   6.8805350695e+01   4.8363221839e+01    0.3089735    0.1526904 -38.75 0.0004054298    1.984    0.496
       198 -10.9218    123.8500     39.5861   6.7690438104e+01   4.9112006937e+01    0.2843967    0.2148144 -51.86  0.001366021    1.479    0.324
       199 -11.9284    176.2453     39.1071   5.7497932524e+01   3.5887707295e+01    0.4716004    0.4036025 -12.48   0.00166804    1.165    0.141
       200 -10.7887    181.2012     37.0921   5.6122101207e+01   3.4879602926e+01    0.2408624    0.1922684  46.83 0.0004167538    1.291    0.225
       201 -11.0146    115.2846     42.0086   7.0798679665e+01   5.0806454490e+01    0.2143487    0.1952749 -22.25 0.0005541054    1.064    0.060
       202 -10.8985     30.7933    213.9232   1.2543779828e+02   2.8601736577e+01    0.1853025    0.1179659  35.07 0.0007044732    1.466    0.318
       203 -11.6757     92.7861     38.3578   7.5815716965e+01   5.6520019782e+01    0.4418551    0.2406981 -43.26  0.001239917    1.858    0.462
       204 -10.0858     11.9894     39.9847   1.1189632551e+02   6.8007995712e+01    0.1807018    0.1376197  78.70 0.0003687595    1.563    0.360
       205 -11.4467    165.1168     38.1003   5.8912797592e+01   3.8850596851e+01    0.3218862    0.2974165  85.99 0.0004951804    1.157    0.136
       206 -11.3307    153.5378     38.0699   6.0902888115e+01   4.1826785774e+01    0.4177991    0.2388738  41.63 0.0009841718    1.873    0.466
       207 -10.1596      3.2650    211.6422   1.3045426715e+02   3.1428701942e+01    0.1062605   0.04843136  60.61 0.0006986305    1.632    0.387
       208 -11.3418    133.1711     33.2704   6.3113462691e+01   4.7680229957e+01    0.2879953    0.2464653  11.17 0.0004572394    1.218    0.179
       209 -11.5044     55.2861     38.5957   9.0086264577e+01   6.3500535529e+01    0.2673372    0.2209397 -30.64 0.0001997424    1.113    0.102
       210 -10.1643     15.5736    223.3062   1.2860810766e+02   2.8454484995e+01    0.1173391   0.08177979 -80.69 0.0008633017    1.568    0.362
       211  -9.5481    104.4928     37.5065   7.1919834875e+01   5.4047005281e+01    0.1482947    0.1402888  -4.48 0.0008106176    1.003    0.003
       212 -10.9245    219.7926     35.2968   5.0913118096e+01   2.5741055949e+01    0.2495878    0.2024177 -19.73 0.0004687787    1.149    0.130
       213 -12.2668    187.9282     32.9195   5.3885444110e+01   3.3673800318e+01    0.3227896    0.2569052 -25.36 0.0004040084    1.196    0.164
       214 -11.4243    199.6979     32.7326   5.2378861698e+01   3.0782069112e+01    0.2642031    0.2265224 -46.91 0.0005702839    1.144    0.126
       215 -10.9950     98.8904     32.4403   7.1374376056e+01   5.6126309729e+01    0.3696727    0.2254944  26.67   0.00123335    2.072    0.517
       216  -9.6868    231.5724     40.1717   5.1049574336e+01   2.2577804689e+01     0.182894    0.1188514  -8.18 0.0004105408    1.617    0.381
       217 -10.1107     18.8056     39.3942   1.0814497770e+02   6.7641723943e+01    0.1604511    0.1152841 -10.08 0.0003096238    1.647    0.393
       218 -11.4760    209.2425     25.0865   4.9085385053e+01   2.9283270334e+01    0.4026649    0.2090732  72.64  0.001076014    2.099    0.524
       219 -12.4536    214.4655     31.5028   5.0396276692e+01   2.7380143721e+01     0.480055    0.2395032  63.29 -4.524757e-05    2.091    0.522
       220 -10.3524     44.5152    209.0159   1.2254645963e+02   2.8061236372e+01    0.1590184    0.1153996  47.98 0.0004189823    1.118    0.106
       221 -10.5903    194.2870     31.3502   5.2603267446e+01   3.2264954067e+01    0.2281389    0.1582933  25.79 0.0006925835    1.696    0.410
       222 -10.9196    195.3577     28.1010   5.1480397429e+01   3.2352768200e+01     0.228979    0.1877504  54.48 0.0005947247    1.272    0.214
       223 -11.1919    166.2041     30.8520   5.6261125253e+01   3.9456641083e+01    0.3471925    0.2311617  51.43 0.0004929457    1.502    0.334
       224 -10.6748    203.5236     29.5095   5.0983097211e+01   3.0200516989e+01    0.1394645    0.1290281 -35.02 -1.356274e-05    1.015    0.015
       225  -9.5766     86.3389    244.7051   1.1723194195e+02   1.7852544090e+01    0.1067453   0.05672053  54.33  0.000702971    1.653    0.395
       226 -12.3112     95.0967    214.1266   1.1309239446e+02   2.1295050192e+01    0.5030714    0.2662648  22.54  0.002660799    2.518    0.603
       227  -9.9586      6.7108     28.7028   1.1159600602e+02   7.0911215890e+01    0.1277801   0.07271242 -41.74 0.0001985156    1.555    0.357
       228 -10.9528    141.8284     27.1810   5.9036981882e+01   4.6234608309e+01    0.2151317    0.2015096 -52.33 0.0004289846    1.118    0.105
       229 -10.9252     66.1189     24.6661   7.9057228713e+01   6.4230770465e+01    0.2520017    0.1750225 -42.24 0.0008537992    1.432    0.302
       230 -10.6766     46.9032     24.9962   8.7790231638e+01   6.7436205488e+01     0.206685    0.1769114 -29.21 0.0005185734    1.024    0.023
       231 -10.7665     49.5821     20.1490   8.4016829525e+01   6.7899934026e+01    0.4366243    0.2290222 -19.84  0.001750145    2.816    0.645
       232 -11.9241    201.7651     23.0612   4.9251039345e+01   3.1299100078e+01     0.353765    0.2589173 -18.46  0.001870157    1.329    0.248
       233  -9.7805     10.3187     24.3036   1.0794551376e+02   7.1654858749e+01    0.1309489   0.07462409 -37.18  0.000345018    1.627    0.385
       234 -10.2309     48.1859    244.2302   1.2380120140e+02   2.2106407685e+01    0.1713299   0.06903483  57.48  0.001058415    2.111    0.526
       235 -10.7564     16.2719     18.8607   1.0202925311e+02   7.2350677093e+01    0.1778068    0.1691638  19.21 0.0004385905    1.278    0.218
       236 -10.8398    241.4730    242.9869   9.1411150123e+01  -1.5042142274e+00    0.1292926   0.08290508 -13.66 0.0006173861    1.554    0.356
       237 -10.4249     11.8299    208.1622   1.2875792573e+02   3.1308601528e+01    0.1500266    0.1169339  62.21 0.0003658884    1.091    0.083
       238 -10.2613    223.5000    241.5449   9.3903980159e+01   7.9072885987e-01    0.1046672   0.07060564  19.14 3.652716e-05    1.032    0.031
       239  -9.7641    137.2566     16.3892   5.5627999839e+01   4.8659803464e+01    0.2066899    0.1413481  81.82 0.0009508548    1.666    0.400
       240 -10.1435    207.8319    240.8875   9.6247542556e+01   2.8169332677e+00    0.1653559    0.1049493  20.79 0.0009178612    1.196    0.164
       241 -10.7684    222.8714     21.8067   4.6889040679e+01   2.6413096092e+01    0.1971175    0.1740431  19.76 0.0005339718    1.251    0.200
       242 -10.2021     50.0220     15.4819   8.1257704915e+01   6.8625199051e+01    0.1892526    0.1305867  40.09 0.0006265995    1.568    0.362
       243 -10.7858    189.8307    241.2453   9.9175484212e+01   5.0997073640e+00    0.1509616    0.1082083  31.49 0.0004678683    1.144    0.126
       244 -10.2146     98.9105     21.4426   6.6368446705e+01   5.7712760658e+01    0.1983155    0.1307162 -87.91 0.0008068945    2.567    0.610
       245 -10.6516    151.1193    240.5994   1.0558025179e+02   1.0255314876e+01    0.1491197    0.1300892  41.44 0.0004303458    1.264    0.209
       246 -10.9055    113.1203    241.0906   1.1224655535e+02   1.5096510506e+01     0.262955    0.1103311  29.45  0.001404225    2.397    0.583
       247 -11.9512    183.2469    237.6398   9.9810069775e+01   6.3379302794e+00    0.4053869     0.189554  31.59  0.001734909    1.652    0.395
       248 -12.3670    232.4951    235.8892   9.1773128678e+01   1.7298500257e-01    0.3019312    0.1883762   7.46  0.001278936    1.353    0.261
       249 -12.4526    193.3721    234.9846   9.7807315437e+01   5.2766877760e+00    0.5629286    0.2746679 -45.77  0.003009157    3.270    0.694
       250 -11.6471    207.8266    228.1426   9.4546214096e+01   4.0565310831e+00     0.350099    0.1790984   2.86  0.001845726    2.948    0.661
       251  -9.5592     64.4719     11.5188   7.2664909859e+01   6.6584350067e+01    0.1375569    0.1220724  -4.17 0.0001598052    1.006    0.006
       252 -12.2465     12.9570    203.8374   1.2838471633e+02   3.1962865178e+01    0.4984608    0.1559679  65.99  0.002452243    3.031    0.670
       253 -11.7568    196.0081    226.9756   9.6315165972e+01   5.7616202955e+00    0.3485261    0.1772903  39.47  0.002166899    1.648    0.393
       254 -17.2854    211.6011    137.1380   7.7988298496e+01   1.4326500471e+01     3.461953     2.512643  73.58   0.01730064    2.588    0.614
       255 -10.9847    194.3032    223.0388   9.6060846760e+01   6.4167447361e+00    0.2085839    0.1529114  19.88 0.0003686715    1.066    0.062
       256 -12.8392    204.0118    224.5448   9.4665769536e+01   4.9335804537e+00    0.4696918    0.2348381  23.42  0.001966203    1.828    0.453
       257 -11.4406    199.0571    220.2735   9.4882660258e+01   6.0613732255e+00    0.3131961    0.1768817  36.21  0.001672459    1.433    0.302
       258 -11.8447    126.2474    236.2995   1.0947586103e+02   1.4050837687e+01    0.2891337    0.2152174 -83.38  0.001378012    2.009    0.502
       259 -11.2149    103.6499    237.0668   1.1357349907e+02   1.6824304130e+01    0.3158879    0.1668017  55.03  0.001992564    1.879    0.468
       260 -10.0418     42.6427    236.1970   1.2436723036e+02   2.3864715272e+01    0.1157205   0.08396619 -72.14 0.0007337255    1.682    0.406
