#   1 NUMBER                 Running object number                                     
#   2 MAG_AUTO               Kron-like elliptical aperture magnitude                    [mag]
#   3 X_IMAGE                Object position along x                                    [pixel]
#   4 Y_IMAGE                Object position along y                                    [pixel]
#   5 X_WORLD                Barycenter position along world x axis                     [deg]
#   6 Y_WORLD                Barycenter position along world y axis                     [deg]
#   7 A_WORLD                Profile RMS along major axis (world units)                 [deg]
#   8 B_WORLD                Profile RMS along minor axis (world units)                 [deg]
#   9 THETA_WORLD            Position angle (CCW/world-x)                               [deg]
#  10 FWHM_WORLD             FWHM assuming a gaussian core                              [deg]
#  11 ELONGATION             A_IMAGE/B_IMAGE                                           
#  12 ELLIPTICITY            1 - B_IMAGE/A_IMAGE                                       
         1 -14.1400    170.2363     45.4086   6.9565212577e+01   3.7110557032e+01     1.123123     1.034509  16.25  0.004017438    1.358    0.264
         2 -14.3713    189.2177     12.2550   5.8888086074e+01   3.6602211416e+01     1.905009     1.057605  71.04  0.007069398    1.507    0.336
         3  -9.1290    176.0250    249.0047   1.1354291234e+02  -3.7500341508e+00    0.1480258    0.1380258  -8.36  0.000479486    1.146    0.128
         4  -8.7397    163.2565    250.6448   1.1639491646e+02  -1.9375459217e+00    0.1226266   0.09907814  72.68  0.000378361    1.611    0.379
         5 -19.8440     61.5290    169.8967   1.2741419206e+02   3.2717692357e+01     20.17722      5.22533 -65.16   0.06107779    3.896    0.743
         6  -9.9147     11.2770    189.3973   1.4167898569e+02   3.3638319597e+01    0.1206716   0.08769067 -79.76 0.0001975733    1.114    0.103
         7  -9.3031    159.4931    247.9464   1.1676283711e+02  -8.4209020534e-01    0.1742114    0.1322196 -47.45 0.0004176934    1.505    0.335
         8  -9.7273    164.8192    187.2141   1.0504377966e+02   1.0305314913e+01    0.2216443    0.2032569  79.10 0.0005698546    1.200    0.167
         9 -10.4069    238.4076    185.7578   8.9792351235e+01  -2.9216002340e+00    0.1940853    0.1145876 -31.52 0.0007593673    1.607    0.378
        10 -12.5101     28.1476    183.9104   1.3738586104e+02   3.3276034500e+01    0.2267194    0.2218393 -35.69  0.000801356    1.356    0.262
        11  -9.4042    163.0000    181.9759   1.0440622119e+02   1.1813994021e+01    0.2551149   0.08622805 -48.13 0.0008079553    2.981    0.665
        12 -10.4989    150.9867    240.1500   1.1735858481e+02   2.0132070555e+00    0.2550654    0.1983878 -60.29 0.0007228774    1.499    0.333
        13 -11.2115    189.2697    178.4177   9.7885458690e+01   7.3811034634e+00    0.4305858    0.3323078  46.61  0.001262858    1.347    0.258
        14 -11.0417    188.1872    174.0048   9.7192654717e+01   8.5176796422e+00    0.6040221    0.3599196 -66.73  0.002279515    2.709    0.631
        15  -9.9536      4.8181    180.0737   1.4226503534e+02   3.6375608371e+01    0.1411899     0.110472 -61.87            0    1.320    0.243
        16 -10.2270    242.3240    178.6609   8.7692228939e+01  -2.2929018977e+00     0.130364    0.1047787 -70.08 0.0007051101    1.723    0.420
        17 -10.7939    225.6243    176.7756   9.0314482069e+01   9.0369909262e-01    0.2536914    0.1660462 -47.44 0.0008387563    1.503    0.335
        18 -10.7508      9.4393    175.2001   1.4078339674e+02   3.7128729392e+01    0.1792965    0.1523715  51.65 0.0006686251    1.333    0.250
        19  -9.8909    160.2116    239.3989   1.1530408810e+02   5.7876780917e-01     0.226878    0.1839699 -45.28 0.0006284484    1.377    0.274
        20  -9.3173    194.9905    172.7426   9.5497356446e+01   7.4381225924e+00    0.2080762    0.1994879 -21.18   0.00115992    1.009    0.009
        21  -9.5778    207.8870    171.9682   9.2719831059e+01   5.0994304068e+00    0.2766538    0.1919989 -60.15  0.001083617    1.735    0.424
        22  -9.5543    168.3131    201.6435   1.0705311459e+02   6.5573640413e+00    0.1484512    0.1165622  82.22 0.0002690463    1.740    0.425
        23  -9.6608     23.9156    165.8173   1.3635373055e+02   3.8065173385e+01    0.2013659    0.1467539  -0.06 0.0007800178    2.051    0.512
        24 -11.2345     14.0000    239.8789   1.4494630627e+02   2.2213880962e+01    0.2167684   0.05435753 -75.10 0.0008772512    3.485    0.713
        25 -11.1403    130.5395    158.5957   1.0732880096e+02   2.3766623727e+01    0.3958012    0.2174402 -51.62  0.001233785    1.799    0.444
        26 -12.9917    133.9969    146.2458   1.0371320868e+02   2.6008339414e+01     1.661947    0.4114617 -54.97  0.003579548    6.299    0.841
        27  -9.6758     15.5574    156.8712   1.3737671037e+02   4.0979231943e+01    0.1780713    0.1633197 -41.42 0.0005055627    1.318    0.241
        28 -10.4619    187.9423    154.5687   9.3036954923e+01   1.2692703369e+01    0.4979468    0.3107293  38.33  0.002166974    1.738    0.425
        29 -11.5446    150.5070    150.1685   1.0051239777e+02   2.1625591269e+01    0.5063159     0.373047 -87.26  0.002164918    1.857    0.462
        30 -12.2733    144.5963    146.7358   1.0116958640e+02   2.3674729625e+01    0.6134595    0.4463265  85.21   0.00258672    1.916    0.478
        31  -9.7334    174.8829    149.1164   9.4630194676e+01   1.6640693820e+01    0.2377928    0.2111483 -82.10 0.0004601835    1.232    0.188
        32 -11.9489    134.9309    122.2072   9.7696121694e+01   3.1372490067e+01    0.8188498    0.2438747 -49.29   0.00235072    3.495    0.714
        33 -10.8669    160.8465    128.0454   9.2835499931e+01   2.4359492862e+01    0.4851026    0.3608711 -77.03  0.002137442    1.702    0.412
        34 -10.7122    113.9151    117.8608   1.0220597965e+02   3.6724329756e+01     0.352373    0.2653916 -71.17  0.001226575    1.597    0.374
        35 -10.9438    168.3000    113.1339   8.7470524404e+01   2.5842004082e+01    0.4450661    0.3158405 -64.80  0.001245409    1.615    0.381
        36 -11.4760     22.3642    221.6025   1.4208154153e+02   2.5206257160e+01    0.1583115    0.1068546 -68.39 0.0006305755    1.447    0.309
        37 -10.8435    135.0000    111.5593   9.4943056853e+01   3.3699800067e+01    0.5514101    0.1831742 -46.88  0.001714134    3.032    0.670
        38 -10.0298    231.2988    113.6817   7.5943963317e+01   1.1840717241e+01    0.2449631    0.2299284 -49.34 0.0007231057    1.117    0.105
        39 -10.1134    205.5193    110.1697   7.9426679916e+01   1.7981122510e+01    0.3142323    0.2141711  45.86  0.000942704    1.630    0.386
        40 -10.7599    184.2649    210.0037   1.0516771015e+02   1.9352029473e+00    0.2005256    0.1817003 -32.33 0.0005976961    1.126    0.112
        41 -11.5370     11.7870    205.8078   1.4293830870e+02   2.9826809182e+01    0.1935012    0.1718718  71.18  0.000855517    1.253    0.202
        42 -13.3453    193.2164    195.2731   1.0046359170e+02   3.1991816219e+00     1.689796     1.354596  56.81  0.005909485    1.457    0.313
        43 -10.3466    160.2637    195.4600   1.0767987307e+02   9.3992015909e+00    0.3071784    0.2353653  89.98  0.001442182    1.787    0.440
        44 -10.3006    186.9337    186.9083   1.0012153965e+02   6.0736552010e+00    0.3390086    0.2564735 -70.83  0.001548965    1.756    0.430
        45  -9.7875    147.6534     82.0412   8.3889640482e+01   3.6698952096e+01    0.2070099    0.1947593 -42.14 0.0005648294    1.107    0.096
        46 -10.2636     91.6512     79.0486   9.7964005609e+01   4.9115600413e+01    0.2472833    0.1947915  29.31 0.0003893446    1.266    0.210
        47 -13.5406    157.4866     59.6555   7.5647254533e+01   3.8103160557e+01     1.226654    0.9659465  57.03  0.000946563    1.187    0.157
        48 -12.4166    174.7297     37.8294   6.6918287414e+01   3.7038310020e+01    0.3956853    0.3745548 -37.12  0.000979732    1.257    0.204
        49 -10.2422    249.6117    249.2126   9.9469224638e+01  -1.4599481462e+01    0.1691837   0.09332977 -24.56 0.0009498199    1.716    0.417
        50  -9.8519     13.4936     59.8317   1.2039506826e+02   6.2732319669e+01    0.1803888    0.1466019 -10.98 0.0003906731    1.190    0.160
        51 -11.6859    141.3191    188.8892   1.1080804764e+02   1.4512035133e+01    0.3208497     0.294754  40.36  0.001703355    1.083    0.076
