#   1 NUMBER                 Running object number                                     
#   2 MAG_AUTO               Kron-like elliptical aperture magnitude                    [mag]
#   3 X_IMAGE                Object position along x                                    [pixel]
#   4 Y_IMAGE                Object position along y                                    [pixel]
#   5 X_WORLD                Barycenter position along world x axis                     [deg]
#   6 Y_WORLD                Barycenter position along world y axis                     [deg]
#   7 A_WORLD                Profile RMS along major axis (world units)                 [deg]
#   8 B_WORLD                Profile RMS along minor axis (world units)                 [deg]
#   9 THETA_WORLD            Position angle (CCW/world-x)                               [deg]
#  10 FWHM_WORLD             FWHM assuming a gaussian core                              [deg]
#  11 ELONGATION             A_IMAGE/B_IMAGE                                           
#  12 ELLIPTICITY            1 - B_IMAGE/A_IMAGE                                       
         1 -10.8885     76.2990     53.4926   1.0221898544e+02   5.6203179623e+01     1.355176    0.3992884 -46.97  0.004473852    4.269    0.766
         2 -12.2121     51.4012     35.1761   1.0438940561e+02   6.2699800785e+01     1.107696    0.7560846   3.91  0.006795518    1.474    0.321
         3 -12.9915     20.1065     42.5025   1.1922407562e+02   6.4810643438e+01    0.4982208    0.4155632 -81.43 0.0005437132    1.974    0.493
         4 -12.3592    163.7041     10.6976   6.7427470475e+01   4.2932991856e+01      1.25102     1.020927  24.26  0.007587088    1.476    0.323
         5 -10.4502    167.4913     25.4846   7.0993559161e+01   4.0444680760e+01    0.7910517    0.5309917  34.24    0.0040248    1.807    0.446
         6 -12.0285     91.5215     18.7122   8.4862651428e+01   5.8246364426e+01     1.105423    0.4565432  -9.85  0.003039934    5.124    0.805
         7 -11.8256    129.9082     20.3856   7.6250814744e+01   4.9950178947e+01     1.262935    0.4339401  51.06  0.003762992    2.402    0.584
         8 -11.6275    148.7647     14.7103   7.0944141149e+01   4.6124843636e+01    0.7950345    0.5381998 -25.25  0.003465223    1.697    0.411
         9 -11.4809    123.9033      9.7820   7.3976129028e+01   5.2337052716e+01    0.4188282    0.3458423  59.62  0.001379573    1.116    0.104
        10 -11.6969    115.1522      7.4283   7.4985554649e+01   5.4471588837e+01     1.080941    0.3249584  50.09  0.003564615    2.565    0.610
        11 -12.3463    112.4129     21.6314   8.0547495295e+01   5.3687690014e+01    0.7583479    0.6004765 -39.78  0.003279395    1.470    0.320
        12 -12.8296    119.7205     15.5474   7.6788794444e+01   5.2724480710e+01     1.300013    0.2588097  57.02 0.0003544756    3.876    0.742
        13 -12.2508     66.1384     30.3824   9.7267851847e+01   6.1272346108e+01     1.042857    0.6622536  42.52  0.006066029    1.670    0.401
        14 -11.5176     67.2719     21.9214   9.3562500883e+01   6.2170909492e+01    0.4598413    0.2815117  32.01  0.001792153    1.498    0.332
        15 -11.4287     72.7159     17.6439   9.0060553330e+01   6.1768047762e+01     1.021034    0.3003329  47.39  0.004162997    3.219    0.689
        16 -13.5145     99.8329      6.1636   7.8002787578e+01   5.7803163164e+01    0.6641044    0.4240181 -31.63  0.003030812    1.789    0.441
        17 -11.6800     93.2032      8.2139   8.0428713021e+01   5.8949752096e+01     0.535719    0.2797311  40.79  0.002768838    1.642    0.391
        18 -11.6146     78.0432     29.1614   9.2857844057e+01   5.9485287195e+01    0.8459123      0.43377 -23.83  0.002657461    2.047    0.511
        19 -10.5203     78.3931      7.6434   8.4289842231e+01   6.1793999111e+01    0.6255124    0.4314095  -2.78   0.00387467    1.443    0.307
        20  99.0000     40.0904      4.8845   9.6277807121e+01   6.8047456860e+01    0.9642591    0.2667539  41.39  0.003667799    3.639    0.725
        21 -10.7673     26.2720      4.7587   1.0199228645e+02   6.9722494750e+01    0.5889135    0.2516805 -18.07  0.002962222    2.809    0.644
        22  99.0000     31.1412     12.0047   1.0311372538e+02   6.8311799185e+01    0.4730558    0.1746967 -30.86  0.002168934    2.480    0.597
        23 -10.5229     17.7244      2.9846   1.0502093962e+02   7.0818488678e+01    0.4788976    0.3087992  32.71  0.003431705    1.863    0.463
        24 -12.3597     19.0960     13.6671   1.0907744673e+02   6.9332700884e+01    0.6265678    0.5064009  28.11  0.004848064    1.658    0.397
        25 -11.9655      9.4282     25.9193   1.1814427306e+02   6.8336259869e+01      1.29479    0.5115498  17.08  0.007084851    2.858    0.650
        26 -10.9424     68.7860      4.6032   8.5956032307e+01   6.3754685449e+01    0.6765269    0.3070925  33.32  0.003515048    2.040    0.510
        27 -12.0419     57.9165      4.1626   8.9344626030e+01   6.5565336961e+01    0.7442327    0.3972583  48.16  0.004304991    1.984    0.496
        28 -11.6438     41.3259     17.3399   1.0120829694e+02   6.6436192074e+01    0.8642634    0.5308475 -23.91  0.005554001    1.429    0.300
        29 -11.1468     50.3697     10.9060   9.4979802345e+01   6.5993204359e+01     0.456131    0.3043167  18.93  0.002092415    1.310    0.237
        30 -11.0919      9.7968     19.2451   1.1551831243e+02   6.9324444232e+01    0.4074844     0.226248  18.76  0.002222655    1.878    0.468
        31 -11.1165      2.3140      3.0686   1.1244390703e+02   7.2129216823e+01    0.3083401    0.2089882   2.36  0.001171583    1.298    0.230
        32 -12.1966      3.0627     17.5835   1.1798009054e+02   7.0045094959e+01    0.3830781     0.156285 -35.46 0.0003474301    1.871    0.466
        33 -12.5767      4.2166     10.4246   1.1463213943e+02   7.0999142504e+01    0.8167868    0.4100371 -18.26  0.005186708    1.860    0.462
        34 -11.9538     29.8000     24.1998   1.0871243607e+02   6.6823125049e+01    0.4904852    0.2474483 -29.56  0.001556444    1.721    0.419
        35 -10.2726    184.9357     14.3221   6.5495352903e+01   3.7408628289e+01      0.48608    0.3587057  34.20  0.001848247    1.715    0.417
        36  -9.7666    186.9456     22.1431   6.7246333187e+01   3.6053794211e+01     0.492791    0.2520211 -47.14  0.002314739    2.043    0.511
        37 -11.0947    177.6690     30.1716   7.0700985820e+01   3.7385089094e+01    0.5609487    0.4911034  -1.23  0.003045213    1.432    0.302
        38 -11.1619    246.7619      4.9407   5.7211350639e+01   2.4040747002e+01    0.7844746    0.3466183 -67.12  0.003759771    2.306    0.566
        39 -10.2084    243.3995     12.5324   5.9001224537e+01   2.3901423793e+01    0.3533555    0.2925155 -62.79  0.001614513    1.158    0.136
        40 -10.0243    232.0993     19.5827   6.1494637981e+01   2.5594317092e+01     0.594914    0.3286513 -54.13  0.002003216    1.664    0.399
        41 -10.8522    232.9255     11.4023   5.9674997035e+01   2.6372742872e+01    0.3812426    0.2672075 -60.43 0.0005303422    1.264    0.209
        42 -10.6411    245.8946     19.9502   6.0299189781e+01   2.2456423070e+01    0.5388761    0.2690612  78.97  0.002747424    1.895    0.472
        43 -10.3473    239.4955     17.2668   6.0315452651e+01   2.4203568190e+01    0.5169731    0.2209123 -53.38  0.001446429    2.161    0.537
        44 -10.9282    202.3465     19.7852   6.4715774406e+01   3.2576984924e+01    0.4356497    0.2881767  74.46  0.001178614    1.333    0.250
        45  -9.7126    212.3436     12.8795   6.1981788685e+01   3.0972313703e+01    0.2996656    0.2260034 -66.92 0.0009745894    1.218    0.179
        46 -12.1898    134.6172      4.7894   7.0339321160e+01   5.0341921229e+01     1.372225    0.6434858  70.31  0.006320878    2.131    0.531
        47 -11.0558     54.1783     17.5143   9.6370045357e+01   6.4688898240e+01    0.4181696     0.277853  -1.16  0.002631361    1.432    0.302
        48 -10.7905    222.7878      2.1133   5.8597378252e+01   2.9703954635e+01    0.4628764    0.2144683  66.02  0.001407328    1.899    0.473
        49  -9.7992    218.2215     13.4754   6.1516836666e+01   2.9522537611e+01     0.283309    0.2789541 -30.29  0.001708872    1.353    0.261
        50 -10.3244    223.1908     10.4968   6.0374242871e+01   2.8702378484e+01    0.6029323    0.3903938  48.60  0.002691456    1.929    0.482
        51  -9.9376    189.5958      8.6630   6.3491035122e+01   3.6866163145e+01    0.4630252    0.1973692  52.86  0.001847787    2.294    0.564
        52  -9.6015    196.4637      5.0424   6.1829295239e+01   3.5580573430e+01    0.4309293    0.2992471   0.38  0.002340754    2.285    0.562
        53 -10.3375    200.4409      6.7821   6.1815942036e+01   3.4454338525e+01    0.4626648    0.2225875 -35.74  0.002296249    2.175    0.540
        54 -10.9636    204.1703      6.8270   6.1432618056e+01   3.3561681845e+01     0.369357    0.2703864  77.05 0.0003978178    1.162    0.139
        55 -11.2584    208.8074      3.2376   6.0138093204e+01   3.2834764457e+01    0.5586216    0.3221446  86.88  0.002652967    1.573    0.364
        56  -8.5498    180.5989      8.4884   6.4542057900e+01   3.9059148694e+01    0.2308633    0.1993985  87.99 0.0004766992    1.053    0.050
        57  -9.9743    180.6882      4.6670   6.3546754124e+01   3.9407587545e+01    0.2997699    0.2212626  39.04   0.00127015    1.604    0.377
        58 -10.1874    173.8684      8.6092   6.5442995161e+01   4.0677037158e+01    0.2567289    0.2005672 -64.41 0.0007021048    1.338    0.252
        59 -10.2649    175.0751      4.4478   6.4185914108e+01   4.0781099196e+01    0.5943685    0.3674643 -81.77  0.003103593    1.765    0.433
        60  -8.2858    238.3163      7.3239   5.8364272817e+01   2.5627433914e+01    0.1134358   0.09004825  49.97 0.0006835465    1.667    0.400
        61 -11.3196    151.1561     25.5304   7.3772189643e+01   4.4407450836e+01     1.724837    0.4484077  56.92  0.006028624    3.023    0.669
        62  -9.4217    230.2348      2.9671   5.8139071687e+01   2.7918937950e+01    0.2685348    0.1663016  39.29  0.001386991    2.643    0.622
        63  -8.5285    236.3093      1.3210   5.7304116890e+01   2.6735339045e+01    0.1117728    0.0878368  52.03 0.0007035293    1.645    0.392
        64  -8.5456    189.5478      1.4483   6.1713751481e+01   3.7583883052e+01    0.1279874     0.105825  80.21   0.00013411    1.029    0.028
        65 -11.3396     35.6164     91.6523   1.2667796998e+02   5.3891043959e+01    0.7063567    0.5477379  38.54  0.004488873    1.555    0.357
        66  -8.7456    184.9908    250.6652   1.1919328118e+02  -4.2918240581e+00     0.207909   0.08513715  55.44 0.0007051378    4.360    0.771
        67  -8.9686    151.6760    250.3183   1.2543937192e+02   1.4233026873e+00    0.1281073   0.08789068  66.41 0.0007044655    1.672    0.402
        68 -11.4388     26.1418     85.9632   1.2848901062e+02   5.5936990562e+01    0.5670866    0.4871245  85.99  0.003872341    1.430    0.301
        69 -10.8937     29.2785     82.0707   1.2658624119e+02   5.6492884858e+01    0.4983869    0.3148911 -58.20  0.001870613    1.357    0.263
        70 -11.8595     16.3505    104.7747   1.3511408901e+02   5.2606607505e+01     0.891271    0.4576117  -1.42    0.0043732    3.257    0.693
        71 -10.5677     15.5289     99.0485   1.3437500043e+02   5.3922228191e+01    0.3531931    0.2258241 -51.02  0.001273565    1.277    0.217
        72 -11.0868     51.9228     89.0816   1.2084321049e+02   5.2732802412e+01    0.7682472    0.3777087 -58.00  0.003609967    1.922    0.480
        73 -10.7872     98.1987    115.1955   1.1338369665e+02   4.0145108801e+01      1.31623    0.4068429  45.98  0.004149669    3.644    0.726
        74  -9.6531     12.9914    117.3782   1.3802448158e+02   5.0039690528e+01    0.2269137     0.208221  65.60  0.001065372    1.291    0.226
        75  -8.4768     27.9707    115.7372   1.3362020072e+02   4.9224962133e+01    0.1654736    0.1338271 -63.11  0.000239948    1.010    0.010
        76  -9.9951    132.7280    111.7719   1.0323819447e+02   3.4105716016e+01    0.4334017    0.3554215 -41.69  0.001909897    1.218    0.179
        77  -9.3895     41.8875    118.4780   1.3016461146e+02   4.7269140570e+01    0.2007619    0.1613815 -82.13 0.0005673848    1.240    0.193
        78 -11.2545      5.3362    117.9237   1.4015683021e+02   5.0436465177e+01    0.8446777     0.231012 -64.46  0.003734983    2.480    0.597
        79  -9.2748     39.2864    115.6305   1.3038531568e+02   4.8189195870e+01    0.2479371    0.1105566 -76.30 0.0009589135    3.063    0.674
        80  -9.7242    105.2957    109.6977   1.1003113366e+02   4.0095454320e+01    0.3302273    0.2958335 -45.03  0.001788538    1.073    0.068
        81 -10.9337     67.4089    107.7370   1.2050565118e+02   4.6673301822e+01    0.6406712    0.3616605 -32.37  0.002485927    2.246    0.555
        82 -10.1546     73.8294    108.0555   1.1867707485e+02   4.5696580750e+01    0.3096835    0.2643739  38.67  0.000732223    1.292    0.226
        83  -9.3703     35.2979    109.0701   1.3032398653e+02   5.0070390013e+01     0.416415    0.2603705   6.56  0.002225354    2.281    0.562
        84  -9.6300    133.5074    103.4052   1.0081491126e+02   3.5729344787e+01    0.4075985    0.2634284 -44.66  0.001604873    1.530    0.346
        85 -10.8913     56.8063     85.6492   1.1839328220e+02   5.2873144322e+01    0.4056364    0.3381103 -21.56  0.001814192    1.204    0.169
        86  -8.4031     97.8160    103.8045   1.1061932880e+02   4.2763360187e+01    0.3377352    0.1741237  63.17  0.001056092    4.201    0.762
        87  -9.6522     75.5172    102.3259   1.1679015032e+02   4.6732071000e+01    0.3289402      0.21579 -62.83  0.001072537    1.606    0.377
        88  -8.7120    106.0903    102.8636   1.0802577804e+02   4.1449768903e+01    0.2132307     0.195016 -72.17 0.0004921091    1.161    0.138
        89  -9.1215     81.4956    102.0483   1.1493448562e+02   4.5882905920e+01    0.2519678    0.1972182  57.33 0.0009211877    1.512    0.339
        90  -9.7910      6.0388     71.6368   1.3214336487e+02   6.0277951612e+01    0.4304962    0.3078227  80.69  0.002251361    2.027    0.507
        91 -10.7805      4.4909     99.5732   1.3773466246e+02   5.4517054958e+01    0.6975903     0.305347 -57.05  0.003843996    1.661    0.398
        92  -9.2426      9.8116     99.8012   1.3620684995e+02   5.4141703347e+01    0.1969588    0.1607082 -62.32 0.0008318926    1.055    0.052
        93 -11.4540      5.0324     79.8581   1.3413828640e+02   5.8659307699e+01    0.9560905    0.2884323 -59.54  0.004528161    2.287    0.563
        94  -9.8065     13.1780     56.6303   1.2602564245e+02   6.2767352518e+01    0.3103554    0.1977273  25.71  0.001557627    1.891    0.471
        95 -10.8425      3.1808     89.1726   1.3641993142e+02   5.6815892888e+01      0.49152    0.2225443 -47.95  0.002766215    1.759    0.431
        96 -11.6287     12.6688     88.1753   1.3327118562e+02   5.6455961950e+01    0.4807108    0.3429874  48.84  0.002289077    1.837    0.456
        97 -11.5772     16.0746     61.2506   1.2614810380e+02   6.1690863044e+01    0.6816033    0.2851014  27.33  0.003631322    2.772    0.639
        98  -8.4516    140.7045    101.6416   9.8524948820e+01   3.4502944134e+01     0.158119    0.1245457  -1.68 0.0007032559    1.700    0.412
        99 -10.8992    116.0191     98.6060   1.0412380279e+02   4.0421237048e+01     0.571489    0.4584085 -54.39  0.002462267    1.269    0.212
       100 -10.2866     86.2475     67.2437   1.0355225255e+02   5.2167325898e+01    0.6422414    0.3809114  -3.04  0.002497808    3.180    0.686
       101 -10.6977     89.0233     89.2813   1.0927524716e+02   4.7395828325e+01    0.6599723    0.4576071 -25.06  0.002742916    1.651    0.394
       102 -10.9491     82.3096     87.5040   1.1081985219e+02   4.8869625734e+01    0.9963239    0.3588872 -49.28  0.002429044    2.634    0.620
       103 -12.0453     81.5807     75.0738   1.0743859688e+02   5.1475620055e+01     0.423409    0.3316959  42.19            0    1.395    0.283
       104 -10.1177     79.6320     69.6065   1.0638298255e+02   5.2827677907e+01    0.3882125    0.2694666   1.83  0.001955395    1.830    0.453
       105  -9.8964     86.9611    100.9531   1.1303445023e+02   4.5247538898e+01    0.3417999    0.3009003 -32.93  0.001004108    1.113    0.102
       106  -9.8656     90.9539     96.8066   1.1076251857e+02   4.5479056794e+01    0.4063831     0.319576  33.92  0.001504681    1.357    0.263
       107  -8.7826     62.7137     98.8372   1.1983024003e+02   4.9287530546e+01    0.2281039    0.1486055 -39.49  0.001177978    1.476    0.322
       108  -9.4135    159.4492     96.9190   9.2788661046e+01   3.1117773919e+01    0.3100536    0.2299929  44.66  0.001097851    1.375    0.273
       109  -8.9595    188.1387     93.8779   8.5948425905e+01   2.4778983561e+01    0.2438539    0.2054877 -75.26  0.001031888    1.253    0.202
       110 -10.6830    114.9892     50.9619   8.9901484695e+01   4.9353331495e+01    0.8691278    0.4902962  -9.24  0.003379836    3.017    0.669
       111 -10.2621     71.0952     54.3007   1.0422001591e+02   5.6883227905e+01    0.3515506    0.2424631 -41.17  0.001207865    1.424    0.298
       112 -10.7799    102.0470     70.6057   9.9850428820e+01   4.8693565483e+01    0.5616626    0.3663029 -53.24  0.002182411    1.791    0.442
       113 -11.3459    110.5005     65.3385   9.5783733323e+01   4.7958500467e+01     1.253939    0.6839457 -15.18  0.004478524    3.375    0.704
       114 -11.2247    120.9498     56.5871   9.0181863292e+01   4.7207974098e+01     1.069692     0.599362 -15.77  0.004261213    2.692    0.629
       115  -9.3436    234.7415    248.3105   1.0968032408e+02  -1.1920975686e+01    0.2437945    0.1811211  81.30  0.001157669    4.043    0.753
       116 -10.5708     87.3816     41.6857   9.4560810352e+01   5.6141155304e+01    0.9849893    0.6727839  60.62   0.00513494    2.026    0.507
       117 -11.4435     97.0531     62.6444   9.8782039233e+01   5.1048348923e+01    0.9398577    0.6331617   1.44  0.002923928    2.033    0.508
       118 -10.9386    105.1814     53.8668   9.3537355505e+01   5.0923606983e+01    0.8129097      0.30109  40.71  0.002889359    2.785    0.641
       119 -12.0495    121.7490     67.6988   9.3488657553e+01   4.5194515763e+01     1.370093     1.090831  80.13  0.006926224    1.642    0.391
       120  -9.8305    126.7846     63.8770   9.1000270015e+01   4.4745343622e+01    0.2744473    0.2057404  29.15 0.0007901698    1.441    0.306
       121 -11.6132    106.5991     86.5928   1.0335656838e+02   4.4756480229e+01     1.012935    0.6401066 -30.27  0.004578304    1.760    0.432
       122 -11.6230    100.5818     78.4760   1.0269370233e+02   4.7497569458e+01    0.8909755    0.7160769 -43.88  0.004192288    1.231    0.188
       123 -11.2861     85.6112     52.5272   9.8902746365e+01   5.4801166548e+01    0.7423808    0.4550456  -4.20  0.003351962    2.396    0.583
       124 -11.0115     82.8997     58.6907   1.0183368536e+02   5.4242914369e+01    0.4948052    0.3392617  53.86  0.002573278    1.857    0.461
       125 -11.1160     89.2192     57.2556   9.9378419426e+01   5.3390867151e+01    0.5219172    0.3585115  46.14  0.001357615    1.552    0.356
       126  -8.5611    206.5189     92.5048   8.2211648820e+01   2.0602129884e+01    0.1511929    0.1406274 -71.13 0.0008103527    1.010    0.010
       127  -9.7033    121.1241     91.4763   1.0074627465e+02   4.0846575169e+01    0.2934791    0.2599298  80.32 0.0007515739    1.295    0.228
       128  -8.7004    194.4959     89.9457   8.3727600669e+01   2.3963251375e+01    0.2292584    0.1483544 -38.55 0.0008345793    1.549    0.354
       129  -9.4421    105.6887     44.3195   9.0167496706e+01   5.2255340876e+01     1.448592    0.4558245  38.62  0.004655376    3.952    0.747
       130 -10.6988     11.4243     63.7473   1.2846350909e+02   6.1517554625e+01    0.4487777    0.2112422 -60.16  0.002053299    1.830    0.453
       131  -9.5531     74.6773     88.9644   1.1358556793e+02   4.9743946080e+01    0.3112795    0.2463879   0.89  0.001716299    1.470    0.320
       132  -9.9032     75.8751     82.7063   1.1147360902e+02   5.0857210050e+01    0.3122719    0.2009948 -58.26 0.0008820571    1.732    0.423
       133  -8.7250    162.1004     88.0667   8.9772186047e+01   3.2196330563e+01    0.2380698    0.1828768 -78.80 0.0005468057    1.598    0.374
       134  -9.6706    152.8832     87.4300   9.1668642427e+01   3.4518158287e+01    0.3308387    0.2469815  31.89  0.000878399    1.541    0.351
       135 -10.9525    119.7852     86.4603   9.9663765400e+01   4.2129146625e+01    0.7075917    0.2948515  46.83  0.002609722    2.433    0.589
       136  -9.7035    238.8676     85.8764   7.5523665083e+01   1.4298955809e+01    0.2092326    0.1973027 -16.70   0.00123205    1.273    0.215
       137  -9.8264    217.7025     80.1031   7.7312575822e+01   2.0128218223e+01     0.656368    0.3361937 -19.33  0.002094011    4.155    0.759
       138  -9.6570    160.8400     82.1153   8.8393026933e+01   3.3607629563e+01     0.397738    0.3160214 -84.43  0.001908137    1.496    0.331
       139 -10.2741    134.3892     80.9994   9.4265081991e+01   4.0009062798e+01    0.5456331    0.3541881 -33.04  0.002457176    1.635    0.388
       140 -10.0424    138.9093     76.3509   9.1781220681e+01   3.9838511609e+01    0.7959652    0.1789647 -41.13  0.002173223    4.377    0.772
       141 -10.3273    151.6443     67.1509   8.6117568373e+01   3.8448630116e+01     0.816204    0.3333516  39.45  0.002651347    3.281    0.695
       142 -10.6601    139.8279     68.0277   8.9078186778e+01   4.1088433533e+01    0.6394559     0.490062  59.39  0.003216574    1.322    0.244
       143  -9.8982    132.3368     68.3093   9.0977849559e+01   4.2753645091e+01    0.4650832    0.3227228  67.43  0.002134555    1.727    0.421
       144  -9.5294    123.3128     81.1660   9.7166925792e+01   4.2409023339e+01    0.3151511    0.2227488  27.09 0.0008062336    1.656    0.396
       145 -10.2137     50.0788     25.5638   1.0117378326e+02   6.4234753401e+01    0.5465682    0.1618851  34.97  0.002280861    3.460    0.711
       146 -11.1932     69.0662     74.5111   1.1129061854e+02   5.3496667426e+01    0.9812099    0.5363085 -33.82  0.004648942    1.866    0.464
       147 -10.1337     60.7585     53.5335   1.0750748289e+02   5.8512345408e+01    0.4311605    0.2310495 -44.23  0.001677134    1.784    0.439
       148 -10.2605     56.6911     48.1192   1.0710787599e+02   5.9972400463e+01    0.5749971    0.4083445 -17.12  0.003466504    1.338    0.253
       149 -10.7413     32.6404     70.7494   1.2265821164e+02   5.8504120374e+01     0.425748    0.2398329 -41.66  0.001765175    1.478    0.323
       150 -12.1140     58.4363     70.8363   1.1374976518e+02   5.5658675003e+01     1.089557     0.482621 -51.82  0.004880256    2.202    0.546
       151 -11.2413     55.4246     62.3883   1.1223472233e+02   5.7640210093e+01    0.5631701    0.4442266 -39.60  0.003525479    1.158    0.136
       152 -11.7584     40.5618     65.7894   1.1850142280e+02   5.8704666811e+01    0.8124762    0.6569586 -38.17  0.005390978    1.048    0.046
       153 -11.8364     33.7887     59.3534   1.1909595701e+02   6.0595366551e+01     1.169066    0.5211368 -23.77  0.004817514    3.499    0.714
       154 -10.8033     31.1754     43.3142   1.1508252405e+02   6.3698294333e+01    0.3015435    0.2933286  61.24 0.0007956221    1.550    0.355
       155 -11.2567     25.7524     53.0379   1.2024897254e+02   6.2481969968e+01    0.3063711    0.2027784   0.24 0.0006475112    1.653    0.395
       156 -10.4935     28.9781     49.0373   1.1779037701e+02   6.2915688441e+01    0.2518314    0.1767662 -13.23 0.0004569665    1.377    0.274
       157 -11.3155     41.3478     49.7423   1.1329932577e+02   6.1556437506e+01    0.6565352    0.2534938  26.57  0.002734238    2.949    0.661
       158 -10.5308     36.7818     75.8121   1.2253098711e+02   5.7100001740e+01    0.2445797    0.1757727 -39.40 0.0003852344    1.175    0.149
       159  -8.9191     25.5050     74.3843   1.2605472031e+02   5.8387971556e+01    0.3150875     0.140649 -24.61  0.001331409    3.438    0.709
       160 -10.5258     18.9741     72.8782   1.2795521456e+02   5.9193728870e+01    0.4097925     0.243651 -31.53  0.002453029    1.633    0.388
       161  -9.0033    192.9011     74.1185   7.9915893016e+01   2.7146431215e+01    0.2322666    0.1925941 -69.86 0.0004979218    1.221    0.181
       162  -9.4613    214.9295     71.9585   7.5758164006e+01   2.2152545658e+01    0.3277273    0.2398202 -16.10  0.001159463    1.881    0.468
       163  -9.8700     90.1885     78.1593   1.0570070979e+02   4.9434561197e+01    0.4655345    0.2394021  35.96   0.00180231    2.078    0.519
       164 -10.6235    250.2513     67.2216   6.9869913019e+01   1.4843361400e+01    0.5529916    0.1832377 -34.49  0.001985965    3.212    0.689
       165 -11.4588    164.0837     62.8468   8.2253949772e+01   3.6133473499e+01    0.6277237    0.5934092  57.76  0.003533924    1.046    0.044
       166 -10.8770    165.0906     57.0364   8.0395504523e+01   3.6799292422e+01     0.558275    0.4921428  31.83  0.002029775    1.250    0.200
       167  -8.5553    188.8888     64.6189   7.8119112391e+01   2.9708415384e+01    0.2089138    0.1345772  75.82 0.0005914929    1.709    0.415
       168  -8.0723      5.3425     63.6261   1.3062679423e+02   6.1904167699e+01    0.1058317   0.08184209  80.71 0.0006581673    1.878    0.467
       169 -11.1650     49.6629     70.5007   1.1665524574e+02   5.6795490108e+01    0.5481486    0.3822478  57.21  0.001358303    2.230    0.552
       170  -9.0267    219.4788     60.5324   7.2329646215e+01   2.2895676105e+01    0.2931871    0.2323762  75.55  0.001005773    1.217    0.179
       171 -10.1290    222.4245     57.2566   7.1147073389e+01   2.2700885630e+01    0.3710144    0.2960114  81.91  0.001226393    1.193    0.162
       172  -8.3283    178.0619     60.5077   7.8929738982e+01   3.3049483151e+01    0.4638946     0.344158  13.04  0.001765857    1.982    0.496
       173 -11.3911    174.0865     57.4282   7.8806108176e+01   3.4514894586e+01     1.116797    0.7658098 -10.88 0.0005033786    2.097    0.523
       174 -10.4307    176.0552     53.2392   7.7290608332e+01   3.4660065891e+01    0.4985596    0.3217831  32.82  0.002217948    2.065    0.516
       175  -9.2693    149.0208     59.1597   8.4324838877e+01   4.0375096776e+01    0.3534739    0.1862329 -52.55  0.001400609    2.383    0.580
       176 -10.1257    201.3488     57.7048   7.4290320770e+01   2.7718371324e+01    0.4791593    0.3627854   6.05  0.002305847    2.051    0.513
       177  -9.4063    158.6176     58.4391   8.2089413847e+01   3.8168939799e+01    0.3430711     0.228521  23.52  0.001167158    2.145    0.534
       178 -10.2331      2.8684     57.4035   1.3007549545e+02   6.3238479078e+01    0.3148489    0.2164779 -66.45  0.002156034    1.478    0.324
       179  -9.6519    158.2043     50.3981   7.9823548339e+01   3.9481486900e+01    0.5415946    0.4378971  38.23  0.002889885    1.302    0.232
       180  -9.2278    152.5746     56.5017   8.2772256080e+01   3.9934965153e+01    0.3268191    0.2578734 -12.49  0.001430813    1.521    0.342
       181 -10.5878    150.5717     51.7122   8.1763429646e+01   4.1139070628e+01    0.5088449    0.3893276   7.93  0.002021634    1.693    0.409
       182  -8.6885    192.9910     54.0012   7.4646498234e+01   3.0340725579e+01    0.2319107    0.1592416 -74.27 0.0005254237    1.662    0.398
       183  -9.9643    186.1922     53.6656   7.5664652084e+01   3.2077251996e+01    0.2700267    0.1950592   7.99  0.001232781    2.186    0.543
       184 -11.1949    140.1571     51.5834   8.3977974939e+01   4.3631538710e+01    0.8387967    0.3517568  49.09  0.002597667    2.211    0.548
       185 -10.6163    149.9698     76.5609   8.9237492846e+01   3.7217768764e+01    0.6558562    0.5197311 -24.01  0.003211878    1.409    0.290
       186  -9.6133    238.3224     51.8226   6.7900290453e+01   1.9832614316e+01    0.2741801     0.135225 -52.03  0.001246957    1.901    0.474
       187  -9.5587      7.6204     49.9749   1.2637789019e+02   6.4356351718e+01    0.3478575    0.2853577  66.81  0.002488959    1.951    0.488
       188  -8.8361     16.1494     50.9536   1.2333614908e+02   6.3613695277e+01    0.1821617   0.09385467 -34.83 0.0006489577    1.647    0.393
       189  -8.3767    126.6473     50.7486   8.6874850329e+01   4.6848384711e+01    0.1450519    0.1012827  28.17 0.0006951212    1.597    0.374
       190  -8.3073      3.6758    245.7036   1.5107952804e+02   2.3412948746e+01   0.08836477   0.07222209 -74.07 0.0007022422    1.624    0.384
       191  -9.0807    188.8202     49.1170   7.4029555562e+01   3.2093009942e+01    0.2271278    0.1813174 -74.61 0.0005698873    1.273    0.215
       192  -9.3979    171.3170     49.0169   7.6960661059e+01   3.6453547843e+01    0.1976434    0.1795617 -41.95  0.000464218    1.174    0.148
       193  -9.5330    129.8221     46.2794   8.4678129086e+01   4.6782562575e+01    0.2693669    0.1966821 -23.13 0.0007363645    1.495    0.331
       194  -9.1906    155.0499     33.3958   7.5409299564e+01   4.2537654445e+01    0.2885108    0.2047906  17.97 0.0009142542    1.873    0.466
       195 -10.1814    130.4274     40.2264   8.2588887236e+01   4.7476178719e+01    0.4138524    0.3186179 -22.64 0.0006273634    1.410    0.291
       196 -10.8866    135.0801     34.1504   7.9608187635e+01   4.7187718114e+01    0.3317721    0.2686792  35.23 0.0004033398    1.216    0.178
       197 -10.6091    147.8165     35.0442   7.7277976239e+01   4.4075393678e+01    0.6762457     0.249561  56.43  0.002452145    2.351    0.575
       198 -11.0406    140.9735     40.4574   8.0342329981e+01   4.5002092906e+01    0.6725842    0.5901646  73.36  0.003893749    1.172    0.146
       199  -8.9772    135.3750     42.2186   8.2111728461e+01   4.6072925089e+01    0.2289452    0.1683678 -35.09 0.0006397387    1.452    0.311
       200  -9.8708    124.7662     37.3391   8.2956833553e+01   4.9131331088e+01    0.3315479    0.2584844  46.50  0.001368704    1.171    0.146
       201 -10.1965    125.3195     32.9512   8.1379641978e+01   4.9560394537e+01    0.6154093     0.252828 -22.77  0.002381317    3.103    0.678
       202  -9.3068     25.2688     38.2233   1.1572602712e+02   6.5094188157e+01    0.1682269    0.1214414 -10.24 0.0007523715    1.262    0.208
       203 -10.5255     11.2498     41.7083   1.2256259595e+02   6.5600715002e+01    0.3536367    0.2215578 -11.71  0.001615419    1.613    0.380
       204  -9.8881    142.1001    243.8198   1.2639856207e+02   4.1585254343e+00    0.3368542    0.1637894  34.94 0.0006952602    2.147    0.534
       205 -10.4258     15.6631     31.6137   1.1744409986e+02   6.6970377950e+01    0.3469772    0.2391066 -40.73  0.001358198    1.257    0.205
       206  -9.8245    220.6368     45.1496   6.8526883084e+01   2.4905945536e+01    0.3944038      0.22682 -61.31  0.001859657    1.815    0.449
       207  -9.3683    207.2655     44.6604   7.0165352402e+01   2.8189912800e+01     0.463147    0.3405952 -71.89  0.002471008    1.353    0.261
       208  -8.7828    152.5435     45.9982   7.9647832690e+01   4.1485011993e+01    0.2016984     0.141752 -32.47 0.0005000808    1.531    0.347
       209  -8.2864     71.6264     46.2926   1.0127311441e+02   5.8103339892e+01    0.1167484    0.1043568  83.89 0.0004546141    1.731    0.422
       210 -10.1605    231.5671     44.3824   6.7025095704e+01   2.2454516536e+01    0.3513159     0.223241  40.43  0.001255067    2.305    0.566
       211 -10.1320    118.8608     43.1213   8.6305888023e+01   4.9657873877e+01    0.3631744    0.3075391 -26.02  0.002108257    1.235    0.190
       212  -9.3791    117.6919     39.6570   8.5439651726e+01   5.0382455215e+01    0.3186774    0.2023931  24.89  0.001275688    1.867    0.464
       213  -9.3225     67.3568     44.3342   1.0202760217e+02   5.9064374029e+01    0.2174839    0.1330787 -28.17  0.001179892    1.554    0.357
       214 -11.3119     38.0394     43.9827   1.1263413304e+02   6.2891569239e+01    0.4280939    0.3619694 -82.99  0.002479377    2.085    0.520
       215  -9.2851    249.4249     42.2675   6.4605978613e+01   1.8732342250e+01    0.3944773     0.169324 -30.83  0.001656448    2.823    0.646
       216  -8.1686      1.4612     44.2219   1.2724617388e+02   6.5748622538e+01     0.112248   0.05891883 -26.53 0.0002144592    1.775    0.437
       217  -9.1542    214.8406     42.4450   6.8623260821e+01   2.6669532992e+01    0.2515604     0.196623 -30.64  0.001029941    1.479    0.324
       218  -9.5593    196.8983     42.0478   7.0968767585e+01   3.1091871407e+01    0.3068913    0.1979335 -61.67 0.0003974674    1.654    0.395
       219  -9.9979    194.5833     31.2186   6.8537071831e+01   3.3087337034e+01    0.3852912    0.2707779  -6.58     0.001612    2.147    0.534
       220  -9.3601    190.8552     40.4487   7.1442877996e+01   3.2801139815e+01    0.3035623    0.2506604  23.03  0.001138201    1.592    0.372
       221  -9.4306    192.4638     36.6736   7.0229547342e+01   3.2907183520e+01    0.3639977     0.218901  73.69  0.001753228    1.599    0.374
       222 -10.1660    161.9871     39.5378   7.5941801566e+01   4.0061564602e+01    0.4693437    0.2546212 -27.87  0.001765359    2.104    0.525
       223  -9.5493     77.2679     41.5122   9.7695002403e+01   5.7919428190e+01    0.2404462    0.2159072  46.05 0.0009294293    1.358    0.263
       224 -10.4863    180.7465     38.1464   7.2380478196e+01   3.5611727573e+01    0.5709547    0.4211788 -21.55    0.0030004    1.647    0.393
       225  -8.3854    201.3219     25.7145   6.6284239204e+01   3.2122112652e+01    0.1953695    0.1295835 -41.59 0.0005041015    1.550    0.355
       226  -9.4191    199.2477     31.5451   6.7993406158e+01   3.1903613949e+01    0.2841276    0.2108044  47.20 0.0007522786    1.519    0.342
       227  -9.2187    203.2587     28.3567   6.6689010347e+01   3.1327199395e+01    0.3169599    0.2239836  19.04  0.001474409    2.339    0.572
       228 -10.8047    202.8095     37.7674   6.9066729787e+01   3.0222450396e+01    0.4704362    0.4137801  35.44  0.001994074    1.417    0.294
       229 -10.5747    209.9897     33.2514   6.7034161716e+01   2.9075385185e+01    0.3876006    0.3425338 -81.56  0.001345387    1.044    0.042
       230  -9.8759    168.8346     37.2257   7.4077238944e+01   3.8679028275e+01    0.3668089    0.2478369 -47.71  0.001862745    1.578    0.366
       231 -10.5678    110.7696     37.5112   8.6470686866e+01   5.2141575182e+01    0.5796584    0.3509311  51.37  0.000835654    1.569    0.363
       232  -9.1636    211.3754    240.7997   1.1270239925e+02  -7.2378634947e+00    0.2114954    0.1185397 -41.68  0.001124784    2.062    0.515
       233  -9.2675    113.6566    239.3445   1.3130564910e+02   9.7842074528e+00    0.2125479    0.1321493  69.05  0.001126301    1.711    0.416
       234 -11.1937    107.0346     30.0272   8.4833167906e+01   5.3863347807e+01     1.150037    0.3845401  54.37  0.004393035    2.905    0.656
       235 -10.8391     89.0126     34.0369   9.1298329729e+01   5.6896739812e+01    0.9397816    0.4811033  46.71  0.004623067    1.885    0.470
       236  -9.6457     12.3705    232.5249   1.4897180466e+02   2.5018024540e+01    0.2746898    0.1300084  73.17  0.001528939    1.769    0.435
       237  -9.3608    137.0000    225.9538   1.2492409689e+02   8.2911474373e+00    0.2025985   0.07702187 -53.85 0.0008052255    2.962    0.662
       238  -8.5876     40.6651    221.6708   1.4328382734e+02   2.3986988819e+01    0.1054697   0.08774795 -53.31 0.0007052012    1.725    0.420
       239  -8.3548    244.6518    204.6886   1.0012801270e+02  -7.3471226596e+00    0.1357802   0.09071912   4.50 0.0007045724    1.714    0.417
       240  -8.8053    234.3744    200.8347   1.0124711028e+02  -5.0248591461e+00    0.1917463    0.1151898 -25.50 0.0009510461    1.749    0.428
       241  -9.7502     26.8073    191.9852   1.4334867313e+02   3.1910973371e+01    0.2742542    0.1559148  63.79  0.001589771    1.635    0.388
       242 -11.1244     18.6249    185.6928   1.4442234571e+02   3.4129728370e+01    0.3978193    0.3197545 -36.74  0.001934598    1.895    0.472
       243 -10.0580     11.8464    184.8603   1.4570064483e+02   3.4956393246e+01    0.2188529    0.1353336 -80.94  0.000914439    1.250    0.200
       244 -10.9358      6.1435    185.8494   1.4689591301e+02   3.5255956852e+01    0.5137881    0.1710102  56.96  0.002348345    3.155    0.683
       245  -9.2510      1.4291    177.7638   1.4718939933e+02   3.7409754161e+01    0.2160523   0.08713709 -81.20  0.001110837    1.995    0.499
       246  -8.3357     79.9992    176.5072   1.2997713920e+02   2.8625022182e+01     0.171464    0.1269858   1.31 0.0008092569    2.440    0.590
       247  -9.1532     38.4472    175.9390   1.3929250936e+02   3.4243014966e+01    0.1928205    0.1038816 -72.42 0.0004836545    1.561    0.359
       248  -9.9599    100.0344     37.8491   8.9483253323e+01   5.4283032988e+01     0.334152    0.2535373  16.91  0.001371357    1.339    0.253
       249  -8.9878     63.0761    167.8802   1.3266526807e+02   3.3081367547e+01    0.2135571    0.1629094  81.83 0.0007898073    1.242    0.195
       250 -10.4370    245.9847     33.4726   6.3098602416e+01   2.0695161396e+01     0.494517    0.2394076  53.29  0.001662906    2.465    0.594
       251  -9.9665    242.3171     31.8872   6.3126430959e+01   2.1721553335e+01    0.2624807    0.1988123 -48.55 0.0008646381    1.267    0.211
       252 -10.8876    237.2345     32.0639   6.3678892616e+01   2.2842528991e+01    0.5011317    0.3753805  51.90  0.002924059    1.626    0.385
       253  -9.5588    218.2768     34.0318   6.6213902379e+01   2.6989074051e+01    0.3181667    0.1351019 -41.22 0.0009728332    2.221    0.550
       254  -9.1587      9.1429    167.3561   1.4472781762e+02   3.9060117946e+01    0.1705661    0.1596176 -61.26  0.001068745    1.401    0.286
       255  -9.9836     13.7843    165.2955   1.4353966039e+02   3.9123040560e+01    0.2641478    0.1882422  62.11  0.001753724    1.394    0.282
       256 -10.4599      2.4832    159.7170   1.4545040308e+02   4.1293854271e+01    0.5610949    0.2010157 -78.65  0.002658994    2.308    0.567
       257 -10.5571     16.9731    158.6730   1.4216203028e+02   4.0340710517e+01    0.3871864    0.2584652 -42.43  0.002274866    1.912    0.477
       258  -9.2220     10.2391    157.0167   1.4349590970e+02   4.1286305190e+01     0.404937   0.09759347 -64.02  0.001692058    2.863    0.651
       259 -10.7652     37.6987     28.1015   1.0699827464e+02   6.5407083863e+01    0.5397347    0.3825098   7.06  0.002421309    1.308    0.236
       260 -12.3100     19.0383    147.9024   1.4047915337e+02   4.2619244297e+01     1.521061     0.750918  60.41  0.007658323    2.419    0.587
       261 -10.8305     22.0638    137.2005   1.3840095878e+02   4.4816331822e+01    0.6705927    0.2233205 -52.27  0.002906205    2.678    0.627
       262 -11.0339     25.2053    127.9894   1.3630303384e+02   4.6663300209e+01     0.621798    0.4002638  13.13  0.003579054    2.185    0.542
       263  -9.6039     28.1282    120.7260   1.3439588551e+02   4.8073403538e+01    0.3287213    0.1550168 -72.70 0.0008779389    1.997    0.499
       264 -10.5208      9.1097    134.8946   1.4133409795e+02   4.6371623517e+01    0.4933058    0.2396259  20.93  0.002573668    2.805    0.644
       265 -11.4392     13.9057    130.9045   1.3963723398e+02   4.6917551870e+01    0.7286978    0.5785041  82.17  0.004994405    1.255    0.203
       266 -10.7005     34.7871    150.1746   1.3698223735e+02   4.0607760231e+01    0.3228293    0.2875453 -86.96  0.001147866    1.121    0.108
       267  -9.7359     66.9185    148.3861   1.2868681061e+02   3.7193828632e+01    0.2658233    0.2151478 -74.87  0.001079645    1.099    0.090
       268  -9.6827      1.4599    144.0702   1.4417185027e+02   4.4854775002e+01    0.4835515    0.1145617 -74.59  0.001821918    3.545    0.718
       269  -9.5580      5.4667    147.0310   1.4355394635e+02   4.3904183628e+01    0.2532241    0.1324927 -54.88  0.001456994    1.772    0.436
       270 -11.8913     28.3097     29.0990   1.1121255830e+02   6.6251333978e+01    0.6209402    0.3294725 -12.16  0.002553439    2.248    0.555
       271 -10.2121      6.9397    142.9736   1.4277915920e+02   4.4708035528e+01     0.384636    0.2491737  68.34  0.002411001    1.615    0.381
       272  -9.4938    177.9180     20.2983   6.8006867125e+01   3.8474433834e+01    0.2434839    0.2172336  50.37 0.0009462805    1.203    0.169
       273  -8.8734     60.7993    147.4306   1.3008795765e+02   3.8239223455e+01    0.1664242    0.1357569  13.47 0.0007900769    1.649    0.394
       274 -10.9896     38.9942    145.8930   1.3535718289e+02   4.1171912285e+01    0.5176098    0.3046418 -78.62  0.002138557    1.577    0.366
       275  -9.4316     32.3582    141.4849   1.3639682132e+02   4.2878116840e+01    0.2070414    0.1563141  86.92 0.0007332689    1.267    0.211
       276 -11.0106    183.6058     27.2073   6.9031358973e+01   3.6280050475e+01    0.3674369    0.3087534  58.10 0.0008479594    1.177    0.150
       277 -10.1145    182.8774     22.3432   6.7853772043e+01   3.7028205410e+01    0.3370323    0.2158013 -63.25  0.001042147    1.724    0.420
       278 -10.6481    226.8475     28.5642   6.4000022725e+01   2.5684494502e+01    0.5320376    0.2793843 -54.89  0.001935596    1.826    0.452
       279  -8.4076    220.6661     30.3417   6.5083825767e+01   2.6904306933e+01    0.1463901   0.08665276 -68.72 0.0007050969    1.756    0.430
       280  -9.0780    193.2157     24.8390   6.7102901886e+01   3.4203509306e+01    0.2808645    0.1803319  10.92  0.001141815    2.932    0.659
       281  -9.1180     80.7240    139.8335   1.2354608109e+02   3.7238884196e+01    0.2349382    0.1639728 -45.24 0.0008918638    1.479    0.324
       282 -10.2936     54.3107    138.1022   1.3021500739e+02   4.1273583101e+01    0.3165022     0.226088 -47.89  0.001034154    1.407    0.289
       283  -9.5086    241.2335     23.8722   6.1537606035e+01   2.2999770005e+01    0.2683797    0.1730831 -67.16  0.000768031    1.388    0.280
       284  -9.4360     47.4345    137.4946   1.3192074007e+02   4.2224566018e+01    0.2234665    0.1514291  63.94  0.001170723    1.689    0.408
       285 -10.7318     72.0975    129.2772   1.2379130286e+02   4.1023505773e+01    0.5876247     0.299396 -50.52  0.002484793    1.796    0.443
       286 -10.0969     74.6625    125.0880   1.2222372228e+02   4.1641888534e+01     0.295521    0.2001033  50.28  0.001008306    1.647    0.393
       287  -9.6759     45.2706    132.5303   1.3167841414e+02   4.3634890919e+01    0.2656332    0.1855815 -54.19  0.001024541    1.289    0.224
       288 -10.5939    213.6616     23.1794   6.4218080343e+01   2.9461013899e+01    0.3834589    0.1564873 -31.79  0.001642722    2.683    0.627
       289  -8.6393    217.1987     21.3711   6.3411429293e+01   2.8840643222e+01     0.302469    0.1467132  70.69  0.001438412    1.855    0.461
       290  -9.7460     98.1811     22.1908   8.4343733128e+01   5.6566136177e+01    0.2141626    0.1918017  13.40 0.0006987103    1.073    0.068
       291  -8.6512    190.6760     17.6455   6.5611952704e+01   3.5650380152e+01    0.2017123    0.1430845  57.64  0.000496671    1.354    0.262
       292 -10.8256     56.0648    127.7847   1.2791566734e+02   4.3497238371e+01    0.6660234    0.2469798 -53.51  0.002312443    2.277    0.561
       293  -9.6229    197.6716     16.8441   6.4554721721e+01   3.4041361343e+01    0.3119288    0.1619857  72.15 0.0009928358    1.712    0.416
       294  -9.6306    209.9310     18.8816   6.3631496435e+01   3.0861197430e+01    0.2233251    0.2153801  19.44 0.0004130714    1.372    0.271
       295  -9.5681    213.6429     17.2779   6.2854516440e+01   3.0164934640e+01    0.2706694    0.1649778 -83.49 0.0009374796    1.626    0.385
       296  -8.6962     95.4145    130.7328   1.1773957205e+02   3.7022084201e+01    0.2131014    0.1294781 -45.66 0.0008542929    1.632    0.387
       297 -10.6113     64.6861    130.0689   1.2597937072e+02   4.1857200135e+01    0.3281139    0.2722236  63.16   0.00173744    1.313    0.239
       298 -11.1781     67.3680    123.0324   1.2384054299e+02   4.3152513252e+01    0.8248209     0.339629 -40.86  0.003009571    3.079    0.675
       299  -9.8781     65.5325    114.8456   1.2264206451e+02   4.5303153713e+01    0.5155373    0.1875956  45.11  0.001912716    3.329    0.700
       300  -8.1353     35.3340    130.2916   1.3396651154e+02   4.5193459111e+01    0.1270528   0.08565056 -40.92 0.0007022772    1.635    0.388
       301 -10.4911     47.4208    120.6864   1.2900666565e+02   4.6164018491e+01    0.4707537    0.2803696  -0.39  0.001595972    3.054    0.673
       302  -9.2810    178.6868     14.9425   6.6478042129e+01   3.8865466165e+01    0.2256108    0.1533476  60.20 0.0003603236    1.315    0.239
       303 -10.1022     47.4593    125.9396   1.2995099612e+02   4.4936475319e+01    0.3452747    0.1909216 -61.60  0.001744643    1.524    0.344
       304  -8.7376     50.6873    126.7087   1.2919951489e+02   4.4389657885e+01    0.1369066    0.1170382 -73.64 0.0002219344    1.063    0.059
       305 -10.2557     38.5861    126.9863   1.3255889572e+02   4.5637283731e+01     0.221657    0.1748807 -21.68  0.001065321    1.625    0.385
       306 -10.6199     18.8223    120.3080   1.3687311740e+02   4.8942957227e+01     0.569483    0.2280833 -58.34   0.00119806    1.888    0.470
       307  -9.5468     92.3252    120.9448   1.1638555179e+02   3.9836455037e+01    0.4044036     0.197744 -41.98  0.001603826    2.179    0.541
       308  -9.5814     37.1187     98.1123   1.2759464565e+02   5.2340923868e+01    0.5249071    0.3197844 -17.07  0.002682238    2.315    0.568
       309 -10.1994     17.8907     82.0105   1.3034773446e+02   5.7396938717e+01    0.4392754    0.2403089 -19.41   0.00235458    2.383    0.580
       310  -9.9583     23.9129    108.2105   1.3349752202e+02   5.1263729896e+01    0.8756619     0.403224   3.29  0.003603215    4.387    0.772
       311 -10.2878     28.0064    101.9391   1.3114663890e+02   5.2319939936e+01    0.4143485    0.3099159  88.63  0.001916863    1.563    0.360
       312 -10.4334     42.4906     87.1606   1.2342998998e+02   5.4175525397e+01    0.4590542    0.3754747 -40.75  0.002316264    1.065    0.061
       313 -10.1278     41.7964     80.5322   1.2203114641e+02   5.5635015489e+01    0.7762777    0.3888435 -22.23  0.003253649    3.224    0.690
       314 -11.1574     47.8731    100.5420   1.2479635059e+02   5.0695731050e+01     1.017435    0.5272115 -44.30  0.004738183    1.762    0.432
       315 -11.1738     21.9999     96.2221   1.3188947676e+02   5.4061996530e+01    0.4732054     0.337424 -31.09  0.002230918    1.484    0.326
