#   1 NUMBER                 Running object number                                     
#   2 MAG_AUTO               Kron-like elliptical aperture magnitude                    [mag]
#   3 X_IMAGE                Object position along x                                    [pixel]
#   4 Y_IMAGE                Object position along y                                    [pixel]
#   5 X_WORLD                Barycenter position along world x axis                     [deg]
#   6 Y_WORLD                Barycenter position along world y axis                     [deg]
#   7 A_WORLD                Profile RMS along major axis (world units)                 [deg]
#   8 B_WORLD                Profile RMS along minor axis (world units)                 [deg]
#   9 THETA_WORLD            Position angle (CCW/world-x)                               [deg]
#  10 FWHM_WORLD             FWHM assuming a gaussian core                              [deg]
#  11 ELONGATION             A_IMAGE/B_IMAGE                                           
#  12 ELLIPTICITY            1 - B_IMAGE/A_IMAGE                                       
         1 -14.2483    248.5253     31.7201   5.6213810189e+00   2.5248242604e+01    0.9089281    0.3032852 -33.70  0.004740692    3.025    0.669
         2 -12.4847    249.3126      7.0814   1.4362612673e+00   2.7726945364e+01    0.2815506    0.1613976 -35.92  0.002128083    1.688    0.408
         3 -10.3981    243.1003    245.7555   4.0664316875e+01  -3.0743967508e+00    0.2446983   0.08163284 -33.79  0.001417522    2.244    0.554
         4  -9.8675    247.7559    250.4177   4.0618604268e+01  -3.9664650738e+00    0.1256107   0.07033178  -0.73 0.0009383784    1.584    0.369
         5 -10.3763    218.6869    245.9846   4.4405074406e+01  -1.3056038512e+00    0.2351717   0.07666917 -42.08  0.001240883    2.639    0.621
         6 -10.3332    212.4835    246.4191   4.5468943542e+01  -8.7625044725e-01    0.2208421    0.1010065 -20.98  0.001265239    2.106    0.525
         7  -9.9365    156.0000    246.9867   5.5911816904e+01   4.0462927149e+00    0.1764456   0.06273239 -49.28 0.0008031008    2.947    0.661
         8 -10.5832    250.3673    244.3266   3.9441914983e+01  -3.3965838309e+00    0.2598484   0.08678016 -36.52  0.001372166    2.178    0.541
         9 -10.5736    248.3553    239.1068   3.9020236256e+01  -2.6090606903e+00    0.2422823    0.0949145 -32.53  0.001525836    1.874    0.467
        10 -10.5195    233.0905    245.0282   4.2040810849e+01  -2.2669700923e+00    0.2385628   0.08867812 -30.36  0.001374047    2.179    0.541
        11 -10.0079    201.5756    241.3143   4.6600548797e+01   7.3852922078e-01    0.1927859   0.09430335 -45.36  0.001130336    2.099    0.524
        12 -10.3735    169.3726    241.7747   5.2559570632e+01   3.5913286031e+00    0.2130922    0.1268374 -31.93  0.001301154    1.507    0.337
        13 -10.2264    185.6758    241.3384   4.9421894774e+01   2.1373787156e+00   0.09614016   0.08871707  36.54 0.0007051161    1.722    0.419
        14 -10.8025    159.9295    238.3643   5.3970117359e+01   5.0660453133e+00    0.4046642    0.1643848 -56.59  0.001720347    3.763    0.734
        15  -9.9815    194.4625    238.0485   4.7385981027e+01   1.8367754303e+00    0.1675749   0.09144922 -38.02  0.001035965    1.612    0.380
        16  -9.9303    243.1710    236.8458   3.9446227500e+01  -1.9509961931e+00    0.1472591   0.08287492 -21.35  0.001071076    1.338    0.252
        17 -10.6971    230.8242    235.9563   4.1139678070e+01  -9.0610473550e-01    0.2096345    0.1291063 -55.51  0.001242906    3.129    0.680
        18  -9.8421    204.0000    236.0015   4.5446860443e+01   1.2949712999e+00    0.1703006   0.05230296 -44.03 0.0007625634    2.915    0.657
        19  -9.7534    248.2892    233.6585   3.8285202459e+01  -1.9152128619e+00   0.08441115   0.06944986 -36.02 0.0005001994    1.647    0.393
        20 -10.4316    241.4768    230.5332   3.8815812718e+01  -1.0063255658e+00    0.1985279   0.06150838 -33.66  0.001038116    2.546    0.607
        21 -10.2468    194.5518    230.7645   4.6341136304e+01   2.9205057748e+00    0.2113852   0.08821946 -39.36   0.00113329    2.049    0.512
        22 -10.1510    220.8502    238.9879   4.3102046015e+01  -5.3000903504e-01    0.1849541   0.08488829 -23.68  0.001088176    1.964    0.491
        23 -10.4852    236.2069    229.4351   3.9426540771e+01  -4.5477809312e-01    0.2322294   0.09393395 -41.79  0.001377572    2.092    0.522
        24 -10.0480    248.4734    223.5052   3.6846528049e+01  -6.1842409617e-01    0.1928028   0.07122116 -37.61  0.001145855    1.990    0.498
        25 -10.1402    212.6096    227.8462   4.2853807475e+01   1.7223802800e+00    0.1472926   0.09031736 -45.54 0.0009544091    1.769    0.435
        26 -10.0013    184.4925    227.0658   4.7625491903e+01   4.4544269854e+00    0.1741061   0.09856455 -39.78  0.001034403    1.596    0.373
        27  -9.5997    223.6858    225.6611   4.0778302945e+01   1.0802308454e+00    0.1140008   0.06153364 -18.04 0.0007047183    1.698    0.411
        28  -9.7536    206.2356    223.7216   4.3310245951e+01   2.8997033926e+00    0.1797367   0.06469543 -35.29 0.0008869633    2.374    0.579
        29 -10.1161    180.7769    222.2289   4.7610462777e+01   5.6026702912e+00    0.2985222    0.1013554 -29.56  0.001077933    4.258    0.765
        30 -10.0190    148.0039    222.8505   5.4291455128e+01   9.0032977795e+00    0.2333463    0.1369327 -54.48  0.001231789    2.005    0.501
        31  -9.8017    216.6551    222.3379   4.1403365954e+01   2.1620741347e+00   0.09051551   0.08657178 -51.96 8.851275e-05    1.776    0.437
        32 -10.0608    172.7073    221.4332   4.9034462859e+01   6.5700585249e+00    0.2102035   0.09611111 -44.90  0.001071409    2.062    0.515
        33 -10.8132    248.7093    227.8119   3.7417362041e+01  -1.1957798012e+00    0.2169074   0.09390415 -35.63  0.001404366    1.688    0.408
        34 -10.9618    192.3359    218.2883   4.4910334335e+01   5.0676197456e+00    0.4396509    0.1087533 -43.57  0.001794471    3.406    0.706
        35  -9.7205    210.0000    217.4782   4.1765875909e+01   3.4833532505e+00    0.2411119   0.05240268 -44.52  0.000938154    3.962    0.748
        36 -10.9331    249.7097    214.3612   3.5377417262e+01   4.9065911789e-01    0.3776005     0.120766 -45.33  0.001914157    3.028    0.670
        37 -10.3249    198.2747    214.2290   4.3256541110e+01   5.1144233728e+00     0.263215    0.1306954 -36.50  0.001500845    1.686    0.407
        38  -9.8144    244.3087    214.6781   3.6163605577e+01   8.8223576212e-01   0.08786508   0.07349408 -42.62 0.0006782293    1.645    0.392
        39 -10.2943    232.4196    213.7245   3.7723971500e+01   2.0104943753e+00    0.1994006   0.08411585 -44.61  0.001128766    2.170    0.539
        40  -9.8371    169.0000    214.0225   4.8654207059e+01   8.2317930687e+00    0.1967558   0.06337861 -47.77 0.0008068849    2.973    0.664
        41 -10.0206    185.5450    212.6861   4.5293519204e+01   6.6688136684e+00    0.2318366   0.09482937 -40.64  0.001146651    2.123    0.529
        42 -10.0867    131.4875    212.9912   5.6545002834e+01   1.2773388033e+01    0.1660413    0.1207775 -89.82 0.0008095617    2.519    0.603
        43 -10.6875    192.5030    208.7749   4.3436093208e+01   6.5751326808e+00    0.2781587    0.1041025 -47.39  0.001294002    2.610    0.617
        44 -10.3552    176.8526    209.1891   4.6385705376e+01   8.1943168638e+00    0.3121733   0.06836526 -45.55  0.001116148    3.938    0.746
        45 -10.6580    236.6237    207.4259   3.6184037847e+01   2.5299674751e+00    0.2535846    0.1590538 -53.85  0.001610323    2.349    0.574
        46  -9.7670    161.9998    209.4927   4.9371136348e+01   9.8215872504e+00    0.1789633   0.09710386  -0.53 0.0008099791    2.495    0.599
        47 -10.5295    204.8975    206.2125   4.0905242586e+01   5.7045863995e+00      0.39827    0.1056249 -35.29  0.001502675    3.946    0.747
        48 -10.0526    246.6035    205.7130   3.4542017866e+01   1.9101172524e+00     0.201316    0.0713191 -38.02  0.001126958    2.079    0.519
        49 -10.3955    215.4909    205.9909   3.9148008108e+01   4.6882321681e+00    0.1657037   0.07026968 -27.15 0.0008096711    2.492    0.599
        50 -10.5445    197.2518    203.1596   4.1730162471e+01   6.9829108066e+00    0.2905508    0.1316192 -41.33  0.001479453    1.878    0.467
        51 -10.5891    184.5163    201.4897   4.3740209463e+01   8.6501649135e+00    0.4027196    0.1600853 -33.56  0.001809794    2.535    0.606
        52 -10.8637     99.7422    201.0571   6.2659982575e+01   1.9222365457e+01    0.4525903    0.2114124 -26.73  0.001534178    3.667    0.727
        53 -10.3841    250.3265    200.1934   3.3230827819e+01   2.3481426138e+00    0.2377668   0.08364046 -34.77  0.001310614    2.182    0.542
        54 -10.4027    243.5666    200.2356   3.4143419604e+01   2.9270484526e+00    0.2584656   0.07482648 -40.16   0.00129053    2.571    0.611
        55 -10.1986    210.6384    200.0599   3.9007236118e+01   6.0798324431e+00    0.2570471   0.08881784 -43.36  0.001233759    2.431    0.589
        56 -10.5995    237.0000    197.4936   3.4639228096e+01   3.9044016541e+00    0.2367378   0.04689002 -42.80 0.0009349287    3.936    0.746
        57 -11.1036    148.5586    196.1210   5.0105229192e+01   1.3953964952e+01    0.4058259    0.1309376 -53.56    0.0014582    3.528    0.717
        58 -10.7909    123.4917    197.0471   5.6045235418e+01   1.7019322746e+01    0.3546318    0.1337352 -54.35  0.001371626    2.765    0.638
        59  -9.9842    202.5898    196.7556   3.9809724198e+01   7.4451588084e+00    0.2297459   0.09169967 -41.04  0.001149255    2.082    0.520
        60 -10.8357    111.8300    196.7146   5.8897706856e+01   1.8619771555e+01    0.2523844    0.1785065 -70.39  0.001261392    1.814    0.449
        61 -10.4202    215.9774    195.0132   3.7368398788e+01   6.3145544933e+00    0.2263936    0.1422911 -58.05  0.001289225    2.469    0.595
        62 -10.4558    139.6994    198.4971   5.2460368476e+01   1.4620355687e+01    0.2437475    0.1153013 -50.37  0.001094991    2.116    0.527
        63 -10.4961    185.5034    193.1947   4.2223860825e+01   9.9524919412e+00    0.3071898    0.0992095 -43.11  0.001306314    2.666    0.625
        64 -10.0584    160.6055    192.1633   4.6895131203e+01   1.3175650093e+01    0.1975645    0.1036904 -37.06 0.0009628976    1.794    0.443
        65  -9.9474    138.3241    188.6685   5.1182328173e+01   1.6783096914e+01    0.1301458    0.1078976  67.54 0.0004988278    1.704    0.413
        66 -10.7415    129.1374    186.7876   5.3033477630e+01   1.8426029623e+01    0.3756772    0.1938166 -48.07  0.001703986    1.889    0.471
        67 -10.8339    224.3724    192.1718   3.5643008425e+01   5.8968818307e+00    0.3649373    0.1166429 -43.18  0.001753645    2.543    0.607
        68 -11.0459    245.7458    192.5495   3.2694203331e+01   3.8067095367e+00    0.2935782    0.1853501 -51.05  0.001996569    1.931    0.482
        69 -10.2477    191.4093    185.7226   3.9933822299e+01   1.0535046980e+01    0.2340143    0.1043186 -47.95  0.001135864    2.150    0.535
        70 -11.2984    119.8225    182.8033   5.4665378758e+01   2.0580777370e+01    0.6353273    0.2119415 -60.70  0.001927765    4.418    0.774
        71 -10.9417    249.6820    183.9467   3.0872681608e+01   4.6514867934e+00    0.2989665   0.08696485 -36.85   0.00145708    2.679    0.627
        72 -10.3180    164.5714    184.7128   4.4834317387e+01   1.4064774975e+01    0.2612948     0.108638 -43.01  0.001152841    2.179    0.541
        73 -10.8892     93.6839    184.2450   6.1833458955e+01   2.3878896165e+01    0.2711233    0.1902831 -86.38  0.001249203    1.983    0.496
        74  -9.6657    202.6646    183.6691   3.7675339716e+01   9.5638977515e+00    0.1243853   0.07737933 -17.00 0.0007052151    1.731    0.422
        75  -9.9764    182.7636    182.9992   4.1030819836e+01   1.2057649481e+01    0.1728172   0.09118494 -43.50 0.0008963035    1.676    0.403
        76 -10.0157    173.6252    182.2140   4.2617980746e+01   1.3354167325e+01    0.1895549    0.1015731 -37.11  0.000956732    1.694    0.410
        77  -9.6828    235.2356    180.9760   3.2326593972e+01   6.4733045288e+00    0.1440154   0.07041382 -40.26  0.000420715    1.573    0.364
        78 -10.9273    147.0561    178.7940   4.7526905057e+01   1.7586975638e+01     0.406329    0.1768018 -49.52  0.001730536    2.224    0.550
        79  -9.3717    249.3117    177.3177   2.9900556628e+01   5.6183918013e+00    0.1064391    0.0633456 -20.86 0.0007034938    1.643    0.391
        80 -10.4828    155.5929    184.6254   4.6680738287e+01   1.5266675672e+01    0.3801968    0.1208763 -49.76  0.001417058    3.068    0.674
        81 -10.5622    101.0032    175.9759   5.8492238988e+01   2.4809460737e+01     0.208749     0.194485  -3.29  0.001171659    1.034    0.033
        82 -10.4915     58.7731    175.9749   7.0998436566e+01   3.0441450011e+01    0.1941025    0.1232568 -65.86 0.0005087832    1.644    0.392
        83  -9.2725    197.0000    181.9493   3.8337924907e+01   1.0510000264e+01    0.1990567   0.05816312 -44.77 0.0008012105    2.934    0.659
        84 -10.1193    157.5090    173.5078   4.4339368123e+01   1.7169250347e+01    0.1313283    0.1196904 -24.19 0.0002067946    1.052    0.050
        85  -9.8072    175.3377    171.3242   4.0394043817e+01   1.5122700770e+01    0.1339369   0.08974783 -15.28 0.0007051161    1.720    0.419
        86 -10.8291    120.5833    169.3628   5.2152962437e+01   2.3447875858e+01    0.2759533    0.1413504 -58.17  0.001139347    2.163    0.538
        87 -10.6248    149.6098    168.0446   4.5045075518e+01   1.9391543112e+01    0.3105901    0.1227124 -48.67   0.00124438    2.398    0.583
        88 -10.8373    212.7243    162.3348   3.2490739647e+01   1.1853318104e+01    0.3103111    0.1298418 -46.20  0.001487719    2.074    0.518
        89  -9.8502    132.3192    162.6723   4.8018688893e+01   2.3125735253e+01    0.1388304    0.1129623  76.63 0.0007047003    1.683    0.406
        90 -10.2160    134.4938    168.9927   4.8663842248e+01   2.1439582106e+01    0.2133492     0.104626 -31.72 0.0008104694    2.651    0.623
        91  -9.8071    227.0000    158.0045   2.9712307169e+01   1.0833815532e+01    0.1885698   0.05082052 -42.59 0.0006876713    2.893    0.654
        92 -10.3216    167.4678    156.9675   3.9288116708e+01   1.8925735426e+01    0.1833518    0.1122018 -66.50 0.0008097764    2.586    0.613
        93 -10.2979    138.2285    163.2617   4.6729928248e+01   2.2089905669e+01    0.2189865    0.1136166 -59.99 0.0008884775    2.408    0.585
        94 -10.2755    204.6664    153.4876   3.2170652477e+01   1.4326563466e+01    0.2186895   0.09325349 -42.98  0.001075743    1.933    0.483
        95 -10.4636    131.6247    150.8437   4.5910341652e+01   2.5796043440e+01    0.2075377    0.1329916 -60.01  0.000954035    1.751    0.429
        96 -11.2598    249.4455    149.0431   2.5406037852e+01   9.6349918116e+00    0.3022021   0.07802328 -41.37  0.001381649    2.838    0.648
        97 -10.7218    243.6086    150.2385   2.6291093236e+01   1.0104860633e+01    0.1589517   0.07749964 -35.44 0.0009509386    1.632    0.387
        98 -10.3410     91.0000    149.5075   5.6697999884e+01   3.2714665006e+01     0.340368   0.08619687 -57.16 0.0009444139    4.013    0.751
        99 -10.4968    189.3573    148.4268   3.3714215456e+01   1.7294770398e+01    0.3203788    0.1025845 -47.99  0.001251525    2.926    0.658
       100 -10.3510    198.9843    148.0011   3.2068437297e+01   1.6015422271e+01    0.2422263    0.1372665 -42.25  0.001348264    1.472    0.321
       101 -10.8169    148.3114    144.4187   4.0793895423e+01   2.4402047555e+01    0.3878533    0.2346872 -75.21  0.001463293    3.414    0.707
       102 -10.7754    105.4197    143.7392   5.1343161470e+01   3.1765208563e+01    0.4128879    0.2513202  84.99  0.001358433    3.813    0.738
       103 -10.8452     54.6488    144.4748   6.7755164921e+01   3.9293390234e+01    0.3075368    0.1811056  74.04  0.001153707    2.492    0.599
       104 -10.4816    124.4982    141.9976   4.5882619640e+01   2.8927221015e+01    0.2072185    0.1301897 -75.91 0.0008106933    2.627    0.619
       105 -10.1635    171.8960    137.5977   3.4701316132e+01   2.1897545675e+01    0.2738611     0.159751 -58.20  0.001314906    1.986    0.496
       106 -10.0365    207.5043    137.0148   2.8768661067e+01   1.6669131750e+01    0.1911546   0.09791707 -43.31  0.001033086    1.595    0.373
       107 -11.0806    197.5322    135.3067   2.9939689718e+01   1.8378701947e+01    0.4526517    0.1029845 -42.50  0.001576465    3.721    0.731
       108 -10.6165     69.0314    135.8573   6.1181314831e+01   3.9569648626e+01    0.2548586    0.2203034 -58.39  0.000397127    1.176    0.149
       109 -10.1567    188.0000    134.9759   3.1390342068e+01   1.9859217422e+01    0.2142078   0.06235979 -43.93 0.0008022907    2.941    0.660
       110 -10.6623    179.5125    132.8261   3.2397664913e+01   2.1560211699e+01    0.3249222    0.1119033 -46.42  0.001298121    2.585    0.613
       111 -10.3907    131.3898    130.5788   4.1763486298e+01   3.0202440609e+01      0.28824    0.1288293 -61.07 0.0009548103    3.385    0.705
       112 -10.6111     82.5862    130.8004   5.5603893661e+01   3.8725851059e+01    0.2177936     0.150442 -71.42 0.0009543453    1.692    0.409
       113 -10.1581    204.4944    130.0592   2.7915592701e+01   1.8241179832e+01     0.188097     0.099452 -43.26 0.0006049729    1.554    0.356
       114 -11.3342     54.2814    129.6150   6.5294444895e+01   4.3322306628e+01    0.2837198    0.1723232 -42.59  0.001190658    1.763    0.433
       115 -10.2551    192.6236    129.1952   2.9533553525e+01   2.0155686645e+01    0.1851556    0.1013567 -36.55 0.0006907507    1.691    0.408
       116 -10.3050    168.5632    128.7680   3.3533100064e+01   2.4086622494e+01    0.2658858    0.1163893 -41.41  0.001077616    2.109    0.526
       117 -10.7140    152.4234    128.1997   3.6563934148e+01   2.6958027777e+01    0.3327509    0.1210039 -53.55  0.001144653    3.226    0.690
       118 -10.7143     11.4965    127.9861   8.1955601339e+01   4.8218113646e+01    0.2282062    0.1411548 -77.86  0.001034075    1.601    0.375
       119 -10.7722     97.7980    126.3544   4.9868655899e+01   3.7197959644e+01    0.3678483    0.2129081 -69.90  0.001413051    2.398    0.583
       120 -10.5085     38.6815    127.6796   7.0951904836e+01   4.5797063655e+01    0.1621183    0.1099393 -31.09 0.0004402643    1.664    0.399
       121 -10.0931    142.8061    131.0045   3.9220565384e+01   2.8083930398e+01    0.2339168    0.1627526 -74.70   0.00108609    2.017    0.504
       122  -9.8919    188.2523    123.2605   2.9057950824e+01   2.1858737937e+01     0.209714   0.08746123 -51.53 0.0008974817    2.426    0.588
       123 -11.3527     58.0096    122.2654   6.2466125482e+01   4.4742777413e+01    0.4142672    0.2093303 -82.43  0.001304639    3.550    0.718
       124 -11.4250     82.6278    120.6455   5.3373329580e+01   4.1231580392e+01    0.3646553    0.2662934 -39.54   0.00110554    1.464    0.317
       125 -10.2389    172.3560    121.1615   3.1279997251e+01   2.4846653960e+01    0.1951789    0.1081388 -52.01  0.000686993    1.738    0.425
       126  -9.9032    158.4778    121.0209   3.3816258511e+01   2.7282647171e+01    0.1944454    0.1103389 -64.72 0.0006264299    2.521    0.603
       127 -10.5385    140.8041    117.5310   3.6703654824e+01   3.1182417513e+01    0.4129344    0.1768751 -58.20   0.00142065    3.266    0.694
       128 -10.4427    129.9939    117.4861   3.9170722664e+01   3.3221174487e+01      0.31582    0.1764548 -64.00  0.001257187    2.425    0.588
       129 -10.1858    185.6779    114.8727   2.7779083546e+01   2.3719457913e+01    0.2693262    0.1027737 -37.80  0.001109804    2.597    0.615
       130 -10.9825    108.6277    113.4115   4.3724795242e+01   3.8168325103e+01    0.3725266    0.1861262 -64.27   0.00129685    2.964    0.663
       131 -11.0342     92.0379    112.8701   4.8509598550e+01   4.1413282837e+01    0.3651188    0.2180516 -72.18  0.001403223    2.439    0.590
       132 -11.3883     78.0314    111.2414   5.2740942810e+01   4.4320830885e+01    0.5163696    0.2711117 -76.56  0.001589856    3.885    0.743
       133 -11.0549    121.6407    111.0284   3.9701539569e+01   3.6173743737e+01    0.3466468    0.1346263 -48.01  0.001256894    2.529    0.605
       134 -10.1366    133.1777    108.7540   3.6386454009e+01   3.4398480370e+01    0.3216358   0.09930713 -51.26   0.00100288    3.572    0.720
       135 -10.1172     13.2230    107.7740   7.8658758983e+01   5.3654617510e+01    0.2452121    0.0858755 -59.07  0.000813661    2.458    0.593
       136 -10.2750     65.6802    110.3266   5.6974520709e+01   4.6627983939e+01    0.1600281    0.1174383  66.85 0.0007046897    1.682    0.405
       137  -9.9619    139.3980    104.2113   3.3926271971e+01   3.4081388614e+01    0.2044129    0.1243301 -56.00 0.0006389026    1.704    0.413
       138 -10.8872    128.0250    100.3766   3.5552079047e+01   3.7089589601e+01    0.4162576     0.200216 -50.87   0.00170827    2.099    0.524
       139 -10.8121    246.5083    101.5048   1.7780503513e+01   1.6733382613e+01    0.1080623   0.07889212 -46.95 -1.885117e-05    1.011    0.010
       140 -11.3369     42.7348     99.7340   6.3824664546e+01   5.2724547082e+01    0.3827999    0.2044899 -83.54   0.00133405    3.077    0.675
       141 -10.9089    107.5815     97.9380   4.0141182985e+01   4.1715035108e+01     0.288103    0.1848868 -62.12 0.0009813692    1.798    0.444
       142 -11.6361     63.1100     95.9757   5.4421160959e+01   5.0569465063e+01    0.4098815    0.2397465  85.35  0.001268968    4.153    0.759
       143 -10.4447    249.6580     91.6682   1.5809319541e+01   1.7660753263e+01   0.09690735   0.07444414 -19.12  0.000705114    1.751    0.429
       144 -11.2235    124.2771     89.1555   3.3581119285e+01   4.0041180960e+01    0.6161022     0.234691 -46.03  0.002298146    2.592    0.614
       145 -11.1189     94.7325     92.9113   4.2544780511e+01   4.5366673833e+01    0.5286047    0.2825336 -33.66  0.002015038    2.556    0.609
       146 -10.8296     80.5783     85.7767   4.5151268015e+01   4.9705107246e+01    0.2050491    0.1437186 -64.16 0.0008541361    1.657    0.396
       147 -11.0467     34.6104     84.3242   6.3884914686e+01   5.7655687012e+01    0.3907817    0.1980881 -31.45  0.001457224    2.635    0.621
       148 -10.9007    103.8810     82.5959   3.7003677806e+01   4.5598945251e+01    0.3022857    0.1893667 -63.50  0.001150972    1.964    0.491
       149 -10.6317    127.6976     73.8280   2.8734025119e+01   4.2107600116e+01    0.4172841    0.1528685 -45.33  0.001575788    2.686    0.628
       150 -13.8340    243.1869     60.9896   1.1024196211e+01   2.2570920158e+01    0.5030567    0.1996057 -33.02  0.002620653    2.731    0.634
       151 -13.4165    249.1400     67.2049   1.1661332949e+01   2.0930762854e+01    0.5347963    0.2069865 -37.42  0.003027346    2.148    0.535
       152 -14.2428    237.7988     67.4777   1.2589536015e+01   2.2539030832e+01    0.7031946    0.2431665 -47.36  0.003786358    2.117    0.528
       153 -11.0845     81.8409     72.7284   4.0809687448e+01   5.2153856571e+01    0.2837274    0.1950822 -78.77  0.001240214    2.154    0.536
       154 -10.1864     95.0000     71.9861   3.6432641269e+01   4.9531191239e+01    0.2293987   0.08263927 -44.21 0.0007976377    2.909    0.656
       155 -10.0832    105.4129     71.2134   3.3295059751e+01   4.7422438239e+01    0.2032307    0.1302688 -56.63  0.000946289    1.708    0.415
       156  -9.6688    118.6221     69.5820   2.9566728473e+01   4.4819157940e+01    0.1372903    0.1257836 -85.79 2.905375e-05    1.029    0.028
       157  -9.4562    154.4786     67.5975   2.2142724279e+01   3.7438538574e+01    0.1299391    0.1139607 -76.64 7.738426e-05    1.021    0.020
       158 -10.4856     47.5079     84.0036   5.7767121406e+01   5.5932818698e+01    0.2053482    0.1331909  88.26 0.0008104439    2.550    0.608
       159 -10.4812     36.5072     63.5033   5.6977215430e+01   6.2257258071e+01    0.1418839    0.1317721  15.04 0.0008106101    1.013    0.013
       160  -9.7480    130.9717     57.4819   2.3575153872e+01   4.4063586067e+01    0.1801649     0.108978 -88.86 0.0005765285    2.203    0.546
       161 -10.1831    224.4635    247.5405   4.3702571921e+01  -1.9536485563e+00    0.2011823   0.08019714 -40.35  0.001083594    2.124    0.529
       162 -12.0080    226.0664     53.8110   1.1029262831e+01   2.6107650344e+01    0.2664787    0.1164144 -40.57  0.001187021    1.821    0.451
       163 -10.1249    159.2630     54.9709   1.8307311098e+01   3.8328435930e+01    0.1823193    0.1499199 -60.21 0.0008153724    1.090    0.083
       164 -10.5053     86.2447     53.7111   3.3163900046e+01   5.4692816390e+01    0.2809991    0.1973376 -30.14  0.001410332    1.723    0.420
       165  -9.8005     62.3042     54.6586   4.1922441232e+01   5.9564370502e+01    0.1413431     0.110989  82.28 0.0007040366    1.680    0.405
       166 -10.8222     28.0553     43.2771   5.4447542653e+01   6.7675217609e+01    0.3938443    0.1742485 -44.14  0.001688058    2.391    0.582
       167 -12.0172    238.4705     42.3828   8.0640946442e+00   2.5549498121e+01    0.1705447    0.1368848 -64.34 0.0006109073    1.159    0.137
       168  -9.5865    184.3137     41.3388   1.2160551506e+01   3.5102793194e+01    0.1035834   0.09286804  27.34 0.0005527342    1.696    0.411
       169 -10.2865     69.7596     41.5769   3.4155265433e+01   6.0253359246e+01    0.1959917    0.1228972  60.67 0.0008212997    1.614    0.380
       170 -10.6063     36.7991     40.1017   4.8152954455e+01   6.6907164755e+01    0.3252066    0.1923079 -58.81  0.001515927    2.303    0.566
       171 -10.7654    122.2372     36.7043   1.9149740732e+01   4.8994088107e+01    0.2639443    0.2076498  64.71 0.0008493918    1.202    0.168
       172 -10.5466    176.5690     33.2521   1.1093296948e+01   3.7630371178e+01    0.1983887    0.1418519  83.85 0.0003263628    1.307    0.235
       173  -9.8625     89.0000     32.9961   2.5036365727e+01   5.7181597531e+01    0.2064774   0.07774712 -34.54 0.0008098059    2.994    0.666
       174 -10.0940     81.4821     27.0100   2.4781450290e+01   5.9687816808e+01    0.1851974    0.1011949 -58.86 0.0006839662    2.526    0.604
       175  -9.2272     35.3255     12.2683   3.5359090693e+01   7.1464490801e+01    0.1289662   0.08552302  27.35 0.0003241625    1.572    0.364
