#   1 NUMBER                 Running object number                                     
#   2 MAG_AUTO               Kron-like elliptical aperture magnitude                    [mag]
#   3 X_IMAGE                Object position along x                                    [pixel]
#   4 Y_IMAGE                Object position along y                                    [pixel]
#   5 X_WORLD                Barycenter position along world x axis                     [deg]
#   6 Y_WORLD                Barycenter position along world y axis                     [deg]
#   7 A_WORLD                Profile RMS along major axis (world units)                 [deg]
#   8 B_WORLD                Profile RMS along minor axis (world units)                 [deg]
#   9 THETA_WORLD            Position angle (CCW/world-x)                               [deg]
#  10 FWHM_WORLD             FWHM assuming a gaussian core                              [deg]
#  11 ELONGATION             A_IMAGE/B_IMAGE                                           
#  12 ELLIPTICITY            1 - B_IMAGE/A_IMAGE                                       
         1 -15.3885    199.0100    118.9714   8.1077762369e+01   1.7588981314e+01     8.885572     3.799541  53.09   0.03367985    2.512    0.602
         2 -15.5915    133.2942     23.3299   6.8640246948e+01   4.7946184001e+01     7.520637     4.673955 -59.76   0.03910577    2.125    0.530
         3 -15.1613    219.3163     34.3369   5.9319001061e+01   2.7175474559e+01     2.264456    0.6735945 -32.65  0.008130481    4.510    0.778
         4 -14.4302    218.2709     75.7685   6.8230680094e+01   2.1282462080e+01      3.59592     1.355198 -60.79   0.01038129    5.189    0.807
         5 -18.0694    241.9225     41.8667   5.8538836677e+01   2.1435748818e+01     5.184227     1.877852 -39.24   0.01681692    2.669    0.625
         6 -12.4668    203.2754     25.1316   5.9109739350e+01   3.1835372853e+01     2.152314    0.6760064 -44.45  0.009206677    2.921    0.658
         7  -9.7018     79.1745     15.2708   7.8345956317e+01   5.9948844399e+01    0.4038861     0.151452 -24.37  0.001861463    3.038    0.671
         8  -9.0299    163.4744     12.7004   6.1043725314e+01   4.2176378962e+01    0.2097278    0.1827661  42.10 0.0008535974    1.347    0.258
         9  -8.4462    207.0625     11.0064   5.5763225580e+01   3.2611126200e+01    0.2321997    0.1295859 -58.71  0.001326169    1.690    0.408
        10 -10.3456    180.1593      3.8639   5.6949704443e+01   3.9265371462e+01    0.5003741    0.3600932  87.05  0.003253259    1.160    0.138
        11  -8.8789    177.3734     12.6636   5.9283234103e+01   3.9029177543e+01    0.1975641    0.1511317 -36.90 0.0006980423    1.523    0.344
        12  -9.5928    250.6459      4.2406   5.1030644364e+01   2.4395641598e+01    0.1128237   0.08272345 -67.76 0.0002339249    1.114    0.102
        13 -11.8609    244.1260      3.5355   5.1351393045e+01   2.5744939941e+01    0.2349535    0.1485649  64.36  0.001556902    1.740    0.425
        14  -9.3133    172.1537      2.7177   5.7574943375e+01   4.1159755382e+01    0.2771331    0.1576721 -54.20  0.001006296    1.873    0.466
        15  -8.7143    211.1961      2.5062   5.3684441372e+01   3.2614954143e+01    0.2911054   0.09483149 -51.58  0.001122548    2.917    0.657
        16 -10.0099    200.2085    164.3506   9.0920221057e+01   8.0357529686e+00    0.5784482    0.3757733  86.87  0.002103146    3.391    0.705
        17 -11.8859    232.5500    250.0873   1.0097506332e+02  -1.2588888807e+01    0.2429009    0.1603522  25.68 0.0004109057    1.392    0.282
        18 -11.2777     48.9870    155.2659   1.2645370285e+02   3.7626819913e+01    0.3279434    0.3019761  -9.17 0.0008861306    1.325    0.245
        19 -13.6256     60.8209    148.6241   1.2207804996e+02   3.7773121929e+01     1.968491      1.37298  -9.66  0.007054674    2.176    0.541
        20 -10.7017    214.9763    242.0031   1.0290021807e+02  -8.9107412918e+00    0.3428982     0.205049 -31.45  0.001873878    1.668    0.400
        21  -9.4708    203.9771    151.9374   8.7511144557e+01   9.8536844288e+00    0.2336315    0.1808597 -83.60  0.001104324    1.710    0.415
        22  -8.4325     87.9954    152.2908   1.1527411901e+02   3.2779754979e+01    0.2010311    0.1897416  72.05 0.0003924119    1.083    0.076
        23  -8.3361    160.8290    164.8326   9.9478754141e+01   1.5831143881e+01    0.2017136    0.1776721  88.60  0.001010177    1.273    0.215
        24  -8.4129     93.7116    151.4807   1.1355466281e+02   3.2020769352e+01    0.1821399    0.1515308  19.31 0.0008338199    1.417    0.294
        25 -10.6571    174.7468    148.8058   9.2818569611e+01   1.6525712699e+01    0.3921571    0.3408317  20.45  0.001144006    1.318    0.241
        26  -9.2942    133.8675    147.1117   1.0203841127e+02   2.5485469130e+01    0.5499879    0.2190658 -56.17  0.001725028    2.915    0.657
        27 -10.0094    132.6664    139.7427   1.0064464322e+02   2.7467134802e+01     1.324294    0.4046943 -57.59  0.002851619    6.518    0.847
        28 -10.2425    207.5342    161.4320   8.8863197702e+01   7.2197887078e+00    0.3558556    0.2847124   9.95 0.0001185559    1.540    0.351
        29  -9.0292    203.4704    160.5479   8.9464763279e+01   8.1850727484e+00    0.2418294    0.2202705  66.82 0.0006641534    1.233    0.189
        30 -11.0484    192.6011    153.4062   9.0086480902e+01   1.1834596850e+01    0.6923314    0.2509685 -52.26  0.002174105    3.238    0.691
        31 -10.6473    135.8743    126.7461   9.6716051156e+01   2.9790326470e+01     1.061502    0.2766381 -50.19  0.002804241    4.148    0.759
        32 -10.8587    160.5021    128.8095   9.1325358637e+01   2.3991055232e+01    0.4661867    0.4209178 -26.81  0.002393524    1.201    0.167
        33  -8.1292     97.4752    129.4786   1.0768359370e+02   3.6732774328e+01    0.1515412    0.1442391 -51.23 0.0001398794    1.011    0.011
        34  -8.2496    250.2052    239.2068   9.5939097597e+01  -1.3307132343e+01    0.1403464    0.1264749 -10.54 0.0003670565    1.289    0.224
        35  -8.9839    130.1912    117.9108   9.5952885276e+01   3.2971306572e+01    0.2428554     0.207301 -75.58  0.001198674    1.297    0.229
        36 -10.7282    138.4468     93.8711   8.7572029806e+01   3.6190237530e+01    0.5027914    0.3122949  56.78  0.001272404    1.693    0.409
        37  -9.7622    133.0418     99.1206   9.0312174723e+01   3.6340848513e+01    0.3344516    0.2624021 -76.71  0.000596322    1.574    0.365
        38 -10.8667    125.3814    109.1408   9.4935267885e+01   3.5897267046e+01    0.7835511    0.5844941 -32.72  0.002745461    1.446    0.308
        39 -11.4836    121.6501    101.1356   9.3784874200e+01   3.8368495713e+01    0.9904431    0.4812265 -57.13  0.003513691    2.746    0.636
        40  -9.6635    118.3146    109.7598   9.6972777616e+01   3.7230805825e+01    0.2391645    0.1905102 -64.48 0.0006611967    1.388    0.280
        41  -9.8539    190.1985    148.8034   8.9558808497e+01   1.3300496770e+01    0.3319674    0.2294276 -68.90  0.001374062    1.857    0.462
        42  -9.1748    187.1917    156.7007   9.1922681656e+01   1.2234610952e+01     0.233109    0.1934357  74.00  0.001010705    1.430    0.301
        43  -8.2397     85.5735    105.7190   1.0530281484e+02   4.4273639361e+01    0.2053287    0.1367203 -60.84 0.0009404556    1.683    0.406
        44  -9.2599    145.8740    103.4910   8.8359674696e+01   3.2613561366e+01    0.2969052      0.26519  41.74 0.0007582159    1.158    0.136
        45  -9.9978    144.5381    226.5475   1.1479919375e+02   5.3955776813e+00    0.2460971    0.2312863  10.24 0.0007180707    1.129    0.114
        46 -10.5105    169.6312     91.2565   8.0033319398e+01   2.9568037214e+01    0.5049518    0.4141355  30.85  0.001417897    1.478    0.324
        47 -10.0679    164.2287     94.2323   8.1891359499e+01   3.0255299210e+01    0.3298501     0.279563 -55.82 0.0004727625    1.165    0.142
        48 -10.4797    166.5056     98.0207   8.2382110929e+01   2.9006257071e+01     0.567219    0.3043978 -56.52  0.001901137    2.181    0.541
        49  -9.7577    169.2735     96.3285   8.1386196519e+01   2.8695105926e+01    0.2935507      0.26134 -11.40 0.0005195222    1.367    0.268
        50 -10.1985    154.7204     98.9594   8.5155343471e+01   3.1520949666e+01    0.4347055    0.3302012  42.17   0.00118753    1.387    0.279
        51 -11.1055    152.0104     89.9968   8.3407147196e+01   3.3864011658e+01    0.3506067    0.3337021  33.22 0.0005783832    1.133    0.117
        52 -10.0966    197.2125    179.8250   9.4759050339e+01   5.4238611551e+00    0.3980955    0.2252087 -27.85  0.001619835    2.221    0.550
        53 -10.6924    135.0142    109.5738   9.2584675674e+01   3.3744963806e+01     1.090457    0.2464789 -44.41  0.002856102    4.389    0.772
        54  -8.6785     32.3761     89.2519   1.1856579090e+02   5.4964119774e+01    0.2331685    0.1457589 -63.26  0.001240396    1.668    0.401
        55  -8.8568    124.2875     89.3594   8.9857644610e+01   4.0163114820e+01    0.1506287    0.1172724  -0.18 0.0007023856    1.684    0.406
        56  -9.7064     81.9874     85.0462   1.0073051635e+02   4.9203810355e+01    0.6783279    0.2639537 -55.59  0.002188294    3.938    0.746
        57  -9.9686    175.5089     87.8742   7.8037138231e+01   2.8830617291e+01    0.2483883    0.2259571  67.13 0.0003026784    1.092    0.084
        58  -9.9133    208.5041     85.6766   7.1853929949e+01   2.1736639053e+01    0.4007083    0.2260256 -65.17  0.001359369    2.138    0.532
        59  -9.8595      5.4876     83.9841   1.2684479772e+02   5.8190607422e+01    0.1892448   0.09581637 -58.78  0.001033255    1.592    0.372
        60 -10.0236    222.7588    208.7421   9.5429442902e+01  -4.5095260781e+00    0.2299873    0.1616889  29.54 0.0009618847    1.452    0.311
        61 -11.1129    198.4421    174.4696   9.3403443978e+01   6.2895617359e+00    0.6801549    0.3585901  62.89  0.002296126    3.731    0.732
        62  99.0000    188.2889     44.5423   6.5337425376e+01   3.2744916782e+01    0.7819524    0.3752283 -57.18  0.003431015    2.381    0.580
        63  99.0000    191.5257     43.5222   6.4652959518e+01   3.2141608143e+01    0.3609886    0.1425032 -51.45  0.001454229    2.722    0.633
        64  -7.7671    101.2902    176.2590   1.1634860046e+02   2.4555664578e+01    0.1398422    0.1187572 -18.95            0    1.491    0.329
        65  -8.3276    190.0691     35.2956   6.2945235714e+01   3.3553739142e+01    0.1590293    0.1300124  87.49 0.0001780312    1.046    0.044
        66  -8.5148    171.0560     34.9900   6.5513210745e+01   3.7966840098e+01    0.1482404    0.1338965 -82.29  0.000359931    1.086    0.079
        67  -9.3216    123.9863    205.9747   1.1603946561e+02   1.3462171296e+01    0.2025203    0.1909719  65.78            0    1.002    0.002
        68  -8.8868    177.5191     25.5720   6.2309566795e+01   3.7599735703e+01    0.2385033     0.178414  78.34 5.000383e-05    1.152    0.132
        69 -11.3434    192.3856    193.8441   9.8571992573e+01   3.4695050896e+00     1.058766     0.502716 -62.96  0.002986011    5.389    0.814
        70  -9.8243    210.3312     16.1408   5.6500724179e+01   3.1334605714e+01    0.1916865    0.1461691 -87.58  0.000439824    1.049    0.047
        71  -9.0136     94.6903    166.9655   1.1632757381e+02   2.7994992058e+01    0.2308023    0.2127255  46.33 0.0006222388    1.140    0.122
        72 -13.1894      7.6605    174.9985   1.3933687574e+02   3.7005902408e+01     2.623693     1.130889  80.27   0.01083279    3.038    0.671
        73 -13.4329     21.9998    168.9643   1.3529447880e+02   3.7161714332e+01      1.70558    0.8607194 -78.93  0.008159852    1.808    0.447
        74  -9.7370    209.0117    198.2590   9.6076177223e+01  -3.2802071607e-01     0.195829     0.177906   6.03  0.001056106    1.072    0.067
        75 -11.4434      4.2837    160.1005   1.3861026133e+02   4.0827566898e+01    0.8526375    0.4542597 -82.46  0.004518952    1.640    0.390
        76 -11.7329    211.7268    187.4691   9.3417318545e+01   1.2702717011e+00    0.7633945    0.4572359  56.09  0.003398476    2.301    0.565
        77 -10.0240    181.2931    187.1441   9.9577427074e+01   6.9052529871e+00    0.3522751    0.1302991 -48.67  0.001215066    2.751    0.636
        78  -9.9873    191.4092    181.5685   9.6310570508e+01   6.1559708123e+00    0.2964182    0.2407968 -70.78 0.0008439609    1.514    0.340
        79  -8.3432      8.6657    247.6682   1.4476896069e+02   2.0676570145e+01    0.1016082   0.08090869 -57.92 5.576839e-05    1.731    0.422
