#   1 NUMBER                 Running object number                                     
#   2 MAG_AUTO               Kron-like elliptical aperture magnitude                    [mag]
#   3 X_IMAGE                Object position along x                                    [pixel]
#   4 Y_IMAGE                Object position along y                                    [pixel]
#   5 X_WORLD                Barycenter position along world x axis                     [deg]
#   6 Y_WORLD                Barycenter position along world y axis                     [deg]
#   7 A_WORLD                Profile RMS along major axis (world units)                 [deg]
#   8 B_WORLD                Profile RMS along minor axis (world units)                 [deg]
#   9 THETA_WORLD            Position angle (CCW/world-x)                               [deg]
#  10 FWHM_WORLD             FWHM assuming a gaussian core                              [deg]
#  11 ELONGATION             A_IMAGE/B_IMAGE                                           
#  12 ELLIPTICITY            1 - B_IMAGE/A_IMAGE                                       
         1 -12.4760    105.6850     20.0158   1.3548997059e+01   5.6119877974e+01    0.4501656     0.326931 -70.94 0.0003511702    1.629    0.386
         2 -12.3013     58.1013     29.8350   3.4704724173e+01   6.6027431813e+01    0.5786566    0.3559837 -24.68  0.001232929    1.881    0.468
         3 -11.4206     20.4243     22.1209   5.3574664675e+01   7.3417780986e+01    0.5575635    0.3269053 -38.83  0.001879379    1.577    0.366
         4 -11.6910     35.5288     17.7474   4.0471773677e+01   7.2193819585e+01     0.557691    0.3365934 -30.47  0.002453771    1.691    0.409
         5 -11.1431      5.7203      9.2391   5.9218305089e+01   7.7410935273e+01    0.4573287    0.3936878 -58.62  0.003011221    1.305    0.234
         6 -11.2240     13.1425      8.9219   5.2078364215e+01   7.6796364560e+01    0.3588643    0.3145304 -30.07  0.001809251    1.125    0.111
         7 -12.0804     22.8071     10.9427   4.5234396409e+01   7.5267425109e+01    0.5158082     0.345275  -3.02  0.002008828    1.684    0.406
         8 -11.8636    165.1857     17.7203   3.0186947373e+00   4.0472428036e+01    0.5576404    0.2993993  45.19  0.002430396    2.248    0.555
         9 -11.3805     86.3282     13.3922   1.5396885966e+01   6.1897317614e+01    0.6915865     0.375992  10.18  0.002611665    3.047    0.672
        10 -10.6601     89.1871      8.3226   1.2057558456e+01   6.1704773001e+01    0.2877369     0.201319 -27.79 0.0008974932    1.538    0.350
        11 -10.7698    128.4908     12.4881   6.0472276065e+00   5.0808081773e+01    0.3601651    0.2313841 -61.69   0.00152522    1.693    0.409
        12 -11.3244    134.9725     14.8403   5.9457380646e+00   4.8813369717e+01     0.653201    0.2712395  63.30  0.002590704    2.111    0.526
        13 -12.3772    227.6993     14.8863   3.5708060776e+02   2.5999720030e+01    0.4792465    0.2301369 -69.46   0.00156865    2.163    0.538
        14 -11.5958    243.4489     14.7227   3.5614639642e+02   2.2827798750e+01    0.2214389    0.1712442  44.66  0.001459379    1.794    0.442
        15 -11.8038    104.7158     12.8987   1.0598704275e+01   5.7169626643e+01    0.4570446    0.3395412  -6.73  0.001594472    1.577    0.366
        16 -11.8808    191.9535      9.4178   3.5810730458e+02   3.4615222451e+01    0.6683623     0.321092  -7.18  0.002641324    3.441    0.709
        17 -12.1824     49.0435     13.0065   2.9641692463e+01   7.0504500975e+01     0.639691    0.2740628  47.78  0.002697126    2.228    0.551
        18 -12.1412    212.0679      9.7203   3.5679715151e+02   2.9912685412e+01    0.5081883    0.3401275  -6.75   0.00218948    2.004    0.501
        19 -11.2867     64.2848      9.6639   2.0684622207e+01   6.7661005542e+01    0.3812092    0.2484982 -26.00  0.001155745    1.616    0.381
        20  -9.2853     61.6567      6.3292   1.9683453151e+01   6.8646353176e+01    0.1949176     0.141778  75.13 0.0006139773    1.681    0.405
        21 -11.2248    168.6241      9.6113   1.3765926555e-01   4.0411580410e+01    0.4465135    0.2069881  59.32  0.001624567    2.119    0.528
        22 -10.0308      1.0000      8.8439   6.3660382775e+01   7.7814037237e+01    0.3122229   0.06234153 -62.80  0.001018564    4.641    0.785
        23 -11.1990    156.5858      7.8117   7.6529263460e-01   4.3720158517e+01    0.2573029    0.2202549  44.52  0.001123579    1.331    0.248
        24 -11.6160    231.9474      6.3181   3.5485724341e+02   2.5977372015e+01    0.2832334    0.1660769 -60.06 0.0009943494    1.446    0.308
        25 -12.0485    234.7152      2.8701   3.5394045873e+02   2.5743607456e+01    0.4197283    0.2390499 -74.63  0.002364336    1.654    0.395
        26 -12.1435    242.6782      3.4804   3.5371607643e+02   2.4093041709e+01     0.721688    0.2611762 -75.45  0.003195964    3.226    0.690
        27 -10.4709    245.9002      1.4231   3.5313285323e+02   2.3660775027e+01    0.1859212   0.09950826 -88.11 0.0004238079    1.911    0.477
        28 -11.7253    184.8142      6.3697   3.5780017271e+02   3.6647991939e+01    0.3866272    0.2167107 -59.67  0.001877086    1.655    0.396
        29  -9.5990     78.1323      7.4124   1.4638005328e+01   6.4594519920e+01    0.1928217    0.1300006  76.77 0.0005526654    1.655    0.396
        30 -11.6692    137.8256      4.1483   1.6111134630e+00   4.9062159025e+01    0.6140774    0.2133569  62.50 0.0004193001    2.432    0.589
        31 -11.8900    133.2708      2.4099   1.5268695153e+00   5.0441144046e+01    0.3911955    0.3070781  67.51  0.001377572    1.173    0.147
        32  -9.0893    122.2916      5.2951   4.1582593624e+00   5.3167035068e+01    0.1440987   0.09854881  42.47 0.0003169139    1.555    0.357
        33 -10.4368    116.3109      3.4697   4.3313779372e+00   5.4944776720e+01    0.3095369    0.1991543 -16.83  0.001252622    1.769    0.435
        34 -10.9168    112.9907      2.2462   4.3434318429e+00   5.5944583968e+01    0.3082664     0.194427  76.69  0.001025651    1.462    0.316
        35 -11.0276    218.4985      3.5331   3.5490239683e+02   2.9096474863e+01     0.220777    0.1807408 -65.07 0.0006691793    1.055    0.052
        36 -11.1263    223.6455      2.6949   3.5443507879e+02   2.8066850189e+01    0.2287418    0.1770872 -56.20 0.0003045996    1.027    0.026
        37 -11.9496    206.7183      2.3376   3.5526162934e+02   3.1835405419e+01    0.6486211    0.1995398  89.05  0.002347124    3.859    0.741
        38 -11.1128    175.7297      5.5538   3.5828381882e+02   3.8988231587e+01    0.3034631    0.1751227 -87.69  0.001408262    1.672    0.402
        39 -10.6161      2.0601      2.0712   5.8694837058e+01   7.9103560847e+01    0.2547606    0.1527594 -34.07  0.001099116    1.449    0.310
        40 -10.3323    105.2699      1.8126   5.4698324562e+00   5.8056836329e+01    0.2513848     0.177439  84.86 0.0008198839    1.394    0.283
        41  -9.2461     64.4033      2.2063   1.6085344776e+01   6.8441458802e+01    0.1636048    0.1267986 -32.47 0.0004380047    1.420    0.296
        42  -9.7476     12.5159      2.3392   4.8133563946e+01   7.8063124730e+01    0.2008342    0.1077315  26.11 0.0006306186    1.844    0.458
        43  -9.6143    152.1613      1.3542   3.5907012669e+02   4.5468457212e+01    0.1969751    0.1159774 -88.10 0.0005723072    1.625    0.385
        44 -11.9365     15.0155     15.7349   5.4479898507e+01   7.5278892128e+01    0.4188789    0.2747162 -17.66  0.002308889    1.574    0.365
        45 -11.1718     17.1561     10.6442   4.9660486053e+01   7.6029541929e+01    0.3430426    0.1918307 -48.20  0.001109428    1.740    0.425
        46 -10.6932     41.8053      3.7920   2.7330074169e+01   7.3182120661e+01    0.3835294    0.2164115  19.95  0.001730668    2.301    0.565
        47 -11.4379     11.9320    136.1160   8.1019011777e+01   4.5563613412e+01    0.4885434    0.2063604 -52.39  0.002076322    2.623    0.619
        48 -11.2458    248.7332    249.5224   4.1075995003e+01  -6.0686683379e+00    0.2042318    0.1763174  38.99  0.001622892    2.592    0.614
        49 -10.2959     43.4816    116.0421   6.7819800070e+01   4.7799176151e+01    0.2497296    0.2226443  77.38 0.0006108644    1.070    0.066
        50  -9.9281     79.0958    115.1214   5.4989382325e+01   4.2885144814e+01    0.2311171    0.2120234 -16.46 0.0009147584    1.234    0.190
        51 -11.6098     16.9549    100.5888   7.5862652656e+01   5.4417999902e+01    0.9684365    0.2709019  25.22  0.002718711    3.324    0.699
        52 -12.0477     25.9149    107.0796   7.3142829761e+01   5.1977690765e+01    0.7260968    0.4431161 -47.17  0.003310219    1.722    0.419
        53 -11.5190     22.4167    114.3460   7.5388580742e+01   5.0364997327e+01    0.5174301    0.2946909   0.47   0.00202062    2.390    0.582
        54 -11.5249     28.2200    113.0032   7.3052076230e+01   5.0204740154e+01      0.40761    0.2674868  39.58  0.001578187    1.511    0.338
        55 -10.2546      7.4971    114.5087   8.0903952896e+01   5.1409523558e+01     0.224258    0.2147281  77.56 0.0007766503    1.113    0.102
        56 -12.2534      2.3826    111.5646   8.2550769099e+01   5.2467506690e+01    0.8757592    0.2867275 -75.27  0.003444165    2.558    0.609
        57 -11.6610      5.5023    108.5637   8.1159308008e+01   5.3072001529e+01    0.5191844    0.2345069 -76.92   0.00135292    1.925    0.481
        58  -9.4111     67.3387    114.6560   5.8952953176e+01   4.4914562896e+01    0.1640155    0.1109554  67.64 0.0007048788    1.775    0.437
        59 -11.6974     15.4857    110.1849   7.7531765257e+01   5.2000940816e+01    0.5109804     0.357928 -39.61  0.001587115    1.611    0.379
        60 -11.1690    249.4887    112.4751   1.6993501128e+01   9.8077383584e+00    0.2643678   0.09958861 -31.65  0.001212648    2.174    0.540
        61  -9.9601     48.8836    112.1098   6.5159678339e+01   4.8172459684e+01    0.2318714    0.1867756  63.23 0.0006791966    1.259    0.206
        62 -11.6789     79.9520    108.1500   5.3105096782e+01   4.4476948892e+01    0.4046641    0.3332646  21.12 0.0009661366    1.341    0.254
        63  -9.8522    174.7344    108.0378   2.7590663991e+01   2.4572998946e+01    0.2640965     0.188924  32.59   0.00127913    1.544    0.352
        64 -10.5884     36.1825    102.6073   6.8402629212e+01   5.2157248775e+01    0.5107934    0.2815919  -4.74  0.001980459    2.940    0.660
        65  -9.8282     85.9361    103.3472   4.9870377904e+01   4.4576686646e+01    0.2186273    0.1946701  40.47 0.0004978943    1.114    0.102
        66 -11.1425     50.5809    100.7528   6.2329019213e+01   5.0923850765e+01    0.5148172    0.3430494 -23.27  0.002267319    2.049    0.512
        67 -11.7347      9.1546     97.1890   7.8655588304e+01   5.5829624991e+01    0.4340909    0.3629062  49.02 0.0004973327    1.235    0.190
        68 -12.0454    248.9081     96.8410   1.3769749282e+01   1.1961838490e+01    0.2958045    0.1867306 -14.46  0.001660947    1.711    0.415
        69 -10.5426    210.2164     98.1084   1.9083518937e+01   1.8844371249e+01    0.1973395    0.1930027  16.07  0.000436271    1.124    0.110
        70 -12.2294     67.2520     94.9409   5.4493614766e+01   4.9945964019e+01    0.4458391     0.371949  29.37  0.001114115    1.245    0.197
        71 -11.1323     30.2139     96.5502   6.9815873363e+01   5.4362695815e+01    0.3114896    0.2554184  55.86 0.0007401676    1.250    0.200
        72 -11.3728     78.9928     92.6703   4.9502319177e+01   4.8465729761e+01    0.7005208    0.4815935 -51.01  0.003188228    1.451    0.311
        73 -10.5071     16.2436     95.4222   7.5501439527e+01   5.5830589053e+01    0.3005719    0.1512628  86.86  0.001281474    2.158    0.537
        74 -12.1022    126.0175     94.5252   3.5151847460e+01   3.8148430915e+01    0.2689269    0.2583193 -46.63  9.76166e-05    1.054    0.051
        75 -10.0783    121.6265     93.2402   3.5981566199e+01   3.9419798045e+01     0.271955    0.2249268 -60.82 0.0005948511    1.301    0.231
        76 -10.3548     43.0364     94.4925   6.4087818778e+01   5.3513944488e+01    0.2815073    0.2662477 -20.61  0.000899613    1.144    0.126
        77 -10.8533     43.2400     90.9434   6.3254597065e+01   5.4415308594e+01    0.2361385    0.2054178  43.08 0.0003797597    1.183    0.155
        78  -9.8257     39.5585     89.9498   6.4613588056e+01   5.5110619193e+01     0.250477    0.1934887 -22.96 0.0006690871    1.513    0.339
        79 -11.4797     23.1300     94.4770   7.2462601532e+01   5.5547198703e+01    0.3352126    0.3015222  -6.31  0.001330145    1.257    0.204
        80 -10.3772     35.2791     92.3196   6.6919927547e+01   5.4963754266e+01    0.2910979     0.186592 -81.12  0.001200322    1.627    0.385
        81 -10.6852     49.8498     91.1721   6.0531976419e+01   5.3508698473e+01    0.4056966    0.2881182  54.73  0.001939957    1.538    0.350
        82 -10.3257     98.2372     90.9832   4.2370281474e+01   4.5060269260e+01    0.2582715    0.2175662  45.78 0.0003278908    1.170    0.145
        83 -11.5620      6.3421     88.4986   7.8901459876e+01   5.8260881694e+01    0.5670965    0.3243184  19.05  0.002860383    1.925    0.481
        84 -10.6838      9.3170     86.6796   7.7378309813e+01   5.8572049612e+01    0.2441245    0.1939865 -82.88 0.0007476071    1.137    0.120
        85 -10.3606     24.6923     86.3451   7.0450761186e+01   5.7554632719e+01    0.2850665    0.2063243  71.86 0.0009384376    1.502    0.334
        86 -10.6564     28.1354     84.5059   6.8561652379e+01   5.7726245831e+01    0.3957328    0.2242143  40.73   0.00123617    1.844    0.458
        87  -9.4322    111.4641     88.4384   3.7488132394e+01   4.2746533735e+01    0.1562898    0.1529462  54.22 0.0008063101    1.008    0.008
        88  -9.7630     67.0418     88.3263   5.2843984118e+01   5.1634499337e+01     0.209676    0.2006647  26.70 0.0005807537    1.077    0.071
        89 -10.2500     90.1694     85.6825   4.3507274538e+01   4.7950965498e+01    0.3961633    0.2459285 -63.86  0.001591978    1.983    0.496
        90 -10.4928     52.0838     87.0557   5.8612729867e+01   5.4258899129e+01    0.2190424    0.2069644 -67.03 0.0003600954    1.023    0.023
        91 -10.8323     18.6925     86.3412   7.3141772644e+01   5.8040136276e+01    0.3668249    0.2357659  -1.73  0.001811514    1.901    0.474
        92 -11.6476     44.7931     84.4041   6.1100060435e+01   5.5914137862e+01    0.4830189    0.3734462   6.67   0.00158059    1.505    0.336
        93 -10.0181     37.0645     85.5785   6.4775264431e+01   5.6531840244e+01    0.3101394    0.2111552  16.38  0.001212078    1.652    0.395
        94 -12.5244     75.8505     79.4033   4.6816070377e+01   5.2231109914e+01    0.8199098    0.5715405  71.83  0.003477764    2.016    0.504
        95 -10.1701    143.1635     84.2286   2.7846052259e+01   3.6172126402e+01    0.2154822    0.2083681   9.53 0.0004831405    1.089    0.082
        96 -10.1733    112.5372     82.7903   3.5443049594e+01   4.3709206286e+01    0.3985499    0.2204506  57.17  0.001518451    2.034    0.508
        97 -10.6334      3.3700     82.4471   7.9552476359e+01   5.9982789717e+01    0.2740936    0.2079627  67.58  0.001004949    1.336    0.252
        98 -10.3942     67.4596     81.1461   5.0649760090e+01   5.3327267244e+01     0.306552    0.2460879 -12.18  0.001479067    1.525    0.344
        99 -13.1785    247.4086     76.2822   9.4860102591e+00   1.4890760090e+01    0.5910331    0.3432285 -43.36  0.003364761    1.469    0.319
       100 -10.0390     59.9752     83.2987   5.4325878114e+01   5.4032157076e+01    0.2125629    0.2015525  31.74  0.001029861    1.081    0.075
       101 -10.7435     89.2998     77.6670   4.1306852775e+01   4.9952517267e+01    0.4495661    0.2611476  47.06  0.001302252    1.725    0.420
       102 -10.4332     94.1833     76.1899   3.9137121623e+01   4.9237935262e+01    0.3051773    0.2206626  44.08 0.0009641785    1.366    0.268
       103 -10.0022     46.6212     75.2202   5.7926542304e+01   5.8006603252e+01    0.2690999    0.1670226 -49.47 0.0009873512    1.540    0.351
       104 -11.3512     13.8780     74.6608   7.3507050547e+01   6.1423645823e+01    0.3633807    0.2767551 -87.95  0.001961483    1.290    0.225
       105 -11.1504     53.4088     76.6101   5.5262876365e+01   5.6698275799e+01    0.4236689    0.3244011 -70.33  0.002108413    1.383    0.277
       106 -10.9148     26.9774     73.1498   6.6766866935e+01   6.0777944009e+01    0.6177572    0.3436832 -11.72  0.002585028    2.559    0.609
       107 -10.6725     34.4980     71.4939   6.2682235993e+01   6.0434725648e+01    0.4097624    0.1907251  40.31  0.001686635    2.282    0.562
       108 -10.9177     39.5204     73.4836   6.0774338816e+01   5.9351342881e+01    0.4222974    0.2548086   6.51 0.0009425096    2.186    0.542
       109 -11.8656     40.9030     68.9737   5.8881289637e+01   6.0310695996e+01    0.3015649    0.2762034  37.82 0.0004517134    1.149    0.130
       110 -10.4721     58.1403     77.6530   5.3503626551e+01   5.5718005804e+01    0.2486005    0.2035774 -69.71 0.0005392647    1.279    0.218
       111  -9.1131     66.3303     74.2910   4.9022941928e+01   5.5170068171e+01    0.1532435    0.1186046 -12.40 0.0007019449    1.626    0.385
       112 -10.7993      2.0231     71.5078   7.8896798331e+01   6.2866463131e+01    0.3945614    0.1937265 -69.53  0.001888068    1.706    0.414
       113 -10.0488     80.7610     72.1266   4.2591500027e+01   5.2949234959e+01    0.3109498    0.1878461 -44.45  0.001314719    1.672    0.402
       114 -10.4907    122.3832     68.9507   2.8202766492e+01   4.4132969730e+01     0.435818    0.2218584  48.95  0.001612394    1.923    0.480
       115 -10.1523     78.1542     67.7528   4.2089377464e+01   5.4447443624e+01    0.2622579    0.1729537  82.07 0.0009551626    2.850    0.649
       116 -10.3079     13.5572     67.4698   7.2393433113e+01   6.3295861488e+01    0.3998061    0.1340511  15.56  0.001498908    3.299    0.697
       117 -12.5786      6.5138     61.3104   7.5036257719e+01   6.5266621105e+01    0.8064922    0.4647361 -37.09  0.003630448    1.736    0.424
       118 -10.6744     13.5132     57.0921   7.0287959160e+01   6.5924901244e+01    0.4083476    0.1633142 -49.56  0.001473301    2.159    0.537
       119  -9.7008     96.3373     65.6968   3.4817827087e+01   5.0978083363e+01    0.2164031    0.1630528  63.34  0.000418038    1.468    0.319
       120 -11.4492     92.8949     62.6025   3.4859793326e+01   5.2387593274e+01    0.4238437    0.2840905  56.04 0.0006585135    1.569    0.363
       121 -10.3405    105.0459     63.3440   3.1197907609e+01   4.9416312167e+01    0.2233502    0.1959207  57.06 0.0004991951    1.127    0.112
       122 -10.2315     50.7876     56.4501   4.9982463764e+01   6.1912231859e+01     0.672142     0.377377 -58.25  0.002909947    1.893    0.472
       123 -10.7020     40.5049     56.7085   5.5287288132e+01   6.3338576744e+01    0.3234086    0.2085234  31.64 0.0009736685    1.597    0.374
       124 -11.3169     43.2092     60.8616   5.5275682127e+01   6.1988248696e+01    0.4378601    0.2416888 -60.66 0.0007091492    1.834    0.455
       125 -11.6530     46.4835     59.4592   5.3169982605e+01   6.1862098122e+01    0.6579517    0.2882979  46.67  0.002429938    2.808    0.644
       126  -9.8821     84.5208     62.0351   3.7623526049e+01   5.4351775002e+01    0.2365591    0.1516927 -44.97 0.0008009782    1.583    0.368
       127  -9.9338     57.6917     62.1373   4.8744585939e+01   5.9491693607e+01    0.2356972    0.1919376 -77.65 0.0008949994    1.469    0.319
       128  -9.3986    150.7686     61.0390   1.9096856278e+01   3.8377912021e+01    0.1946843    0.1241824 -36.11 0.0004144948    1.556    0.357
       129  -9.8443    113.5067     60.9783   2.7872726709e+01   4.7811852635e+01     0.237365    0.1553666 -37.43 0.0008404991    1.574    0.365
       130 -10.8845     31.4779     53.1554   5.8993668413e+01   6.5288983358e+01    0.5060607    0.2358486  17.47  0.001977928    2.574    0.612
       131 -11.0819     25.5423     55.6144   6.3083085436e+01   6.5314817365e+01    0.4110267    0.2331956 -47.89 0.0009112136    1.605    0.377
       132 -10.0425     29.7274     59.8715   6.2002080817e+01   6.3850590942e+01    0.3906347    0.2706859 -86.30  0.001919598    1.764    0.433
       133 -10.3296     25.7954     59.5971   6.4055577045e+01   6.4310629975e+01     0.325951    0.1269192  26.10  0.001296924    2.608    0.617
       134  -9.9410    158.7307     62.8634   1.8140756419e+01   3.6075888693e+01    0.2572419    0.1854855  50.64 0.0005604707    1.425    0.298
       135 -11.7724     76.5577     53.0972   3.7223850710e+01   5.7876382983e+01     0.645698    0.3863293 -32.53  0.001271101    1.882    0.469
       136 -11.3032     72.7301     47.2425   3.6351137770e+01   5.9836440667e+01    0.6232755    0.3073992 -54.95  0.002274368    2.733    0.634
       137 -10.9403    117.5969     54.8151   2.4541176491e+01   4.7893942616e+01    0.9898881     0.463636 -61.48  0.002588661    5.161    0.806
       138 -10.5651    110.6359     41.2219   2.1205460845e+01   5.1911886785e+01    0.6871771    0.5049002  26.28  0.003180837    1.654    0.395
       139 -10.5140    122.6841     44.9405   1.9634250527e+01   4.8210092390e+01    0.2984855    0.2487333  84.84 0.0008074031    1.265    0.209
       140 -12.0651    116.9003     45.8103   2.1373252505e+01   4.9573619655e+01    0.9112543    0.6351613  10.02  0.003860344    2.119    0.528
       141 -10.5868    120.4379     40.5122   1.8493298904e+01   4.9472814202e+01    0.2611481    0.1847641  71.37 5.537397e-05    1.453    0.312
       142 -11.7646    119.1228     36.8928   1.7404714388e+01   5.0349601912e+01     0.483916     0.357081 -65.69  0.001778189    1.559    0.359
       143 -10.4442     88.1353     55.2037   3.3719157453e+01   5.4933469525e+01    0.5067582    0.1672448 -34.70  0.001433719    4.013    0.751
       144 -10.0711    157.2685     54.5417   1.5832847632e+01   3.7746657332e+01    0.3656123    0.2233866 -48.87  0.001614396    1.659    0.397
       145  -9.9308    124.6246     56.2614   2.3269106164e+01   4.5858299734e+01    0.2087704    0.1506642 -24.15 0.0008676887    1.574    0.365
       146 -10.8666     60.4129     51.5106   4.3497261396e+01   6.1374733292e+01    0.7394972     0.320343 -59.39  0.002371431    3.648    0.726
       147 -10.5513     61.5741     46.1823   4.0750565801e+01   6.2267364701e+01    0.4161993    0.2214603 -33.15  0.001681449    2.183    0.542
       148 -12.1853     43.0246     44.9596   4.9561892021e+01   6.5662187747e+01    0.6953338    0.5839795 -65.58  0.001095107    1.349    0.259
       149  -9.9473     10.8977     51.5170   7.0537316466e+01   6.7475754878e+01    0.1986797    0.1570611 -62.69 0.0004057139    1.133    0.117
       150 -11.3290    244.0154     51.2951   4.2619546777e+00   1.8627444894e+01    0.1677917    0.1427763 -56.55 0.0005107078    1.119    0.106
       151 -11.4114    155.0038     48.9061   1.4446101863e+01   3.9170642471e+01     0.297002    0.2158993 -21.74 0.0004449768    1.542    0.352
       152  -9.5579    189.3120     49.7559   9.5648327681e+00   3.0507729438e+01    0.1865901    0.1249511 -23.55 0.0003385158    1.590    0.371
       153  -9.7320    144.9861     50.0702   1.6670166896e+01   4.1593331767e+01    0.2315669    0.1801189  22.43 0.0005998301    1.628    0.386
       154  -9.7748      1.8811     48.8257   7.5445972895e+01   6.8592647595e+01    0.1697785    0.1469066  61.80 0.0008351069    1.310    0.237
       155 -10.0582     51.9766     48.4589   4.6314388713e+01   6.3495408950e+01    0.2091191     0.140235  33.55 0.0003585246    1.509    0.337
       156 -11.1859     20.8347     45.9774   6.2940604597e+01   6.8073929502e+01    0.3396473    0.2478954 -43.70 0.0008083846    1.241    0.194
       157  -9.8735     82.5563     46.9367   3.2390101677e+01   5.7763335761e+01    0.2088676     0.133645 -11.76 0.0008068338    2.450    0.592
       158 -10.4236     13.1776     46.3322   6.7823511792e+01   6.8594371752e+01     0.287452    0.1769657 -35.31  0.001353186    1.581    0.368
       159  -9.2690     55.4423     50.4415   4.5413156939e+01   6.2482295074e+01    0.1449326    0.1360135 -11.70 0.0001320269    1.035    0.034
       160 -10.9027     31.0394     44.6109   5.6266555345e+01   6.7335602900e+01    0.3343661    0.2294448  20.47  0.001738154    1.529    0.346
       161 -10.9107     26.3116     42.8205   5.8472602866e+01   6.8275993230e+01    0.3361651     0.266725  87.99  0.001041841    1.629    0.386
       162 -10.5005     23.8373     37.5300   5.8048895290e+01   6.9739702711e+01    0.4337938    0.1660752  39.08  0.001703216    2.977    0.664
       163 -10.3515    156.0180     42.4461   1.2196240401e+01   3.9830354369e+01    0.2885281    0.2215708 -33.56 0.0008724289    1.318    0.241
       164 -10.0799     57.2316     41.9073   4.0925008912e+01   6.3936126947e+01    0.2570919    0.1873383  46.02  0.001285182    1.429    0.300
       165 -10.0033     17.9226     41.1870   6.3230713748e+01   6.9456416797e+01    0.2782416    0.1281508 -41.80  0.001226991    2.049    0.512
       166 -10.0103     98.3048     41.5363   2.4822110905e+01   5.4977119891e+01    0.2670502    0.1479963  61.02  0.000606158    1.885    0.469
       167 -10.9707     78.5918     35.5055   2.8811919108e+01   6.0676416989e+01    0.7762481    0.4621736 -31.91  0.003449333    1.782    0.439
       168 -11.2604      3.9813     35.9888   7.1139605569e+01   7.1605392156e+01    0.3578592    0.3180244 -47.56  0.002346221    1.039    0.037
       169 -10.6466     60.8957     36.6468   3.6756391209e+01   6.4251104606e+01    0.3829116    0.2477766 -32.89  0.001144573    1.610    0.379
       170 -10.1235    227.4945     37.5027   2.4546801533e+00   2.3542050220e+01    0.1283708     0.105053 -50.02 0.0006610665    1.015    0.015
       171 -10.6096    153.2900     35.8977   1.0495750003e+01   4.1427701807e+01    0.2737173    0.2015127  60.66 0.0006415829    1.329    0.248
       172 -11.3508    177.6610     28.6824   4.9486478743e+00   3.6048731860e+01    0.3232659     0.201322  33.70  0.001398892    2.275    0.560
       173 -10.9209    175.1466     33.9704   6.8198325188e+00   3.6038695650e+01    0.3852729    0.2163903 -61.10  0.001062817    1.939    0.484
       174  -9.8513    219.1770    248.8117   4.5627363597e+01  -2.9303987896e+00    0.1514452   0.09164314   5.91 0.0009560442    1.331    0.249
       175 -12.5254    104.3741     32.5489   1.9302294768e+01   5.4822123362e+01    0.9158008    0.3873371  42.76 -4.437097e-05    2.667    0.625
       176 -11.9903    114.5736     24.6416   1.3516877546e+01   5.3200292547e+01    0.8336578    0.2685149  56.13    0.0023025    2.650    0.623
       177 -10.0993    217.0315     32.0363   1.9969623404e+00   2.6403142317e+01    0.1922158     0.162516 -50.62 0.0003055617    1.024    0.023
       178  -9.4731    183.6372     32.2960   5.3222149614e+00   3.4130606888e+01    0.1520529    0.0923394 -63.68 0.0007031871    1.712    0.416
       179  -9.7865    113.4660    249.4971   6.5383257034e+01   9.9255444303e+00    0.1177741   0.08759572  31.62 0.0002166332    1.012    0.012
       180 -11.5308     49.0249     30.1777   3.9474083495e+01   6.7676246258e+01    0.6024657    0.2916828  35.68  0.002031386    2.106    0.525
       181 -11.7204    158.5435     29.3833   7.5815731084e+00   4.0873004666e+01    0.5367721    0.2855883  75.52   0.00230625    1.906    0.475
       182 -11.7833    164.2807     27.6440   6.2559069190e+00   3.9586970628e+01    0.4974853    0.2870581 -57.12  0.000482645    1.795    0.443
       183 -11.7199     26.5878     28.1483   5.2132498484e+01   7.1462736653e+01    0.4836957    0.3151861 -64.95  0.002219365    1.910    0.476
       184 -10.2722     44.5906    119.8005   6.8008103854e+01   4.6683213713e+01    0.2753818    0.1442308 -77.80 0.0007170482    2.019    0.505
       185 -10.5713      7.2456     30.4651   6.7101317392e+01   7.2715992670e+01    0.3895768    0.2269077  -3.22  0.001809813    1.880    0.468
       186 -11.6571    125.6962     27.9870   1.2542850106e+01   4.9805468811e+01    0.5146676    0.3909525  80.01  0.002535288    1.314    0.239
       187  -9.4249    196.9896     28.7714   2.9498525073e+00   3.1330135356e+01    0.1694116    0.1069616  75.74 0.0006613928    1.610    0.379
       188 -10.3729    188.9622     27.1450   3.2913977129e+00   3.3439347099e+01    0.3482042    0.1746455  53.28  0.001557847    2.215    0.548
       189 -11.3822    230.7153     26.7755   3.5967344304e+02   2.4100751945e+01    0.2474665    0.2189662  81.01 0.0006878092    1.277    0.217
       190 -11.0993    183.0264     25.6336   3.4715554031e+00   3.5067539732e+01    0.3284409     0.156542 -44.43  0.001455912    1.890    0.471
       191 -11.2928    143.0120     25.2299   8.4739043191e+00   4.5492022699e+01    0.3428194    0.1571949  73.38  0.001328717    2.203    0.546
       192 -10.9059    240.5067     31.9846   1.8500014437e-01   2.1553128178e+01    0.2112782    0.1664909  51.92  0.001380704    1.616    0.381
       193 -11.1427    155.0173     22.6619   5.8585425228e+00   4.2592655995e+01    0.4539041     0.315939 -27.20  0.002282542    1.515    0.340
       194 -10.3016    170.4411     23.4114   4.1899888742e+00   3.8490413612e+01    0.3157966    0.1515214  66.11 0.0009373488    1.976    0.494
       195 -10.9861    134.2497     22.5872   8.9397824844e+00   4.8157979172e+01    0.4467655    0.2456604  75.91  0.001906157    1.828    0.453
       196 -10.5992     38.7281     22.0253   4.0966876063e+01   7.0919578339e+01     0.261443    0.2023814 -29.24 0.0006583329    1.248    0.199
       197 -11.9841    126.3132    241.3345   6.1933541391e+01   9.4762251779e+00    0.3427537    0.2008726  36.74  0.002085821    1.326    0.246
       198  -9.8837     13.9547     22.6792   5.8843500939e+01   7.3944586993e+01    0.1749679    0.1485551  -1.88 0.0003255702    1.152    0.132
       199 -11.7952    249.5125     21.4978   3.5729388979e+02   2.0957904193e+01     0.228266    0.1937653  17.58  0.001584168    1.671    0.402
       200 -10.0452    223.9520     22.1491   3.5905042759e+02   2.6022367970e+01    0.1978977    0.1352543 -58.52 0.0004498804    1.270    0.213
       201 -11.2284    178.9652     20.7609   2.4729026306e+00   3.6626186384e+01    0.5656698    0.2219681  49.37  0.002121488    3.125    0.680
       202 -10.8944    131.6654    240.8321   6.0787813854e+01   8.8463739454e+00    0.2168674    0.1290257  25.47 0.0008266927    1.377    0.274
       203 -10.1824      5.2640     22.3494   6.5740839774e+01   7.4664252046e+01    0.2183238    0.1788094  15.35  0.001391616    1.319    0.242
       204 -10.6227      8.8650     19.8654   6.1702313250e+01   7.4962387681e+01    0.3115097    0.1616341 -23.65  0.000256026    2.114    0.527
       205 -11.2740     67.4716    240.9931   7.4219408654e+01   1.6962345721e+01    0.2604192    0.1510538  23.94  0.001039442    1.669    0.401
       206 -11.4449     73.9133    238.7713   7.2691200543e+01   1.6571416231e+01    0.5595592    0.1850248  37.68   0.00267519    2.092    0.522
       207 -10.8127     68.2967     19.4517   2.4698935807e+01   6.5482914299e+01     0.339214    0.3165653 -77.45  0.001973814    1.269    0.212
       208 -10.2848    216.5050     20.0170   3.5905813269e+02   2.7861329887e+01    0.1887396     0.156299 -73.51 0.0004957624    1.124    0.111
       209 -11.6397    146.5712    237.9129   5.7444288892e+01   7.2951970481e+00    0.4070969    0.2765708  47.23  0.002574775    1.653    0.395
       210  -9.5173     46.4180     20.1996   3.5425938033e+01   6.9896921406e+01      0.18223    0.1277938 -46.48 0.0006356415    1.605    0.377
       211  -9.6374     74.6057     19.2947   2.2229834653e+01   6.4044156089e+01    0.1874305    0.1360981  -9.93 0.0006838402    1.574    0.365
       212 -10.5879    167.3823    238.2330   5.3417116222e+01   4.5201201534e+00     0.128348    0.1114607 -40.14  0.000766861    1.594    0.373
       213  -9.8354    243.9647    235.7511   3.9840488554e+01  -4.2704191829e+00     0.129746   0.06812417  24.41 0.0007352217    1.564    0.361
       214  -9.5945     15.4156    233.7822   8.4785180039e+01   2.3771733431e+01    0.1322036   0.09634532 -76.05 0.0009434791    1.642    0.391
       215 -10.6366    127.4871     16.4352   7.7409882971e+00   5.0671192683e+01    0.4094453    0.2080351  56.02  0.001086978    1.813    0.449
       216 -10.3200    122.6711    232.4828   6.1709724022e+01   1.1312165578e+01    0.1761547    0.1156036 -53.23 0.0008715503    1.958    0.489
       217  -9.7718    248.5294    223.9790   3.7391147939e+01  -3.5666583180e+00    0.1495516    0.0681058 -10.21 0.0008091826    2.485    0.598
       218 -10.4580    211.0588     16.0234   3.5844869079e+02   2.9494429792e+01    0.1914542    0.1592741 -54.99 0.0003189298    1.023    0.023
       219 -11.2930    238.0495     16.2936   3.5679546393e+02   2.3733681929e+01    0.1707076    0.1342866 -61.01 0.0006312689    1.093    0.085
       220  -9.5504     75.3313    224.3275   7.1221691199e+01   1.8941520512e+01    0.1150682    0.0909576  -4.50 0.0006619413    1.712    0.416
       221 -11.1637    186.6447     14.9809   8.4920939253e-02   3.5340736310e+01    0.2515121    0.1820391 -84.05   0.00064255    1.304    0.233
       222  -9.4514    164.4858    211.5210   5.0272621900e+01   8.6660037491e+00      0.12566    0.1012287  19.46 0.0002789455    1.019    0.019
       223 -10.0597    152.1680    206.3280   5.2043773548e+01   1.1278453207e+01    0.2372572    0.1599859 -78.29  0.001084309    3.490    0.713
       224  -9.9906     79.2471    205.4909   6.8564730196e+01   2.2012617268e+01    0.2591041    0.1559697  86.12  0.001305901    2.252    0.556
       225  -9.2371    135.3130    196.6993   5.4283837158e+01   1.5472541897e+01     0.128964   0.09615763  56.32 0.0002690673    1.609    0.378
       226  -9.9627    121.1320     11.5721   6.8849423217e+00   5.2893031844e+01    0.2935321    0.1354211  75.07  0.001155897    2.136    0.532
       227 -12.0287      4.7706    184.1624   8.5499885869e+01   3.4697850459e+01    0.5229186     0.299189  66.87  0.003040948    1.464    0.317
       228  -9.3787    175.7638    180.0099   4.2815411486e+01   1.1864866083e+01    0.1621553    0.1063645 -36.53 0.0008722543    1.592    0.372
       229  -9.5016     39.3310    173.6610   7.5824380426e+01   3.3832167406e+01    0.1482271   0.07979971  57.99 0.0007051829    1.741    0.426
       230 -11.5375      9.2034    166.9384   8.3628197796e+01   3.8255876882e+01    0.2238552     0.211841  51.40 0.0008896185    1.208    0.172
       231 -12.6088     13.4101    159.8045   8.2082540997e+01   3.9604953109e+01    0.6374614    0.2992053 -62.28  0.002615961    2.201    0.546
       232 -10.3940    205.1463    163.4197   3.4105154815e+01   9.7202407276e+00    0.2344018    0.1715431 -33.41 0.0007254622    1.356    0.263
       233 -10.0224     28.5210    160.4974   7.7794481917e+01   3.8078224080e+01    0.1334872    0.1141982  64.95 2.461068e-05    1.003    0.003
       234 -10.1053    104.1548    154.6887   5.5179526456e+01   2.9080343205e+01    0.2518274    0.2086575 -77.13  0.001322981    1.374    0.272
       235 -12.4748     22.4693    148.9661   7.8681199578e+01   4.1473798704e+01    0.6325515    0.3303601 -42.19  0.002822369    2.590    0.614
       236 -10.9693     16.7871    148.0139   8.0339648832e+01   4.2200998921e+01     0.301771    0.2053221 -85.33 0.0009154224    1.355    0.262
       237  -9.9808      4.5279    153.5188   8.4296317696e+01   4.1797707202e+01    0.1295579    0.1045624  67.12 -1.854888e-06    1.031    0.030
       238  -9.4968     55.4772    152.5188   6.8983941698e+01   3.6989933595e+01    0.1399671    0.1286691  62.54 0.0001447809    1.033    0.032
       239 -11.4447     47.2223    147.2787   7.0871045045e+01   3.9312171586e+01    0.5169106    0.3799306 -52.26  0.002270472    1.500    0.333
       240 -11.9760      4.1027    142.6594   8.3878929328e+01   4.4479904139e+01    0.7319449    0.2620597  48.18  0.002800759    2.409    0.585
       241  -9.8098    104.0607    147.3008   5.3856858162e+01   3.0770979193e+01    0.2094439    0.1785519  39.38 0.0002897672    1.097    0.089
       242 -10.7897     33.1212    144.3855   7.4969033148e+01   4.1600427039e+01     0.270823     0.227895  65.44 0.0008384363    1.064    0.061
       243 -11.3767     80.5197    138.6385   5.9191760527e+01   3.6805774934e+01     0.268377    0.2469553  46.31 0.0001884193    1.043    0.041
       244 -10.3005     40.7783    138.0927   7.1818773803e+01   4.2381391882e+01    0.2244499     0.172379  66.77 0.0007198078    1.241    0.194
       245 -11.7292     24.0347    136.6909   7.7139441659e+01   4.4425667412e+01    0.3946671    0.2968648 -13.66  0.001591122    1.748    0.428
       246 -10.1064     20.7737    134.1847   7.7981777811e+01   4.5351118264e+01    0.2607342    0.2496313 -10.88  0.001169597    1.249    0.199
       247 -11.4202     30.2213    132.5679   7.4678087968e+01   4.4905162076e+01    0.3268974    0.2732375 -35.23 0.0009543885    1.424    0.298
       248 -10.0829     26.1572    131.5952   7.5941072729e+01   4.5540471954e+01    0.2311416    0.1787161 -65.63 0.0004416111    1.280    0.219
       249  -9.9092     73.3991    132.8227   6.0394103521e+01   3.9369847849e+01    0.2131459    0.1329054 -50.99 0.0006995178    1.683    0.406
       250 -11.0784     10.3246    126.6568   8.0858713261e+01   4.8088961272e+01    0.2519849    0.2071944 -83.14  0.001341323    1.111    0.100
       251  -9.4172     22.9753    126.7511   7.6532962120e+01   4.7077240510e+01     0.159496     0.115481  24.99 0.0003019836    1.470    0.320
       252 -11.0816    104.4624    122.4749   4.8581602727e+01   3.6461415704e+01    0.3117218     0.307109 -59.99 0.0008290197    1.051    0.048
       253  -9.7451     49.9822    122.5346   6.6522992839e+01   4.5309767334e+01    0.2017493    0.1263048  -9.72 0.0008093918    2.585    0.613
