#   1 NUMBER                 Running object number                                     
#   2 MAG_AUTO               Kron-like elliptical aperture magnitude                    [mag]
#   3 X_IMAGE                Object position along x                                    [pixel]
#   4 Y_IMAGE                Object position along y                                    [pixel]
#   5 X_WORLD                Barycenter position along world x axis                     [deg]
#   6 Y_WORLD                Barycenter position along world y axis                     [deg]
#   7 A_WORLD                Profile RMS along major axis (world units)                 [deg]
#   8 B_WORLD                Profile RMS along minor axis (world units)                 [deg]
#   9 THETA_WORLD            Position angle (CCW/world-x)                               [deg]
#  10 FWHM_WORLD             FWHM assuming a gaussian core                              [deg]
#  11 ELONGATION             A_IMAGE/B_IMAGE                                           
#  12 ELLIPTICITY            1 - B_IMAGE/A_IMAGE                                       
         1  -8.4112    119.4132     33.2562   4.7313049696e+01   5.0448628181e+01    0.1755683    0.1219811 -45.24 0.0005960906    1.618    0.382
         2  -8.4867     19.4412     21.2553   7.8188872586e+01   7.0297645886e+01    0.1470551    0.1054128 -41.23 0.0006030178    1.615    0.381
         3  -8.3729     55.7934     10.0140   5.6177692493e+01   6.6240351238e+01    0.1631764    0.1535261  23.01 0.0005492232    1.277    0.217
         4  -9.0599      6.2578      8.8024   7.9860322075e+01   7.3418569646e+01    0.1932233    0.1346634  35.98  0.001006868    1.962    0.490
         5  -8.3629     90.5461      8.5157   4.5184363747e+01   5.9413239400e+01    0.1229398     0.105492  52.59 6.606751e-05    1.064    0.060
         6  -7.8694     65.0230      7.2201   5.1748034772e+01   6.4767174132e+01    0.1647845   0.08376037  51.00 0.0008698734    1.666    0.400
         7  -8.6171     33.4989      4.9843   6.2977264671e+01   7.0466380770e+01     0.261855    0.1739289 -48.15  0.001499906    2.711    0.631
         8  -8.2708     79.2187      4.0527   4.6272725106e+01   6.2175339134e+01    0.1751424    0.1270217 -50.75  0.001055942    1.888    0.470
         9  -7.7577     44.7022      3.2939   5.7241304362e+01   6.8822026990e+01   0.09679621   0.09291629  67.01 0.0001977816    1.565    0.361
        10  -7.9427     15.6342      3.2068   7.1310201416e+01   7.3109162117e+01    0.1513212   0.08657629 -18.67 0.0005463854    1.630    0.386
        11  -8.1089     62.3271      1.3603   4.9998635003e+01   6.5775491004e+01    0.1544596   0.09982978  58.84 0.0003980966    1.551    0.355
        12  -8.8176    156.0869    248.0215   8.9087606330e+01   7.5697728198e-02    0.1885897    0.1508986  58.88   0.00056545    1.661    0.398
        13  -9.2526    233.3493    245.6151   7.3453599115e+01  -9.6647721185e+00    0.4851422    0.2157969 -23.90  0.002365994    2.374    0.579
        14  -8.7901    132.1064    247.7088   9.4212952902e+01   3.6160224415e+00    0.2777629    0.1999553  68.12  0.001007834    1.954    0.488
        15  -8.9406     26.2634    250.4061   1.1706160460e+02   1.7078987800e+01    0.2148299    0.1094261  27.44  0.001137557    2.174    0.540
        16  -9.2714     34.3584    247.7151   1.1526216167e+02   1.6736320735e+01     0.227359    0.1121059  45.18 0.0008694843    1.660    0.398
        17  -9.3313     21.4965    247.8222   1.1784811026e+02   1.8119436875e+01    0.2062439    0.1405203  44.32 0.0005270065    1.301    0.231
        18  -9.0969    243.0482    246.1747   7.1835862356e+01  -1.0823752675e+01    0.3093621    0.1508937 -27.43  0.001749394    1.795    0.443
        19  -9.9725    223.7761    243.8270   7.4898333852e+01  -8.2882339755e+00    0.4559547    0.2054007 -46.15  0.002214569    2.730    0.634
        20  -9.1678    210.9791    246.4901   7.7729500086e+01  -7.1180264114e+00    0.2053206    0.1638583 -45.91  0.000918038    1.687    0.407
        21  -9.2637    146.8753    245.6142   9.0713990403e+01   1.8383333938e+00    0.2661439     0.194294 -51.73 0.0009058078    1.597    0.374
        22  -9.3174    120.3200    245.6566   9.6526855266e+01   5.7283769947e+00    0.3791015    0.2377941  68.48  0.001778344    2.474    0.596
        23  -8.2480     76.2317    247.3783   1.0641020719e+02   1.1616522071e+01    0.1901065   0.09736399  42.94  0.000947404    1.649    0.393
        24  -9.1315     68.1716    245.7687   1.0799854293e+02   1.3013526777e+01    0.3752379    0.1925544  75.83  0.001653958    2.757    0.637
        25  -9.8948     58.4128    245.6371   1.1008269362e+02   1.4293325334e+01    0.3211481     0.171958 -69.27  0.001688662    1.964    0.491
        26  -8.3571     88.9676    247.0000   1.0359522028e+02   9.9547216002e+00    0.2171311   0.06530006  33.28 0.0008004937    2.929    0.659
        27  -8.8872     49.9215    244.0324   1.1175325215e+02   1.5679696998e+01    0.3199471    0.1465265 -89.52   0.00141183    2.805    0.644
        28  -8.5111    169.0531    243.3106   8.5639780503e+01  -9.6688602847e-01    0.1993726    0.1823112  73.92 0.0006022595    1.565    0.361
        29  -9.1172     77.8336    243.0578   1.0562346435e+02   1.2288442518e+01    0.3510573    0.1741292  59.85   0.00156579    2.377    0.579
        30  -8.8376     45.7204    244.4189   1.1267077524e+02   1.6104446477e+01    0.2321972   0.09529499  38.51 0.0008043922    2.031    0.508
        31  -8.7560      9.5189    244.0679   1.1998780724e+02   2.0117191647e+01    0.1721234   0.09820537 -85.72 0.0009154182    1.584    0.369
        32  -8.3074    201.8408    243.0740   7.8941396376e+01  -5.4262557814e+00    0.2284275    0.1632126 -43.73 0.0007900684    1.640    0.390
        33  -8.9719    202.6550    239.0686   7.8127947041e+01  -4.9007295428e+00     0.230124    0.1828936   6.82 0.0005228004    1.064    0.061
        34  -9.1610    203.1398    234.7422   7.7315187379e+01  -4.2707938767e+00    0.2672708    0.1937187 -58.58  0.001133579    2.193    0.544
        35  -9.2689    194.4026    240.2071   7.9946433416e+01  -3.9802769388e+00    0.3161677    0.2086414 -58.67  0.001227367    2.475    0.596
        36  -9.5666    182.4415    240.6216   8.2436264517e+01  -2.4031682439e+00    0.4808094     0.323467  30.14  0.001902395    1.368    0.269
        37  -9.4373    160.0570    240.1726   8.7067679592e+01   8.8570605322e-01    0.3427284    0.2471552 -73.78  0.001425501    2.327    0.570
        38  -8.6083    146.4357    239.4994   8.9919423100e+01   3.0238340062e+00    0.2467605    0.1697157  63.46 0.0008860721    2.199    0.545
        39  -8.0842     88.3282    242.1796   1.0320717829e+02   1.1024242046e+01    0.1766349    0.1182862 -82.87 0.0008678527    1.792    0.442
        40  -9.1988     29.6445    241.2174   1.1578325517e+02   1.8623079872e+01    0.2222293    0.1648369  35.82 0.0008027538    1.381    0.276
        41  -8.2773     36.9919    240.5134   1.1420577588e+02   1.7949594069e+01    0.1833572    0.1060534  38.08  0.001021071    1.563    0.360
        42  -9.2058      3.3129    240.0566   1.2099036000e+02   2.1550240658e+01    0.2062681    0.1360825  52.43 0.0004433136    1.262    0.207
        43  -8.8251    170.1720    236.9976   8.4417245569e+01  -2.8268199019e-02    0.4550735    0.1294522 -45.09  0.001656676    3.631    0.725
        44  -8.6019    135.4502    238.4995   9.2198031643e+01   4.8574384602e+00    0.1957383    0.1338682 -69.16 0.0005935205    2.001    0.500
        45  -8.7029    125.3249    239.2209   9.4557173002e+01   6.2353336400e+00    0.3373749    0.1064855  32.87 0.0009902102    2.892    0.654
        46  -9.0940     52.8102    238.6244   1.1067763003e+02   1.6473560802e+01    0.2543017    0.1486716  57.63 0.0008219686    1.578    0.366
        47  -7.9224    208.9839    238.1679   7.6750277832e+01  -5.5865643593e+00    0.1596039    0.1319968 -46.06 0.0004703871    1.600    0.375
        48  -8.4165     83.5797    238.6734   1.0387943917e+02   1.2415228879e+01    0.2281813    0.1092377  34.42 0.0008390929    1.870    0.465
        49  -9.2282     71.5634    238.2621   1.0652027326e+02   1.4139590411e+01     0.292117     0.161094  30.85 0.0008582816    1.764    0.433
        50  -8.1773     19.3621    237.5269   1.1765277789e+02   2.0505933372e+01    0.1963672    0.1006075 -79.03 0.0008363103    1.829    0.453
        51  -8.7894    230.7435    236.6630   7.2439837887e+01  -8.0646269889e+00    0.2179178    0.1480925 -42.45 0.0007040031    1.704    0.413
        52  -8.3366     58.0136    237.2007   1.0941419326e+02   1.6129405214e+01    0.1760306   0.09182785  34.03 0.0008690772    1.779    0.438
        53  -9.1160    241.3617    238.5066   7.0864966029e+01  -9.5633225978e+00    0.4910894    0.1967141 -20.90  0.001972372    3.665    0.727
        54  -8.2252     13.9941    238.0000   1.1876880265e+02   2.0950237878e+01    0.1816029   0.06122594  29.90 0.0008020646    2.940    0.660
        55  -9.2915    247.7165    234.4077   6.9083518395e+01  -9.6896539895e+00    0.2360073    0.2039036 -21.38   0.00141795    1.393    0.282
        56  -9.1994    246.7135    228.6392   6.8277537926e+01  -8.7448523624e+00    0.4207376    0.1533423 -39.73  0.001462983    2.451    0.592
        57  -9.0123    216.6925    235.3582   7.4812345372e+01  -6.1373213494e+00    0.1997128    0.1832203 -36.10  0.001228812    1.494    0.331
        58  -9.3306    213.6865    231.6908   7.4762060849e+01  -5.1748313147e+00    0.2818835    0.2520164 -84.47  0.001454532    2.047    0.511
        59  -9.9132    175.1381    232.5564   8.2653373623e+01   3.2711644521e-02    0.5262943    0.3697492 -68.79  0.002628008    2.465    0.594
        60  -9.3916    108.6496    234.3906   9.7680014612e+01   9.6968184816e+00    0.3418578    0.2352704  63.37  0.001185633    1.718    0.418
        61  -8.8504     78.7057    234.2322   1.0449066348e+02   1.4033821002e+01    0.2903846    0.1679996 -89.32  0.001352372    2.282    0.562
        62  -8.0869    122.7924    233.9779   9.4402339434e+01   7.6571870578e+00    0.2112304    0.1507614  75.92 0.0008148431    2.002    0.500
        63  -8.3297     99.7273    234.3550   9.9713853459e+01   1.1019533857e+01    0.2224265    0.1401663  60.94  0.001087068    1.837    0.456
        64  -8.8947     93.6950    232.9344   1.0091998935e+02   1.2195886851e+01    0.4647874    0.2476568  67.66  0.001869934    2.959    0.662
        65  -9.9409     68.5260    232.5271   1.0661529258e+02   1.5780873258e+01    0.5154212    0.2290739  61.95  0.002006739    3.060    0.673
        66  -8.4284      7.2588    234.6126   1.1993120137e+02   2.2331938105e+01    0.1438366    0.1105238  22.84 0.0007699532    1.652    0.395
        67  -8.3429    194.3195    232.4522   7.8683745546e+01  -2.6892905301e+00    0.1838114    0.1551871 -57.76 0.0004352341    1.687    0.407
        68  -8.4284    132.8371    233.0885   9.2001109243e+01   6.3072018756e+00    0.2112975    0.1790963  58.67   0.00122906    1.332    0.250
        69  -9.4859    186.3257    230.3452   7.9957269092e+01  -1.2008672492e+00    0.2944711    0.2343511 -69.68  0.001200164    2.048    0.512
        70  -9.0508    235.9588    230.1600   7.0406567864e+01  -7.7171757656e+00    0.3555959    0.1375004 -39.90  0.001523686    2.369    0.578
        71  -8.3160      1.4973    230.9980   1.2089362485e+02   2.3646053285e+01    0.1779015   0.09737079 -86.63 0.0004950682    1.587    0.370
        72  -9.1218    151.4848    228.9924   8.7200648105e+01   4.2471034797e+00    0.3164576    0.2395462  88.27   0.00121865    2.196    0.545
        73  -9.6735    148.6286    224.4588   8.7117759088e+01   5.5726012479e+00    0.3889787    0.3430026   8.03  0.001502055    1.070    0.066
        74  -8.9652    140.2285    230.1124   8.9891379319e+01   5.7613083737e+00    0.2517995    0.1606659  54.89 0.0009084041    1.975    0.494
        75  -9.4156     59.2389    227.5941   1.0822539689e+02   1.8083445612e+01    0.2500724    0.1094254  37.00 0.0007742792    2.021    0.505
        76  -8.8878    127.9062    227.2115   9.2260737365e+01   8.2490505768e+00     0.314447    0.2350016 -70.40  0.001134375    1.664    0.399
        77  -8.3247     32.4869    229.6631   1.1435381230e+02   2.0817233752e+01        0.199    0.1080328  32.63 0.0007393066    1.819    0.450
        78  -7.8881    229.5104    228.5111   7.1278859120e+01  -6.6853651176e+00    0.1228572   0.09860002 -10.08 2.567925e-05    1.050    0.048
        79  -8.9173    161.9376    227.7962   8.4708290002e+01   2.8745268217e+00    0.2519724    0.2235023  80.35  0.001479766    1.573    0.364
        80  -8.2424    120.0018    227.3230   9.4100706915e+01   9.4464687286e+00    0.2642555    0.1712384  85.37  0.001146971    2.639    0.621
        81  -9.2098     48.8877    227.5400   1.1056123198e+02   1.9386613257e+01    0.2980125     0.237218  33.08  0.001672964    1.322    0.243
        82  -8.6970    205.9454    225.6709   7.5223083121e+01  -3.1607961230e+00    0.2337419    0.1668265 -53.90 0.0007584389    1.936    0.483
        83  -8.1210    200.1618    226.2159   7.6456611577e+01  -2.4524201056e+00     0.159755    0.1508695 -29.26   0.00049028    1.346    0.257
        84  -9.0986    179.9665    224.7326   8.0333457148e+01   7.2132833134e-01    0.3343822    0.2315193 -18.81  0.001220195    1.510    0.338
        85  -8.8136    105.0459    223.8762   9.7111640104e+01   1.2464914645e+01    0.3122644    0.2042355  80.84  0.001430201    2.222    0.550
        86  -8.9023     93.7459    223.5525   9.9734440085e+01   1.4223205565e+01    0.3310456     0.206118  87.45  0.001399346    2.267    0.559
        87  -7.8664      6.0590    225.5063   1.1967211973e+02   2.4427663455e+01    0.1629936    0.1075189  37.58 0.0004294177    1.515    0.340
        88  -8.7184    216.4730    223.4672   7.2816802732e+01  -4.2183257137e+00    0.2361839    0.1978832 -53.83 0.0009500278    1.706    0.414
        89  -8.0448    113.6091    223.8158   9.5089806236e+01   1.1170729277e+01    0.1785577    0.1342846 -75.94 0.0004583776    1.600    0.375
        90  -7.6817     38.3016    224.6600   1.1267969935e+02   2.1284202557e+01    0.1388499   0.07998859  64.46  0.000703762    1.671    0.401
        91  -8.4283    173.0449    222.8272   8.1479313667e+01   2.1114100528e+00     0.227248    0.1760017 -60.25  0.001004245    1.707    0.414
        92  -9.6938    139.2785    222.4087   8.8914674093e+01   7.4521156447e+00    0.2518735    0.2336812  43.73 0.0002040386    1.133    0.118
        93  -8.4842     59.5040    223.0816   1.0771167208e+02   1.9067862631e+01    0.1937219    0.1253152 -75.77  0.001020812    1.566    0.361
        94  -9.1019    238.9370    221.4422   6.8377615678e+01  -6.7534560197e+00    0.2057584    0.1532495 -40.07 0.0005650828    1.486    0.327
        95  -9.2114    225.4417    221.6106   7.0822334563e+01  -5.0920756452e+00    0.1977422     0.187718  54.72 0.0006694097    1.668    0.401
        96  -9.2135    192.3512    221.2408   7.7166861299e+01  -4.7887324777e-01    0.2805837    0.2456181 -72.58  0.001137147    1.739    0.425
        97  -9.3622    160.1684    221.1517   8.4001455849e+01   4.4156191927e+00    0.4961106     0.250656  52.76  0.001902542    3.129    0.680
        98  -8.4149     72.9767    220.6993   1.0429933457e+02   1.7821963876e+01    0.2453093    0.1205887  70.84 0.0008919925    3.317    0.699
        99  -8.9058     55.0018    221.1723   1.0856232723e+02   2.0076153444e+01    0.2208672    0.1702787  34.31 0.0006429019    1.318    0.241
       100  -8.2975    202.5358    220.0153   7.4906520083e+01  -1.7284853512e+00    0.1916825    0.1186531 -38.98  0.000523552    1.558    0.358
       101  -9.2293    132.1846    215.2567   8.9424730413e+01   1.0071995003e+01    0.4932934    0.3347785 -87.01  0.002173954    2.457    0.593
       102  -9.3434    120.2140    219.0517   9.2837394503e+01   1.1165440607e+01    0.4369769    0.2546767  62.28  0.001799093    2.567    0.610
       103  -7.6288     43.6959    220.3045   1.1108390282e+02   2.1652213308e+01    0.1381508   0.08350295  63.34 0.0002150985    1.598    0.374
       104  -8.0017     18.5102    220.5626   1.1672571518e+02   2.4337162517e+01    0.1285602   0.09809871  69.10 0.0001314618    1.089    0.082
       105  -8.9861    249.0476    218.3391   6.6104723687e+01  -7.4860675175e+00    0.2655395    0.2256764 -77.08  0.001633582    2.524    0.604
       106  -8.2882    210.2408    219.2023   7.3257580368e+01  -2.6678815987e+00    0.1608911    0.1454628 -38.10 0.0004815489    1.373    0.272
       107  -7.9516     98.6690    219.2516   9.7995308567e+01   1.4445891829e+01    0.1423571   0.09741104  57.59 0.0001856462    1.554    0.357
       108  -8.7860     62.4444    217.6141   1.0644827076e+02   1.9943032048e+01     0.342651    0.1867312  71.46  0.001501064    2.296    0.564
       109  -7.7245      1.4966    219.4121   1.2027877225e+02   2.6196035506e+01    0.1205242   0.09459183  73.87 0.0001232982    1.016    0.016
       110  -9.0316     82.9302    220.5107   1.0191544002e+02   1.6472209960e+01    0.3471567    0.1932435  57.08   0.00125756    1.976    0.494
       111  -8.8157    143.1814    216.7681   8.7110442279e+01   7.9868920211e+00    0.3028674    0.2282727 -86.45  0.001486746    2.010    0.502
       112  -8.9958     51.4353    217.3466   1.0901323726e+02   2.1403837110e+01    0.3099302    0.1990211  78.92  0.001200275    1.619    0.382
       113  -8.5184    108.0007    217.2235   9.5476311212e+01   1.3472396183e+01    0.1888984    0.1089632  34.27 0.0005223496    1.620    0.383
       114 -10.3055     72.8638    212.1535   1.0331718917e+02   1.9817093635e+01    0.8206415    0.3687129  53.94  0.003254798    2.521    0.603
       115  -8.6838    232.3054    214.7923   6.8375466835e+01  -4.8841246227e+00     0.217464    0.1792225 -46.52 0.0009212326    1.566    0.361
       116  -8.0677    154.4946    215.0087   8.4234518381e+01   6.5285609468e+00    0.1818174    0.1287448 -81.08 0.0008093764    2.456    0.593
       117  -8.0472     87.1348    215.1269   1.0022313446e+02   1.7093322462e+01     0.197725    0.1495427  57.93  0.000478712    1.309    0.236
       118  -8.1478     12.9453    215.5176   1.1759676908e+02   2.6032419829e+01    0.1693129    0.1129786  36.93 0.0004582206    1.516    0.340
       119  -8.4007    185.4621    214.3107   7.7367716976e+01   1.7995077322e+00    0.2130982    0.1619319  50.52 0.0007809434    1.704    0.413
       120  -9.1685     92.8989    213.7776   9.8642842951e+01   1.6550871289e+01     0.326936    0.1803582  59.94  0.001051789    2.281    0.562
       121  -9.3773    213.7743    212.0054   7.1292505361e+01  -1.9375704153e+00    0.3136972    0.2495435  51.13  0.001833411    1.821    0.451
       122  -8.2818     33.5296    213.5752   1.1282584581e+02   2.4375085504e+01    0.1299684    0.1096356  72.73 3.235541e-05    1.011    0.011
       123  -9.4571    175.6547    210.0983   7.8696504746e+01   4.1186530935e+00    0.4016238     0.286318  68.69  0.001833761    2.567    0.610
       124  -8.5091    161.7710    212.1603   8.2109216026e+01   5.9304752762e+00    0.2037863     0.192454  67.44 0.0008824142    1.308    0.235
       125  -7.7930    106.4599    212.5294   9.5164941349e+01   1.4762486701e+01    0.1419504    0.1316416  50.56 0.0002007846    1.032    0.031
       126  -8.7689    204.2728    210.7707   7.2909987780e+01  -3.6583191488e-01    0.2237776     0.190151 -51.56 0.0007544046    1.491    0.329
       127  -8.9158    147.7409    210.6280   8.5029867957e+01   8.5206236796e+00    0.2761913    0.2370061 -44.23  0.001065756    1.221    0.181
       128  -8.8694    116.3456    210.2542   9.2418737396e+01   1.3711525148e+01    0.3374293    0.2136233  72.38 0.0008814205    2.518    0.603
       129  -7.9569      3.7944    211.6264   1.1934076730e+02   2.7762038533e+01    0.1625047   0.09419341  45.68 0.0004090226    1.577    0.366
       130  -8.2757    192.1959    210.2052   7.5235341750e+01   1.5323731967e+00    0.1722698    0.1633351 -61.77 0.0006758466    1.401    0.286
       131  -8.2583     98.3877    209.7549   9.6735917953e+01   1.6645660699e+01    0.2295136    0.1554352  49.71 0.0007300118    1.458    0.314
       132  -9.1615     99.4327    206.1657   9.5953996522e+01   1.7317834918e+01    0.3891426     0.248965  72.86  0.001248956    2.175    0.540
       133  -8.6881     85.3104    209.0864   9.9869442631e+01   1.8765084120e+01    0.3696581    0.2171242  78.48  0.001439265    2.510    0.602
       134  -9.0504    236.4971    208.1044   6.6435674735e+01  -4.3473522467e+00    0.2656664    0.1994085 -56.71  0.001113884    2.006    0.502
       135  -8.7789    169.2157    215.8709   8.1113036175e+01   4.0195675440e+00    0.2869872    0.2212214 -72.88 0.0009369971    1.971    0.493
       136  -9.5716    246.4991    207.0452   6.4533560534e+01  -5.4410843611e+00      0.28872     0.177249 -36.10 0.0007495813    1.390    0.281
       137  -9.1952    137.8592    208.1489   8.6916695495e+01   1.0669308473e+01    0.4841273    0.1883391  33.31  0.001304877    2.521    0.603
       138  -9.9937    124.2343    206.1958   8.9855701329e+01   1.3340669618e+01    0.3069022    0.2257576  66.01  0.001482114    1.713    0.416
       139  -8.3309     25.4105    207.3813   1.1418571859e+02   2.6702194463e+01    0.3161533    0.1161328 -81.49  0.001250136    2.835    0.647
       140  -9.8880     78.8277    205.8725   1.0105160220e+02   2.0466872699e+01    0.5087168    0.1692373  35.55  0.001419826    2.719    0.632
       141  -9.5614    194.9122    203.3300   7.3416656658e+01   2.3883950482e+00    0.3939233    0.2532007 -41.50  0.001396538    1.503    0.335
       142  -9.3310    192.6438    197.4466   7.2774932368e+01   3.8522897762e+00    0.3315832    0.2624435 -61.62  0.000880125    1.680    0.405
       143  -9.0109    183.6513    203.8596   7.5851402296e+01   4.0528848731e+00    0.2812139    0.2190935  56.84  0.001073131    1.757    0.431
       144  -9.5857    163.8559    202.9236   7.9993722953e+01   7.4563748797e+00     0.401024    0.2752739  55.94  0.001199181    1.945    0.486
       145  -8.7478    131.0214    203.8606   8.7823607360e+01   1.2739293057e+01     0.296014    0.2361989  79.62  0.001194817    1.636    0.389
       146  -9.5180    250.1177    202.0851   6.3040913815e+01  -5.1065807834e+00    0.3236511    0.1480008 -39.55  0.001051416    1.848    0.459
       147  -8.9530    140.7111    201.3764   8.5070980940e+01   1.1662679167e+01    0.4337697    0.2903507  85.51  0.001441673    2.897    0.655
       148  -9.2247     12.1563    202.9576   1.1690496086e+02   2.9041629867e+01    0.2944432    0.1379582  42.47   0.00105164    1.961    0.490
       149  -9.0654    242.9939    200.7021   6.3975539827e+01  -3.9870231470e+00    0.2707897    0.1548292 -38.51 0.0008634854    1.508    0.337
       150  -8.5313    211.0243    202.0056   6.9982406696e+01   2.0108309663e-01    0.1862583    0.1684468 -81.00 0.0006423162    1.691    0.409
       151  -8.5123     56.2925    205.1471   1.0655929406e+02   2.3691480319e+01    0.2711034    0.1436511  57.23 0.0008543945    1.999    0.500
       152  -8.2567     48.4637    201.9916   1.0814435958e+02   2.5428279585e+01    0.2024416    0.1030007  79.11  0.000808836    2.576    0.612
       153  -7.9033    222.2079    201.2448   6.7739302717e+01  -1.2752111804e+00     0.196407   0.09307213 -48.69 0.0004920822    2.407    0.585
       154  -8.7258     79.6626    200.7099   1.0014735802e+02   2.1589587816e+01    0.2955388    0.1808325  69.17  0.001247448    2.060    0.515
       155  -9.3081    149.5240    198.5251   8.2478517957e+01   1.0788183832e+01    0.4381421    0.3083584 -82.95  0.001342652    2.392    0.582
       156  -8.6543    123.8570    199.0754   8.8758539146e+01   1.5012073389e+01     0.293887    0.2126065 -83.92  0.001051782    1.899    0.474
       157  -9.2929     88.7936    198.6479   9.7528034529e+01   2.0736925893e+01    0.3766999      0.24449  80.41   0.00142213    2.059    0.514
       158  -8.4791    177.0012    198.9437   7.6357426778e+01   6.0898023747e+00    0.2020404    0.1772394  83.38 0.0005252851    1.612    0.380
       159  -9.1561    112.5589    198.2709   9.1437479238e+01   1.7070050578e+01    0.3788615    0.2704108  75.31  0.001503223    1.874    0.466
       160  -8.4054    202.4021    197.6931   7.0853470895e+01   2.2798477935e+00    0.2425127    0.1229897 -46.23 0.0006647801    1.982    0.496
       161  -8.1960    104.9835    198.5168   9.3387641777e+01   1.8241015215e+01    0.2226277    0.1393272  35.66 0.0004741548    1.539    0.350
       162  -9.3121     61.4886    197.0496   1.0429992643e+02   2.5001007973e+01    0.4692595    0.2403678  69.70  0.001782806    2.773    0.639
       163  -8.6307     52.9906    197.0107   1.0645624341e+02   2.6097680135e+01    0.2245752    0.1643329 -34.33  0.001150302    1.774    0.436
       164  -9.5512    245.8146    193.7610   6.2230975321e+01  -3.2231915546e+00    0.3574276    0.2549554 -66.85  0.001682964    2.789    0.641
       165  -8.5805    215.8451    195.4794   6.7840038661e+01   6.5360618404e-01    0.2543132    0.1641597 -54.22 0.0009821045    1.990    0.497
       166  -9.0344    237.0473    198.5201   6.4590083884e+01  -2.8505470398e+00    0.2352503    0.1538704 -46.32 0.0007389423    1.638    0.390
       167  -7.9246     12.2694    196.6299   1.1641201820e+02   3.0547601469e+01    0.1376727   0.07845636  69.16 0.0004475802    1.668    0.401
       168  -8.8428    185.0581    194.8245   7.3854088688e+01   5.5832464516e+00    0.2353504    0.1917137 -41.31   0.00065167    1.231    0.188
       169  -8.7795    161.0355    194.3939   7.9049537893e+01   9.7037187074e+00    0.2682729    0.2309878  87.18 0.0009488502    1.566    0.361
       170  -8.0606    231.1479    194.1284   6.4801494737e+01  -1.3074900908e+00      0.16872    0.1395593 -41.19 0.0004967411    1.309    0.236
       171  -8.7831    224.5157    193.6530   6.5895814560e+01  -2.8738158167e-01    0.2962375    0.1392156 -47.81  0.001320318    2.275    0.560
       172  -8.8597     76.9478    193.7819   9.9880610294e+01   2.3679904494e+01    0.2646633    0.2028816 -82.89  0.000537478    1.354    0.261
       173  -8.9333     43.6388    193.0887   1.0838709873e+02   2.8197149643e+01    0.4186023    0.2017703  72.69  0.001611124    2.853    0.649
       174  -8.7486      5.8576    193.5820   1.1769503084e+02   3.1839551558e+01    0.2051946     0.126302  19.69  0.001071331    2.020    0.505
       175  -8.3443    199.0161    191.8091   7.0402763992e+01   3.9116898275e+00    0.1909393    0.1873826 -64.11  0.000593278    1.304    0.233
       176  -8.4936    179.1716    191.8359   7.4534841178e+01   7.1535248640e+00    0.2034583    0.1956919 -61.86 0.0006368402    1.249    0.200
       177  -8.2459    172.3120    191.4595   7.5958251330e+01   8.3895549280e+00    0.2342804    0.1782606 -67.04 0.0007947169    1.769    0.435
       178  -7.4912    205.3158    191.6992   6.9135041812e+01   2.9405696521e+00    0.1236108    0.1111658 -82.81 0.0004013955    1.615    0.381
       179  -8.8783    139.5052    190.4862   8.3390768443e+01   1.4287866803e+01    0.3474942    0.2478062  68.24  0.001143749    2.000    0.500
       180  -7.9386    117.5620    191.5272   8.9033551114e+01   1.7823361890e+01    0.1461279    0.1436669  16.38 8.412537e-05    1.019    0.019
       181 -10.4149     92.1762    188.7295   9.5134209207e+01   2.2642714055e+01    0.9698256    0.3377337  47.23  0.003109344    3.286    0.696
       182  -8.1718     17.1862    191.3537   1.1481484034e+02   3.1385117400e+01    0.1835213      0.10173  42.72 0.0009416887    1.744    0.427
       183  -9.1761    156.0559    187.5740   7.8895637559e+01   1.2029616953e+01    0.3400829    0.2403875 -62.72  0.000907992    1.732    0.423
       184  -8.3051    148.4006    189.1304   8.0996839541e+01   1.3033739067e+01    0.2054896    0.1426045 -63.01 0.0009330078    1.742    0.426
       185  -8.8756    129.2436    188.5783   8.5566338864e+01   1.6511934413e+01    0.3051818    0.2368761  76.13 0.0008506461    1.692    0.409
       186  -8.7556     34.1738    187.8846   1.1024491843e+02   3.0556051319e+01    0.3412598    0.1774011  78.72  0.001087266    2.271    0.560
       187  -8.2309    237.2235    188.2678   6.2647320572e+01  -1.1533042915e+00    0.1639878    0.1375251 -43.15  0.000536229    1.324    0.245
       188  -8.7904    216.5206    187.8862   6.6261433367e+01   1.9182123442e+00    0.2261068    0.2097258 -79.06 0.0009544226    1.523    0.344
       189  -9.0474    190.7675    187.7546   7.1292015668e+01   6.0327823941e+00    0.3764762    0.2650346  32.39  0.001706571    1.465    0.318
       190  -9.5787    120.7336    186.3190   8.7302178266e+01   1.8515384031e+01    0.5342084    0.3139914 -76.15  0.001987995    2.744    0.636
       191  -7.6214     49.6911    188.2548   1.0627255149e+02   2.8692768963e+01    0.1414056    0.0952758  62.47 0.0001853977    1.518    0.341
       192  -8.5004    230.6157    187.3219   6.3608501615e+01  -5.9931899686e-02    0.1806283    0.1502625 -61.37 0.0009621588    1.666    0.400
       193  -8.7964    164.9061    186.9415   7.6737848927e+01   1.0612748628e+01    0.2517177    0.2027997 -53.83 0.0006854768    1.344    0.256
       194  -9.0393    109.5843    186.0807   9.0132377307e+01   2.0468796297e+01    0.4102655    0.2694632  73.41  0.001286603    2.254    0.556
       195  -9.5319     27.3917    186.2588   1.1181114486e+02   3.1667051792e+01    0.4506264     0.183582  51.20  0.001861752    2.547    0.607
       196  -9.1424    249.3928    185.4417   6.0106517537e+01  -2.3276199485e+00    0.2462172    0.1583697 -45.17 0.0008170984    1.526    0.345
       197  -8.8941    183.1901    185.3028   7.2397227403e+01   7.7930129798e+00    0.2732441    0.2265282 -56.99 0.0008437491    1.400    0.286
       198  -9.1791    210.2040    184.0421   6.6702802364e+01   3.6009567631e+00    0.3355013    0.1778831 -37.44  0.001080044    1.700    0.412
       199  -9.0464     66.5358    184.3621   1.0130124670e+02   2.7508608095e+01    0.3994615     0.231617  65.00 0.0009935223    2.139    0.533
       200  -8.6076    224.0262    183.4787   6.4037628509e+01   1.5815686328e+00    0.2100542     0.152852 -35.04 0.0005880123    1.189    0.159
       201  -9.0782    174.3756    183.6082   7.3966223387e+01   9.6595807777e+00    0.2768345    0.2329732  89.88  0.000878136    1.683    0.406
       202  -8.9754     44.2536    182.1342   1.0697150879e+02   3.0891926215e+01    0.3619904    0.2061898  74.80  0.001282539    2.094    0.522
       203  -7.8724      1.4864    183.4765   1.1801327097e+02   3.4646781521e+01    0.1288528    0.1031443  84.37 1.306246e-05    1.032    0.031
       204  -9.0836    147.5766    180.4793   7.9518539277e+01   1.5113730430e+01    0.3716982     0.278888  86.65  0.001182636    2.032    0.508
       205  -9.7416     25.5540    179.0039   1.1156108922e+02   3.3679260548e+01    0.5922653    0.2500556  79.37   0.00207257    3.532    0.717
       206  -8.7305    250.5296    172.8022   5.7552323100e+01  -3.7851691302e-01    0.2356998     0.146528 -40.39 0.0006401731    1.340    0.254
       207  -9.3226    248.9255    177.3691   5.8667516180e+01  -9.2410917404e-01    0.2948973    0.2228485 -51.81  0.001083718    1.536    0.349
       208  -8.5314    247.3051    173.6864   5.8225867005e+01  -8.0671628806e-02    0.1832946    0.1141177 -48.18 0.0004772187    1.617    0.382
       209  -9.4453    191.6095    178.3046   6.9238152657e+01   7.7624276243e+00    0.3068745    0.2615431  77.48 0.0006294505    1.668    0.400
       210  -8.5718    137.4113    179.0401   8.1722864688e+01   1.7279074500e+01      0.27652    0.2086166  65.10  0.001148552    1.686    0.407
       211  -9.0916     54.7234    186.6021   1.0474698585e+02   2.8489581063e+01    0.4621046    0.2288771  71.75  0.001404656    3.081    0.675
       212  -9.0539     35.9462    176.6836   1.0855215651e+02   3.3212644177e+01    0.5312623    0.2313514  78.57  0.001722281    3.985    0.749
       213  -8.4435    217.7739    177.2914   6.3958985237e+01   3.6620772499e+00    0.2407989    0.1710247 -59.11 0.0009780678    1.847    0.459
       214  -8.8621    205.1347    177.6322   6.6405901597e+01   5.6274142542e+00    0.2417671    0.1732606 -46.85 0.0005145074    1.392    0.282
       215  -8.3819    196.7618    183.1701   6.9164577075e+01   5.9377326047e+00    0.2162302    0.1728424 -55.81 0.0005967427    1.467    0.318
       216  -8.3880    129.1703    177.2480   8.3446579635e+01   1.9183607864e+01    0.2848679    0.2022566 -84.89 0.0007943368    2.069    0.517
       217  -8.8633     89.0860    176.9710   9.4031170137e+01   2.6072620529e+01    0.3334369    0.2124017  75.90 0.0009569511    2.248    0.555
       218  -8.7284    231.1110    176.7677   6.1490871499e+01   1.7190850086e+00    0.2310384    0.1560848 -44.77 0.0006709861    1.405    0.288
       219  -7.8273    122.3174    177.3227   8.5220864313e+01   2.0388775295e+01    0.1579014    0.1195238 -15.78 0.0005806279    1.667    0.400
       220  -8.0894     97.7881    177.3610   9.1732177820e+01   2.4576942970e+01    0.2105768     0.144714  20.62 0.0006108956    1.696    0.411
       221  -9.9141     57.2760    173.0834   1.0223329168e+02   3.1637236804e+01    0.9189735    0.4324374  78.37  0.002631986    4.888    0.795
       222  -8.7552    202.7195    184.6161   6.8264615632e+01   4.6861173396e+00    0.2653443    0.1757476 -50.04 0.0008365638    1.617    0.382
       223  -9.3002    183.0875    175.5578   7.0458979472e+01   9.7977282604e+00     0.384889    0.2307813 -46.50  0.000948435    1.620    0.383
       224  -9.3327    159.0088    175.1521   7.5737794920e+01   1.4222776735e+01    0.4237412    0.2969803  70.60   0.00142524    2.275    0.560
       225 -10.6513     75.9025    170.1072   9.6541626687e+01   2.9842373509e+01     1.348391    0.5262885 -73.90  0.003755542    4.488    0.777
       226  -8.4583     12.8183    176.2419   1.1460276183e+02   3.5531862753e+01    0.2373135    0.1004169  62.26 0.0009526133    2.785    0.641
       227  -9.1670    103.9306    174.3423   8.9528634689e+01   2.4310363164e+01    0.4361442    0.2720511  64.45  0.001737913    2.220    0.550
       228  -8.2686    224.2821    174.0336   6.2144931953e+01   3.2442980780e+00    0.1958159     0.151698 -35.35 0.0006264471    1.118    0.106
       229  -7.7622    241.6391    173.7093   5.9138939905e+01   7.1628038468e-01    0.1311327   0.08931478  -9.59 0.0007027315    1.695    0.410
       230  -9.5041    175.8490    172.2279   7.1332747769e+01   1.1784289590e+01    0.3513858    0.2223873 -45.52  0.001200347    1.521    0.342
       231  -8.9309    143.0918    172.6979   7.9050455720e+01   1.7709188191e+01    0.2620987    0.2097689 -62.82 0.0005881854    1.381    0.276
       232  -8.4825    194.3173    172.3126   6.7466853156e+01   8.4924871579e+00    0.1473841    0.1063959  -9.45 0.0005852144    1.644    0.392
       233  -9.0598     45.0184    170.8194   1.0534239455e+02   3.3720388323e+01     0.374541    0.2146257  85.52  0.001521853    2.099    0.523
       234  -8.2232    134.7521    171.5944   8.0907940828e+01   1.9505460856e+01    0.2128298     0.143083  47.21 0.0004798054    1.569    0.362
       235  -9.3125    121.3329    170.3284   8.4116174091e+01   2.2256345131e+01    0.3867141     0.284782 -88.54  0.001071944    1.870    0.465
       236  -9.0378    230.7375    170.0293   6.0235673445e+01   2.9743928959e+00    0.2100901    0.1907712   4.54 0.0006060547    1.186    0.157
       237  -8.3041    205.6854    170.1026   6.4777083579e+01   6.9847632741e+00    0.2208267    0.1600242 -52.58 0.0006396925    1.491    0.330
       238  -8.6346    198.2144    169.8761   6.6186238327e+01   8.3028071881e+00    0.2110062    0.1884487 -57.85 0.0007518996    1.283    0.220
       239  -8.9994    111.6777    168.1007   8.6250613771e+01   2.4526494587e+01    0.4216995    0.3200191 -56.81  0.002005641    1.317    0.241
       240  -8.8095     39.0234    170.3136   1.0694552991e+02   3.4524894909e+01    0.2660432    0.1096324  34.98  0.001085171    2.393    0.582
       241  -8.3544    244.3905    169.2476   5.7838127997e+01   1.0887384656e+00    0.1842089    0.1622963 -89.69 0.0006032739    1.705    0.414
       242  -8.2866    237.2720    169.0940   5.8959181356e+01   2.1559907702e+00    0.1904562    0.1433683 -36.36 0.0006222403    1.116    0.104
       243  -9.1408    166.9461    168.4232   7.2518872238e+01   1.4232512307e+01    0.3253895    0.2507572  73.59 0.0008109644    1.862    0.463
       244  -8.3562    149.8672    169.2264   7.6683154538e+01   1.7244476128e+01    0.2324134     0.208536  82.39   0.00112333    1.326    0.246
       245  -8.2695    218.9473    168.2899   6.1949464225e+01   5.1418469942e+00    0.1855188    0.1652849 -21.41 0.0004903951    1.053    0.050
       246  -7.9030     88.5057    168.4956   9.2716677721e+01   2.8326173208e+01    0.1536319    0.1435032  80.54 0.0008095298    1.075    0.070
       247  -8.9109    191.9295    166.5555   6.6758682794e+01   1.0068409765e+01    0.2724961    0.1955946 -49.11  0.000637347    1.392    0.282
       248  -8.4787    185.2456    166.4152   6.8108056806e+01   1.1296464762e+01     0.245899    0.1717705 -61.02 0.0006919088    1.774    0.436
       249  -9.7247    136.7087    164.2755   7.8902969628e+01   2.0868450456e+01    0.6314532    0.3340229  58.28   0.00212654    2.966    0.663
       250  -9.9607     95.0738    162.8818   8.9829520283e+01   2.8694096444e+01    0.9069922    0.5076435  76.70   0.00268934    4.263    0.765
       251  -8.7014     97.6912    155.3594   8.7606693464e+01   3.0172796266e+01    0.7285629    0.2002086  37.32  0.002128726    3.529    0.717
       252  -9.1267     20.5408    166.0531   1.1155555277e+02   3.7456090288e+01    0.3556251    0.1558824  49.88  0.001511908    2.460    0.593
       253  -8.1702    233.9646    164.9641   5.8694234808e+01   3.3854011340e+00    0.1915796    0.1470134 -57.73 0.0004820028    1.559    0.359
       254  -8.5467    159.7989    164.2951   7.3285982635e+01   1.6482543480e+01    0.2576044    0.2080913 -62.70  0.001020191    1.396    0.283
       255  -9.4959     33.8586    163.4390   1.0753308320e+02   3.6859562565e+01    0.6395243    0.2288517  50.58  0.002216868    3.469    0.712
       256  -8.7351    213.0205    163.4870   6.2047922957e+01   7.0201328901e+00    0.2581508    0.1762599 -51.89 0.0006325226    1.539    0.350
       257  -8.3461     63.2200    163.9833   9.9167365477e+01   3.3229135150e+01    0.2696797    0.1945628 -80.69 0.0006285098    1.436    0.304
       258  -8.5366     60.7476    160.1677   9.9273955326e+01   3.4560596775e+01    0.3420031    0.2040114  76.57  0.001366781    2.359    0.576
       259  -8.6926    246.1088    162.7281   5.6309181037e+01   1.9609801646e+00    0.2225049    0.1481469 -44.95 0.0004864955    1.347    0.258
       260  -9.3537      3.4424    162.3367   1.1582975339e+02   3.9767224055e+01    0.4321268    0.1959391  58.64  0.001676389    2.460    0.594
       261  -7.5790    127.6318    162.2823   8.0822633791e+01   2.3049552915e+01    0.1605953    0.1223287  70.88 0.0007015722    1.693    0.409
       262  -9.1176    177.3592    160.4957   6.8526155252e+01   1.3989751866e+01    0.2980339    0.2425935 -68.53 0.0006597069    1.498    0.333
       263  -8.8010    151.6598    160.7492   7.4452361146e+01   1.8835784818e+01    0.3005531    0.2302579 -65.65 0.0008166007    1.528    0.346
       264  -8.8296    204.9802    162.5876   6.3363264220e+01   8.5644521980e+00    0.2640215    0.1818937 -53.76 0.0006397319    1.574    0.364
       265  -8.5978    227.4934    159.0426   5.8594429376e+01   5.4691733840e+00    0.2901006    0.1646908 -53.45 0.0009087681    1.991    0.498
       266  -9.7880    250.2056    157.5589   5.4684776848e+01   2.2498285633e+00    0.3377826    0.1622847 -42.75 0.0008870945    1.709    0.415
       267  -8.5057    246.5956    155.4753   5.4824581826e+01   3.1399953056e+00    0.1907949    0.1331626 -23.27 0.0006834874    1.421    0.296
       268  -8.4746    236.9838    158.7545   5.6971878252e+01   4.0253178901e+00    0.1871173      0.15078 -83.74 0.0007485623    1.908    0.476
       269  -8.3060    128.0214    158.9331   8.0012599059e+01   2.3784605772e+01    0.2456482    0.1932181  81.22  0.000714282    1.661    0.398
       270  -9.6130    105.8026    157.8461   8.5815513866e+01   2.8129810126e+01    0.4889362    0.3310052  77.15  0.001162946    2.225    0.551
       271  -8.1486    245.2919    158.6715   5.5647304379e+01   2.7814237259e+00     0.123856   0.09285629 -59.43 0.0004301736    1.624    0.384
       272  -8.4583    196.5178    157.9402   6.4023564747e+01   1.0981727896e+01     0.220595     0.131824 -43.90 0.0006893316    1.535    0.348
       273  -9.0270    167.5344    157.0664   6.9949148998e+01   1.6597488950e+01    0.3220247    0.2457112 -74.44 0.0009990626    1.761    0.432
       274  -9.6389     81.4455    155.3077   9.2320455163e+01   3.2847047642e+01    0.5101005    0.4517288 -65.37  0.001890827    1.090    0.082
       275  -8.4478    217.8967    156.5300   5.9738911186e+01   7.5159520899e+00    0.2800196    0.1602387 -53.86 0.0007961915    1.969    0.492
       276  -8.2181    188.0519    157.3354   6.5594879208e+01   1.2654539894e+01    0.2000913    0.1908633 -35.57 0.0006378291    1.071    0.066
       277  -8.3520     41.8282    156.8657   1.0434269517e+02   3.7731294589e+01    0.1953716    0.1560535  63.68  0.000576567    1.306    0.234
       278  -8.5511    157.3813    156.0098   7.2055437648e+01   1.8800173916e+01    0.2615708    0.2197604  78.89 0.0007835967    1.502    0.334
       279  -9.1916    119.4419    155.0762   8.1475624051e+01   2.6336489102e+01    0.3827836    0.2706466 -78.57  0.001086395    1.905    0.475
       280  -9.3707     49.6208    154.8826   1.0173212435e+02   3.7355527409e+01    0.4578791    0.2657982  74.51   0.00186136    2.378    0.579
       281  -9.2222    241.7553    154.1828   5.5313386396e+01   4.0974785124e+00    0.3689223    0.2515413  84.04  0.001680227    3.309    0.698
       282  -7.8879    204.7238    155.3453   6.1892971251e+01   1.0025306785e+01    0.1393259    0.1086553 -67.22 0.0005171791    1.628    0.386
       283  -8.8639    144.8033    154.3783   7.4734282869e+01   2.1631180997e+01    0.3536471    0.2079927 -56.67 0.0008701458    1.860    0.462
       284  -9.6952     68.0747    153.8423   9.6025839598e+01   3.5218743491e+01    0.4362743     0.285458  64.67  0.001486738    1.907    0.476
       285  -8.1303    232.8379    153.9945   5.6691130282e+01   5.5276497781e+00    0.2146471    0.1378466 -58.28 0.0006968808    1.916    0.478
       286  -9.5727    132.7493    152.7780   7.7440438887e+01   2.4357509460e+01      0.47521    0.3643111  84.41  0.001050666    1.794    0.442
       287  -9.1017    133.5767    148.1869   7.6198769301e+01   2.5289389833e+01    0.3492412    0.2097965 -37.10 0.0008130202    1.803    0.445
       288  -8.0774    151.6251    152.7538   7.2704772291e+01   2.0664998493e+01    0.2164895    0.1443507 -56.38 0.0006347265    1.603    0.376
       289  -9.0947    113.6790    151.4733   8.2279416939e+01   2.8298201278e+01    0.2795165    0.2379166 -46.94 0.0002068829    1.152    0.132
       290  -9.6912     29.4658    150.7324   1.0716434208e+02   4.0613712284e+01    0.4999125     0.244176  65.85  0.001867802    2.928    0.659
       291  -8.5661      9.9872    153.0000   1.1312529608e+02   4.1671298091e+01    0.1926553    0.0772505  19.79 0.0008046872    2.958    0.662
       292  -9.5852    248.9079    149.2099   5.3255764815e+01   3.8733518604e+00    0.3326648    0.1514629 -40.60 0.0007848383    1.772    0.436
       293  -8.9330    189.4329    149.9964   6.3720829084e+01   1.3903473834e+01     0.283735    0.2193294 -63.00 0.0007418879    1.504    0.335
       294  -8.0589    182.4193    151.2563   6.5437683078e+01   1.4977431654e+01    0.2094744    0.1348128 -53.97  0.000840421    1.645    0.392
       295  -8.7155     98.4002    150.7990   8.6466072154e+01   3.1212363628e+01    0.2979007    0.2399913  77.32  0.000848883    1.481    0.325
       296  -8.6997    243.1275    149.7018   5.4217002145e+01   4.6709959043e+00    0.2424471    0.1462154 -45.74 0.0008875411    1.439    0.305
       297  -7.9660    162.7621    150.5769   6.9596138109e+01   1.8954895018e+01    0.2095827    0.1466807  54.59 0.0006528402    1.650    0.394
       298  -7.9185    212.8448    149.6025   5.9190706046e+01   9.7010297581e+00    0.1690221    0.1360511  60.11 0.0003779838    1.554    0.356
       299  -8.3306    198.8818    148.8916   6.1622347506e+01   1.2359612422e+01    0.2139117    0.1706379 -72.31 0.0005456117    1.600    0.375
       300  -9.9336     89.3170    146.3833   8.8213434460e+01   3.3887082558e+01    0.6972687    0.4139197  89.74  0.002327878    3.283    0.695
       301 -10.4997     54.9935    144.7377   9.8415425135e+01   3.9366820004e+01    0.8785889    0.4888952  80.52  0.002756676    3.045    0.672
       302  -9.8241     39.6663    147.5681   1.0362346646e+02   4.0411461781e+01    0.5440857    0.2811806  65.26  0.001987458    2.832    0.647
       303  -9.1316    233.6317    147.3926   5.5230283177e+01   6.5881578349e+00    0.3083401    0.1354719 -40.55 0.0009200135    1.910    0.477
       304  -8.1364    223.5420    146.7475   5.6743780706e+01   8.3864032121e+00    0.1858189    0.1160912 -48.58 0.0003526296    1.493    0.330
       305 -10.1272    148.9702    144.8374   7.1553923718e+01   2.3000588300e+01    0.5775775    0.3902688 -80.72  0.001692549    2.487    0.598
       306  -9.6206    139.1167    145.1956   7.4091606983e+01   2.4896527989e+01    0.4173792    0.2742793 -62.84  0.001067585    1.801    0.445
       307 -10.2389    106.6461    144.4317   8.2720024457e+01   3.1348257516e+01     0.664354    0.4156289  75.25  0.002287531    2.954    0.661
       308  -9.1629     78.2439    147.1081   9.1692593700e+01   3.5476159811e+01    0.2965176    0.1875783  61.36 0.0009714693    2.053    0.513
       309  -9.7153     13.4716    146.0848   1.1135002616e+02   4.3189163603e+01    0.4045095    0.2226067  68.09  0.001462132    2.156    0.536
       310  -9.2633    240.3896    145.2278   5.3743551734e+01   5.8864178171e+00    0.2741408    0.1397929 -40.85 0.0005534893    1.614    0.380
       311  -9.3714    242.7436    143.0118   5.2946437490e+01   5.9023363851e+00    0.2000594    0.1568856 -52.19 0.0006942727    1.253    0.202
       312  -7.8849    206.9586    146.4738   5.9588896496e+01   1.1356302937e+01    0.1768767    0.1266494  79.14 0.0008048674    2.288    0.563
       313  -8.4224    175.5198    146.1326   6.5760015870e+01   1.7399726526e+01    0.2360389    0.2084184 -83.00 0.0006819628    1.342    0.255
       314  -9.6351    125.2032    142.7570   7.7175353570e+01   2.8233372678e+01    0.5200986    0.3513204  86.89   0.00146196    2.578    0.612
       315  -8.9277    247.0585    143.8106   5.2467658194e+01   5.0875379092e+00    0.2249938    0.1517809 -41.94 0.0004648732    1.208    0.172
       316  -8.6214    165.6817    144.0359   6.7449728601e+01   1.9810716223e+01     0.243992    0.2154012  71.47 0.0007624755    1.310    0.236
       317  -8.7590     32.5341    144.5123   1.0536373556e+02   4.1945546522e+01     0.243657    0.1110827  39.20 0.0007358991    2.319    0.569
       318 -10.4328     69.4425    141.3357   9.3264543019e+01   3.8297597131e+01     0.556474    0.3603308 -85.25  0.001748427    2.040    0.510
       319 -10.4132     61.3939    135.2817   9.4625362481e+01   4.1004706663e+01    0.7281414    0.2973934  29.67  0.002686681    2.613    0.617
       320 -10.0558     70.7721    134.4325   9.1443954136e+01   3.9894825720e+01     0.881222    0.3407738  23.51   0.00276097    3.622    0.724
       321 -10.4342     60.2513    125.3043   9.2960234784e+01   4.3736557113e+01    0.7826195     0.472825  77.94  0.002905546    2.965    0.663
       322  -8.3363    182.1503    141.4984   6.3316558207e+01   1.7067511754e+01    0.2414342    0.1951125 -63.89 0.0005248744    1.380    0.276
       323  -9.4413      2.6176    141.6725   1.1407779991e+02   4.5069954286e+01    0.3546256    0.1837296  66.45  0.001639334    2.283    0.562
       324  -8.4117    250.2217    140.8218   5.1424336282e+01   5.1138818028e+00    0.1928757    0.1489431 -49.48 0.0007313872    1.200    0.167
       325  -8.5904    134.4140    140.0095   7.4096632691e+01   2.7056405072e+01    0.2474426    0.1511519 -48.80  0.000949865    1.600    0.375
       326  -8.7195     46.4640    140.0089   1.0028134247e+02   4.1641593279e+01    0.2145256    0.1947811  28.13 0.0005092534    1.213    0.176
       327 -10.3124     22.6666    138.0811   1.0752073295e+02   4.4525211937e+01    0.5837964    0.3941553  41.40  0.002580901    1.634    0.388
       328  -8.7041    172.4257    138.2666   6.4633298826e+01   1.9694267437e+01    0.3119956    0.2283787 -76.11 0.0008999642    1.899    0.473
       329  -9.0029    139.6762    137.4501   7.2139506248e+01   2.6586199362e+01    0.4865729    0.2785602 -17.03  0.001420231    4.162    0.760
       330  -7.8025    218.5029    138.4958   5.5859996135e+01   1.0802732735e+01    0.1400961    0.1211289 -42.98 -8.546265e-05    1.035    0.033
       331  -8.2396    207.7482    137.9502   5.7606593163e+01   1.2863889897e+01    0.2280349    0.1501195 -62.83 0.0007658931    1.907    0.476
       332  -8.5432    197.6500    137.3514   5.9326663650e+01   1.4889235305e+01    0.2570843    0.1595822 -51.58 0.0006035149    1.597    0.374
       333  -8.0467    105.6331    138.6732   8.1715348533e+01   3.2970591547e+01    0.1677107     0.123694 -14.07 0.0007036283    1.807    0.446
       334  -8.0022     93.6200    137.2930   8.4959477289e+01   3.5473290858e+01    0.1636798    0.1208798  69.86  0.000701991    1.748    0.428
       335 -10.3803     83.3401    133.0859   8.7178073570e+01   3.8278819701e+01    0.5765475    0.3734147 -65.05  0.001285322    1.651    0.394
       336  -8.6440    246.9054    130.1367   4.9781151425e+01   7.4729346910e+00    0.2258788    0.1442931 -47.74 0.0005665954    1.331    0.249
       337  -9.0698    250.7943    129.8814   4.9195115831e+01   6.8939946423e+00    0.4492999    0.1116651 -39.49   0.00155939    3.411    0.707
       338  -8.0346    162.7699    136.5484   6.6372034978e+01   2.2037492590e+01     0.202817    0.1492398  58.88 0.0006030314    1.570    0.363
       339  -9.4566     39.0444    135.8573   1.0195710763e+02   4.3549230372e+01    0.2847502    0.2173646  84.46 0.0008656994    1.439    0.305
       340  -7.7266    188.2630    135.6449   6.0755419650e+01   1.7063685355e+01    0.1487359    0.1118558 -68.43 0.0005364696    1.623    0.384
       341  -7.9510    231.6936    133.9984   5.2793730170e+01   9.3238639584e+00    0.1717335    0.1052537 -41.37  0.000878681    1.371    0.271
       342  -8.5945    179.3724    133.8385   6.2139588641e+01   1.9217468958e+01    0.2857658    0.2168143 -69.21  0.001196589    1.600    0.375
       343  -7.9303    237.5137    133.4707   5.1804426306e+01   8.4341071095e+00    0.1341914    0.1104728 -46.55 0.0002618681    1.073    0.068
       344 -10.0787    132.2011    130.8868   7.2490741736e+01   2.9639761039e+01    0.6375384    0.3843107 -67.31  0.001814087    2.390    0.582
       345  -8.7550    112.8026    133.0883   7.8344785131e+01   3.2989712540e+01    0.2447689    0.2150971 -89.96 0.0006985315    1.300    0.231
       346  -8.9367    142.8983    131.5677   6.9914511365e+01   2.7270328066e+01    0.2960112    0.2195895 -55.14 0.0004076129    1.379    0.275
       347 -10.2127     97.9459    129.9089   8.1951026998e+01   3.6554134478e+01    0.6926528    0.2704104 -51.92  0.001754063    2.467    0.595
       348 -10.3051     12.9012    128.6552   1.0933918722e+02   4.7714265244e+01    0.6472995    0.3313663  84.21  0.002312071    2.508    0.601
       349  -7.9541    204.5912    129.8528   5.6392682007e+01   1.5023841590e+01    0.2075317    0.1212869 -51.57 0.0008352032    1.682    0.405
       350  -7.9627    192.6244    129.8519   5.8593476876e+01   1.7364431790e+01    0.2081006    0.1263388 -51.40 0.0003482416    1.622    0.384
       351  -9.0647    168.3932    129.3687   6.3422089354e+01   2.2416927030e+01    0.3057074    0.2387541 -80.97 0.0003482463    1.651    0.394
       352  -9.3037    152.9360    128.5645   6.6741467843e+01   2.5837900212e+01     0.513422     0.213908 -49.29  0.001773167    2.422    0.587
       353  -9.9507     73.3652    129.4024   8.9534028460e+01   4.0797523816e+01    0.3750643    0.2965197  85.85 0.0009627875    1.547    0.353
       354  -8.2233    211.4780    128.9694   5.5000684618e+01   1.3883920542e+01    0.2037442    0.1089655 -59.38 0.0008093321    2.472    0.595
       355 -10.8102     45.0071    123.6728   9.7779985194e+01   4.6056988326e+01     1.098482    0.5986162  75.12  0.003771328    3.698    0.730
       356  -9.7740    117.8933    125.1766   7.4969026112e+01   3.3884572069e+01    0.5529011    0.3832549  79.01  0.001531839    2.303    0.566
       357  -7.8759    228.6770    125.3194   5.1450600611e+01   1.1411321700e+01    0.1362535   0.09727975 -67.09 0.0007044833    1.672    0.402
       358  -8.8530    179.3256    124.7359   6.0022042806e+01   2.1103645284e+01    0.2772392    0.2255567 -79.69 0.0007531718    1.473    0.321
       359 -10.3548     28.4975    122.0676   1.0313054716e+02   4.8153133693e+01    0.7942822    0.4086305  74.74   0.00284838    3.590    0.721
       360  -9.1636    248.3922    135.3685   5.0610102246e+01   6.3354774112e+00    0.2924977    0.1727746 -43.16  0.000864514    1.370    0.270
       361  -7.8208    188.4896    123.9751   5.8034567011e+01   1.9369120370e+01     0.202065    0.1198274 -63.03 0.0004510961    2.261    0.558
       362  -8.8615    135.4198    123.1962   6.9743703664e+01   3.0734429766e+01    0.4569268    0.2189526 -49.26  0.001682911    2.082    0.520
       363  -9.5408    130.4957    118.0592   6.9721192601e+01   3.2930913645e+01     0.473904    0.2961041 -60.65  0.001541227    1.910    0.476
       364  -9.1543    158.7051    121.6081   6.3696590274e+01   2.6119229761e+01    0.3722784    0.2589364 -72.38  0.001070788    1.965    0.491
       365  -8.7740     85.1571    122.3571   8.4118981637e+01   4.0671934820e+01    0.4536387    0.2518067  11.71  0.001511302    3.282    0.695
       366  -8.5725    172.0819    121.5860   6.0766915016e+01   2.3270718066e+01    0.2527445    0.1961667 -55.64 0.0004215596    1.291    0.226
       367  -9.6032     71.1040    119.8629   8.8118223331e+01   4.3555359361e+01    0.3301857    0.2478589 -84.05 0.0009503068    1.687    0.407
       368  -9.7840    141.5596    118.3379   6.6954355618e+01   3.0512343783e+01    0.4904326    0.3047408 -65.72  0.001148795    2.216    0.549
       369  -9.7320     19.0398    118.4889   1.0578481977e+02   4.9855096101e+01    0.5687594    0.2020929  10.32  0.002005536    4.108    0.757
       370  -9.9596      2.7161    116.9482   1.1113032628e+02   5.1317223483e+01    0.4971463    0.2416735  77.33  0.002054396    2.950    0.661
       371  -7.7346    231.5142    117.5226   4.9397947300e+01   1.2293471419e+01     0.136467    0.1119794 -53.00 0.0001364718    1.091    0.083
       372  -9.1545     58.6140    115.8918   9.1454098800e+01   4.6343022090e+01    0.3249183    0.1628367 -41.60  0.001300009    2.036    0.509
       373  -8.0430    185.6303    115.8176   5.6671159380e+01   2.1575873203e+01     0.210185    0.1271233 -51.41 0.0003724367    1.623    0.384
       374  -9.7310    109.5154    114.1682   7.4553922263e+01   3.8133214112e+01    0.5006379    0.3166935 -68.00  0.001436576    2.194    0.544
       375  -8.9393    249.6724    114.2996   4.6263894765e+01   9.7108063635e+00    0.3055745    0.1823051 -64.78  0.001546282    2.102    0.524
       376  -8.2338    193.0387    115.0714   5.5115518078e+01   2.0181144240e+01    0.2280668    0.1655501 -69.10 0.0005133517    1.630    0.386
       377  -7.8916     26.6604    129.3107   1.0493691345e+02   4.6453029906e+01    0.1419796   0.09929812  66.62 0.0007045146    1.691    0.409
       378  -7.6371    167.4957    114.4604   5.9996635501e+01   2.5717410595e+01    0.1524284    0.1425129 -65.17  0.000137549    1.056    0.053
       379 -10.0096     92.7436    112.5272   7.9238366520e+01   4.1721159891e+01     0.533388    0.3493638 -68.17  0.001273725    1.970    0.492
       380  -8.9351     93.5367    104.3621   7.6804522487e+01   4.3476440524e+01    0.4874549    0.3093458   1.18  0.001786676    2.810    0.644
       381  -9.8658     78.8639    112.3010   8.3689247345e+01   4.4188535944e+01     0.469135    0.3478676  88.67   0.00155434    1.942    0.485
       382 -10.2784    133.8274    109.1119   6.6509139383e+01   3.4190783827e+01    0.7124169     0.323399 -49.58  0.002568752    2.278    0.561
       383  -9.9081    121.8095    112.4374   7.0596830022e+01   3.6018513759e+01    0.3516557    0.2908554  89.39 0.0006610255    1.501    0.334
       384  -8.7724     51.2239    112.5430   9.3292011971e+01   4.8138731229e+01    0.2532491    0.1924444 -56.93 0.0005589469    1.218    0.179
       385  -8.4402    174.7997    111.7329   5.7813368463e+01   2.4688642340e+01    0.2811498    0.1782964 -64.08 0.0007715955    1.985    0.496
       386  -8.3998    159.1200    111.6933   6.1124361840e+01   2.8110674247e+01    0.2618255    0.1983423 -56.50 0.0004460845    1.353    0.261
       387 -10.2665     66.3410    110.4010   8.7475043652e+01   4.6610138203e+01    0.3924176    0.3103374 -84.88  0.001199456    1.590    0.371
       388  -9.9373     14.1752    111.1100   1.0629276456e+02   5.2067545889e+01    0.4437818    0.2455057  51.61  0.001669782    2.351    0.575
       389  -9.4285      7.3704    109.0396   1.0838695002e+02   5.3020181250e+01    0.3411649     0.157737  32.49   0.00159812    2.460    0.594
       390 -10.1789    248.6428    107.9184   4.5127332205e+01   1.0948471955e+01    0.3699875    0.2400081 -55.54  0.001799327    1.407    0.289
       391 -10.4190    248.8503    102.7254   4.4069696624e+01   1.1770602857e+01    0.3270714    0.2746943 -51.77  0.002165319    1.050    0.048
       392 -10.7846     23.0227    102.7487   1.0155397410e+02   5.3473639802e+01    0.7512932    0.4457181  72.38  0.002413579    2.727    0.633
       393  -9.1458    140.1565    104.7064   6.3741480144e+01   3.3742073941e+01    0.3089693    0.2530078 -81.16 0.0007506362    1.461    0.316
       394 -10.4514     45.4295    101.9074   9.2955148542e+01   5.1453841622e+01    0.7587466    0.4600959  75.70  0.002866681    3.354    0.702
       395  -8.4250    166.7982    104.1288   5.7559263517e+01   2.7944797721e+01    0.2319304     0.192166 -66.24 0.0005689839    1.262    0.207
       396  -9.3767    150.4635    102.8132   6.0787439592e+01   3.1843075025e+01    0.4393747    0.2636633 -64.26  0.001233746    2.314    0.568
       397  -9.8881    128.4842    102.1108   6.6009418740e+01   3.6845407741e+01    0.3636112     0.288944 -76.71 0.0009629623    1.559    0.358
       398  -9.1431      6.6330    102.6564   1.0764520474e+02   5.4634324461e+01    0.2861727     0.185061  88.26 0.0008888318    1.797    0.443
       399  -7.8327    175.5880    101.8026   5.5210440099e+01   2.6457861394e+01    0.2076886    0.1302789 -52.91 0.0003585861    1.603    0.376
       400  -9.2927     82.2878    100.2600   7.9354766231e+01   4.6444768482e+01    0.4049576    0.2675351 -69.15  0.001124986    2.069    0.517
       401  -8.3412    159.9355    100.9514   5.8195793066e+01   3.0097973669e+01    0.2349473    0.1779582 -76.10 0.0005039221    1.612    0.380
       402 -10.0807    108.5579     98.5091   7.0559332426e+01   4.1832555002e+01    0.5434819    0.3951296  81.13 0.0008848801    2.110    0.526
       403  -8.8574    108.5582     92.1939   6.8743967067e+01   4.3170812845e+01    0.6309364    0.3114874  25.21   0.00192477    3.854    0.741
       404  -9.1680     95.0894     97.0759   7.4272924602e+01   4.4816632370e+01    0.3249812    0.2403007 -61.60 0.0006021769    1.566    0.362
       405 -10.1570     63.7578     95.5714   8.4557399451e+01   5.0516463086e+01    0.5651698    0.3769726 -87.92  0.001747063    2.800    0.643
       406  -8.8444     42.8809    109.3160   9.5573904882e+01   4.9928534387e+01    0.3519731    0.1391909  12.46  0.001094958    4.396    0.773
       407  -8.1916    151.3414     95.3196   5.8599431259e+01   3.3135930740e+01    0.1534741    0.1212893  10.09  0.000704978    1.718    0.418
       408  -8.0134    164.9841     94.2443   5.5405005293e+01   3.0258706854e+01    0.2029178    0.1872629 -62.32 0.0004920151    1.039    0.038
       409  -7.9735    188.7498     93.0243   5.0652602772e+01   2.5209184178e+01    0.1923254    0.1146807 -42.45  0.000882438    1.567    0.362
       410  -7.9613    176.4165     93.1957   5.2907442970e+01   2.7891738083e+01    0.2108221    0.1265151 -52.76 0.0005957749    1.685    0.406
       411  -9.2038    139.3516     92.4962   6.0614776776e+01   3.6397306840e+01    0.3446297    0.2609196 -85.03  0.000922617    1.741    0.426
       412  -8.9611    120.5059     93.4760   6.5729786984e+01   4.0372708128e+01    0.2548048    0.2124344 -27.45  0.001189815    1.275    0.216
       413  -9.6134    124.6835     90.8876   6.3865407376e+01   3.9985673239e+01    0.3841273    0.3164672 -75.02 0.0009188909    1.449    0.310
       414  -8.9595     46.3094     92.2184   9.0221502820e+01   5.3648479313e+01    0.4414532    0.2198302   6.56  0.001622124    3.246    0.692
       415  -8.1110    189.4541    107.9451   5.4094403341e+01   2.2294336510e+01    0.2074654    0.1136946 -60.84 0.0008060698    2.365    0.577
       416  -8.1019    157.8287     91.7786   5.6244581438e+01   3.2344763089e+01    0.2059895    0.1708512 -71.60 0.0005518776    1.295    0.228
       417  -9.5684     34.9062     89.7849   9.4082147392e+01   5.5490331072e+01    0.4250468    0.2713519 -82.77  0.001461516    2.349    0.574
       418  -9.5737      5.2957     91.8438   1.0630418194e+02   5.7316090546e+01     0.255522    0.1801002  54.73  0.001064991    1.843    0.458
       419  -9.2223     23.2373     89.7468   9.8744683827e+01   5.6581196868e+01    0.2766059    0.2263632  10.38   0.00100195    1.332    0.249
       420  -8.3780    151.0099     88.9979   5.6970992806e+01   3.4423224151e+01    0.2390687    0.1772883 -73.68 0.0005086116    1.657    0.396
       421  -9.9385     86.5063     86.2542   7.3885525118e+01   4.8758944566e+01    0.5416004    0.3940594 -69.08  0.001735733    1.894    0.472
       422  -8.4753     64.7890     87.4279   8.1886710790e+01   5.2196506392e+01    0.2062215    0.1356173  15.11 0.0009465567    1.769    0.435
       423 -10.0345     48.4827     83.7754   8.7086343749e+01   5.5297841000e+01    0.5836698    0.4132187 -78.32  0.002530563    2.095    0.523
       424  -8.1716    157.9146     83.8368   5.4111706367e+01   3.3793333853e+01    0.2022489    0.1669497 -74.30 0.0004003473    1.301    0.231
       425  -9.6371    104.7437     83.0364   6.7145218528e+01   4.5820040033e+01    0.3804519    0.2947287 -65.48 0.0007967136    1.602    0.376
       426  -9.1528    140.9166     82.7126   5.7509115120e+01   3.7904652854e+01    0.2840764     0.211501 -53.13 0.0005684996    1.400    0.286
       427  -9.5505      9.9167     81.1455   1.0232529291e+02   5.9545256308e+01    0.3647489    0.2232762  62.62  0.001570597    2.643    0.622
       428  -8.2197    185.3132     82.6406   4.8712847133e+01   2.7792157039e+01     0.152367    0.1020938 -70.07 0.0007042855    1.748    0.428
       429  -8.1833     63.8988     82.6068   8.0793788314e+01   5.3380986616e+01     0.195159    0.1292893  44.36 0.0008507734    1.706    0.414
       430  -8.4126     35.8377     82.1819   9.1753385448e+01   5.7132835339e+01    0.2002515    0.1434343 -25.74  0.001076888    1.355    0.262
       431  -9.5784     24.6543     80.4794   9.5966262040e+01   5.8597722720e+01    0.4234809     0.281686  88.66  0.001461657    2.443    0.591
       432  -8.5265    150.1891     80.6336   5.4862852963e+01   3.6149290884e+01    0.2541963    0.1909508 -52.52 0.0006198302    1.356    0.263
       433  -8.7937    132.1673     81.5986   5.9275961648e+01   4.0105230834e+01    0.2086892     0.136988  41.32 0.0005462824    1.577    0.366
       434  -8.6105    119.3865     80.2186   6.2149381167e+01   4.3223849530e+01    0.2781259    0.2188892 -77.08 0.0006898135    1.643    0.391
       435  -8.6373     74.8334     80.5706   7.6169248304e+01   5.2028437061e+01    0.2750905    0.1942009 -64.68 0.0008884686    1.894    0.472
       436  -8.0716    166.7916     79.5653   5.1231076896e+01   3.2510800154e+01    0.1866284    0.1363871  73.76 0.0003829664    1.477    0.323
       437  -8.3331    184.2650     78.1299   4.7778695703e+01   2.8793000884e+01    0.2141991    0.1726284 -26.84 0.0006428431    1.441    0.306
       438  -7.8997    157.4301     76.4993   5.2233702177e+01   3.5200926603e+01    0.1471283    0.1333323 -77.60 0.0001614976    1.088    0.081
       439  -8.7218    140.4026     75.2251   5.5497084113e+01   3.9368893901e+01    0.2533967    0.1750376 -49.16  0.000629156    1.500    0.333
       440  -9.2056    128.0745     75.1424   5.8391437331e+01   4.2209182467e+01    0.3401965     0.220385 -54.63 0.0006334315    1.770    0.435
       441  -9.9555     63.2466     73.3624   7.8169808830e+01   5.5406381516e+01    0.4721641    0.2880407 -57.91  0.001097518    2.047    0.512
       442  -9.6450     82.3978     72.3685   7.0911450749e+01   5.2307347195e+01    0.4214652    0.2866882 -64.90  0.001074681    2.196    0.545
       443  -8.1915    163.4180     73.1789   5.0182373501e+01   3.4377986699e+01    0.2060832    0.1257457 -51.24 0.0009393697    1.675    0.403
       444  -8.4655    151.4016     73.1833   5.2547700951e+01   3.7168838120e+01    0.2071812    0.1290255 -51.04 0.0006436842    1.682    0.406
       445  -8.6207    115.7570     72.8941   6.0897379520e+01   4.5369075164e+01    0.2598123     0.199255 -59.13 0.0004634304    1.519    0.342
       446  -7.5448    175.5048     72.5082   4.7841466301e+01   3.1708053559e+01    0.1406129    0.1303248 -78.00  4.11466e-05    1.017    0.016
       447  -9.3238    105.9470     71.5123   6.3207833472e+01   4.7745217315e+01    0.2632445     0.203087 -60.61 0.0006871424    1.572    0.364
       448  -9.1331     95.0052     70.9558   6.6324303923e+01   5.0120774739e+01    0.3231895     0.204527 -50.17 0.0008336239    1.786    0.440
       449  -8.0824     42.4263     72.2316   8.6172264010e+01   5.8546667459e+01    0.1882678     0.127842 -62.28 0.0009491206    1.769    0.435
       450  -8.9811     28.3079     70.6938   9.1780498517e+01   6.0415086508e+01    0.3813155    0.1681179 -26.34  0.001473434    3.056    0.673
       451  -9.2683     51.6014     69.6999   8.1585810932e+01   5.7871352197e+01    0.3961471    0.2615188 -71.61  0.001536871    2.611    0.617
       452  -8.8923     16.7636     69.9565   9.6696530910e+01   6.1571736855e+01    0.2226991    0.1741405 -77.83  0.001046775    1.613    0.380
       453  -8.7931    147.1895     67.9398   5.1949596484e+01   3.9027483468e+01    0.2874571    0.1826742 -51.50 0.0007015409    1.674    0.403
       454  -8.7211    138.6336     66.1413   5.3261956099e+01   4.1318061760e+01    0.2234246     0.170008 -55.27  0.000669352    1.408    0.290
       455  -8.8381    121.6186     65.8148   5.7176193861e+01   4.5284271386e+01    0.2690735    0.2068641 -69.60 0.0006951797    1.631    0.387
       456  -8.8742    110.2344     63.5513   5.9453167457e+01   4.8200307834e+01    0.2814098    0.2247578 -77.56 0.0005998175    1.653    0.395
       457  -9.4300     97.3998     61.0289   6.2310296982e+01   5.1370856248e+01    0.3993231    0.3037333 -29.90  0.001788649    1.377    0.274
       458  -8.8251     65.1293     62.6008   7.3862141584e+01   5.7181149971e+01    0.4485778    0.2524208   9.96  0.001749744    2.931    0.659
       459  -8.6160     37.2387     63.9002   8.5795960993e+01   6.0874845841e+01    0.2367222    0.2001365  84.60  0.001225694    1.839    0.456
       460  -8.3727     86.1995     63.6227   6.6720470408e+01   5.3188599166e+01    0.2074831    0.1250594  33.69 0.0004860148    1.680    0.405
       461  -8.2791    158.3644     62.0887   4.8135682689e+01   3.7346019492e+01    0.2023173    0.1197461 -49.75 0.0006935996    1.743    0.426
       462  -9.6224     73.4004     59.4638   6.9697271514e+01   5.6316995874e+01    0.3742924    0.2427866 -48.08 0.0009788615    1.752    0.429
       463  -8.1672     88.7875     59.0807   6.4324385777e+01   5.3457074941e+01    0.1807766    0.1124396 -38.64 0.0005502448    1.673    0.402
       464  -8.1328    130.5981     57.7343   5.2547515588e+01   4.4519337985e+01    0.1869848    0.1306093 -48.92 0.0002944139    1.545    0.353
       465  -9.8643     23.4187     56.3080   8.9659300594e+01   6.3840466118e+01    0.3914941    0.2890965  85.49  0.001921724    2.631    0.620
       466  -9.5096      7.5507     57.0918   9.7512672221e+01   6.4933380454e+01    0.2668252    0.2040021  82.32  0.001200321    2.069    0.517
       467  -8.3168    139.9499     56.1197   5.0040886740e+01   4.2581181319e+01    0.2150584    0.1824639 -79.29 0.0005073796    1.261    0.207
       468  -9.0134    119.0634     55.6302   5.4615681973e+01   4.7491838232e+01    0.2555925     0.190133 -56.79 0.0007415836    1.575    0.365
       469  -8.4693     44.1400     55.4397   7.9914049612e+01   6.1645477497e+01    0.2009629    0.1785959 -49.53 0.0008148599    1.371    0.271
       470  -9.3175     62.9246     54.6429   7.1887085968e+01   5.8966214407e+01    0.4723218    0.2055777 -35.77   0.00198134    2.383    0.580
       471  -8.9152     54.0960     53.9042   7.5143492611e+01   6.0500218658e+01    0.3068596    0.1831447 -52.74  0.001041257    2.121    0.528
       472  -8.7457    148.0124     53.7581   4.7753837210e+01   4.1034259765e+01    0.2257545    0.1971989 -45.43 0.0004174916    1.196    0.164
       473  -8.5753    105.8638     53.1321   5.7226593614e+01   5.0819360704e+01    0.2073669    0.1890855 -84.07  0.000609343    1.283    0.221
       474  -9.3880     92.5043     50.4807   6.0164460134e+01   5.4072252689e+01    0.3479584    0.2320468 -52.33 0.0009956819    1.912    0.477
       475  -8.3353    144.6625     48.8524   4.6983325862e+01   4.2524386500e+01    0.1943757    0.1185071 -46.34 0.0005838795    1.726    0.421
       476  -8.2719    129.6495     48.8295   5.0029748990e+01   4.6050523515e+01    0.1873392    0.1243341 -45.39 0.0003243957    1.624    0.384
       477  -8.2721    120.8445     47.1874   5.1491982771e+01   4.8318091929e+01    0.1993838    0.1806953 -85.16 0.0006466127    1.200    0.167
       478  -8.4363    112.1877     46.9208   5.3496946001e+01   5.0323693827e+01    0.2050073    0.1818916 -82.33 0.0005897835    1.304    0.233
       479  -8.8753     82.0083     46.3820   6.2002749707e+01   5.6812448660e+01    0.2351788    0.1882925 -51.26 0.0006887986    1.549    0.354
       480  -8.2211    221.8177     45.8764   3.5469695778e+01   2.5579309377e+01     0.172866    0.1192058 -67.40 0.0006198787    1.272    0.214
       481  -8.3847     45.0259     44.5261   7.5475779059e+01   6.3438562057e+01    0.2233901    0.1777357 -52.90 0.0007670255    1.664    0.399
       482  -9.0573     16.9059     44.5564   8.8917030159e+01   6.6679693717e+01    0.2014954    0.1660644 -60.35 0.0006569318    1.577    0.366
       483  -8.2916    132.8446     43.3478   4.7675868440e+01   4.6054048601e+01    0.1867181    0.1663162 -73.12 0.0005240273    1.187    0.158
       484  -8.5907     58.0644     42.2358   6.9104252973e+01   6.1797588122e+01    0.2752701    0.1775876 -54.52  0.001357213    2.352    0.575
       485  -9.8641      5.2372     41.8663   9.4078762327e+01   6.8083271901e+01    0.3121809    0.2166664 -70.09  0.001809015    2.015    0.504
       486  -8.6661    105.9337     41.3554   5.3212581027e+01   5.2482437866e+01    0.2172027     0.185077 -46.60 0.0005865426    1.327    0.246
       487  -8.4709     92.8271     42.4041   5.7191081678e+01   5.5176034072e+01    0.2045244    0.1109143  40.28 0.0009382948    1.747    0.428
       488  -9.0804     69.3922     41.1847   6.4385451111e+01   5.9978304026e+01    0.2851088    0.2252697 -61.42  0.001087581    1.894    0.472
       489  -8.2112    234.4626     41.5419   3.3387134834e+01   2.3631863397e+01    0.1182234   0.09729618 -67.74 6.975367e-05    1.076    0.071
       490  -8.5462     36.8486     40.7162   7.7689765628e+01   6.5180207537e+01     0.199991    0.1675602 -68.84 0.0006325573    1.974    0.493
       491  -8.3501     95.6314     38.1429   5.4853566028e+01   5.5152703818e+01    0.1947121    0.1614806 -49.73 0.0007621227    1.436    0.304
       492  -8.2623     80.7076     36.5958   5.8754094713e+01   5.8448458777e+01    0.2065966    0.1590334 -53.03 0.0007747945    1.719    0.418
       493  -8.1800    126.0056     35.4726   4.6634314758e+01   4.8654831105e+01    0.1877464    0.1783971 -36.73 0.0004191376    1.169    0.145
       494  -9.4483     26.1307     35.3697   8.0752087393e+01   6.7360329629e+01    0.2485765    0.2178692 -45.09  0.000940215    1.493    0.330
       495  -8.6380    111.8252     34.7086   4.9500831656e+01   5.2008079883e+01    0.2518856    0.1791148 -45.36 0.0008425919    1.604    0.377
       496  -8.8394    249.3499    248.4118   7.1116422608e+01  -1.1799950630e+01    0.2977166    0.1217892 -32.59  0.001596742    2.097    0.523
       497  -8.8353     48.5198     32.9451   6.9267315167e+01   6.4713012834e+01    0.2091489     0.196236  47.53 0.0009066399    1.474    0.321
       498  -8.9086     72.1841     30.9912   5.9377732630e+01   6.0842424478e+01    0.1777101    0.1750538  70.93  0.000638708    1.306    0.234
       499  -9.4636     13.0278     30.1047   8.5531886725e+01   6.9561853028e+01    0.2521206    0.1627682 -50.95 0.0009987071    1.783    0.439
       500  -8.1154    101.4987     29.0901   5.0058515981e+01   5.4982728569e+01    0.1778304     0.130347 -28.90 0.0005582551    1.520    0.342
       501  -8.8130     81.6501     27.3605   5.4891781942e+01   5.9408125225e+01    0.2421549     0.202447 -79.57 0.0007376493    1.722    0.419
       502  -9.3517      3.7330     27.3502   8.9689427716e+01   7.0783547977e+01    0.2132064    0.1769271 -59.82 0.0009198709    1.701    0.412
       503  -9.0238     91.8702     26.2650   5.1538445397e+01   5.7395823930e+01    0.2575207    0.1732896 -46.07 0.0009051484    1.845    0.458
       504  -8.2988    183.0238     23.5009   3.4587227625e+01   3.6767852051e+01    0.1877441   0.09135171 -82.09 0.0008102423    2.603    0.616
       505  -8.3771    104.5020     22.9865   4.7177341020e+01   5.4983848767e+01    0.1697318    0.1008417 -54.74 0.0006264824    2.357    0.576
       506  -8.4579     34.6632     23.3016   7.1325135302e+01   6.8103531416e+01    0.1575923    0.1487072  61.35 0.0008217072    1.744    0.427
       507  -8.8673     63.6245     21.0743   5.8250352147e+01   6.3643824598e+01    0.2403071    0.1981651 -52.16 0.0009293766    1.728    0.421
       508  -8.6628     48.3383     21.6418   6.4419629812e+01   6.6249133037e+01    0.1892674    0.1744075   4.02 0.0007944946    1.264    0.209
       509  -8.7694     60.7065     32.4127   6.4105907159e+01   6.2766170378e+01    0.2053692    0.1524004 -40.15 0.0006279495    1.595    0.373
       510  -9.4215    248.6256    242.0483   7.0200188922e+01  -1.0859238202e+01    0.2864433    0.1745867 -38.69  0.001045617    1.697    0.411
       511  -8.3387     38.6813     18.1725   6.7063386752e+01   6.8190239450e+01    0.1688293      0.14048 -26.79 0.0008004616    1.402    0.287
       512  -7.9688     87.9893     17.3272   4.9197211995e+01   5.9160754172e+01    0.1745012    0.1455555  47.54  0.001112141    1.052    0.049
       513  -7.3482    112.7051     16.6759   4.3228371623e+01   5.3760918688e+01    0.1313138   0.08564401  35.84 0.0002013168    1.621    0.383
       514  -8.2253     30.3782     16.2090   7.0097281846e+01   6.9627603684e+01    0.1495431    0.1035486 -37.19 0.0006529213    1.700    0.412
       515  -8.1617     97.3598     15.2218   4.6064807204e+01   5.7335470182e+01    0.1630374    0.1133123 -37.70 0.0005389125    1.685    0.407
       516  -8.3691      7.4334     15.1984   8.2257785977e+01   7.2401811237e+01    0.1435963    0.1014485 -46.07 0.0009468622    1.756    0.430
       517  -9.0172    190.0269     14.0568   3.1661878270e+01   3.6235133735e+01    0.2075018    0.1174383 -67.55 0.0009291375    1.719    0.418
       518  -8.8678     74.1902     19.5126   5.4057301856e+01   6.1781470614e+01    0.2287064    0.1816685 -54.87 0.0006539676    1.770    0.435
       519  -8.1720    191.4878    249.5298   8.2013315116e+01  -5.0774812819e+00    0.1235493    0.1037633   9.27 0.0006209487    1.091    0.083
       520  -7.8698     47.7180     10.3223   5.9433125355e+01   6.7628489021e+01   0.09939094   0.09649093 -73.76 0.0003062293    1.591    0.371
       521  -8.2025    113.2801    248.7377   9.8463735811e+01   6.1607043227e+00    0.2331208    0.1206741 -68.79  0.001051796    2.712    0.631
       522  -9.3046    103.7985    246.7745   1.0030993168e+02   7.9060594115e+00    0.4217403    0.2429311 -86.44  0.001619533    2.923    0.658
       523  -8.3953     93.8449    249.2552   1.0277589848e+02   8.8254306530e+00    0.2213939    0.1129154  62.39 0.0009407211    2.745    0.636
       524  -9.3009     64.7861    248.7458   1.0899942771e+02   1.2841041500e+01    0.2421172    0.1723989  49.14 0.0007777321    1.186    0.157
       525  -9.3046     40.8701    247.5208   1.1391554426e+02   1.6029634321e+01    0.3291087    0.1487963 -88.60  0.001537347    2.593    0.614
       526  -8.5021    218.6751    247.5085   7.6442938172e+01  -8.2140735890e+00    0.2687676    0.1313953 -40.58  0.001130942    2.085    0.520
       527  -9.0126    175.5552    247.2686   8.4894229735e+01  -2.5515643865e+00    0.2866622    0.2291092  79.80  0.001063757    2.345    0.574
