#   1 NUMBER                 Running object number                                     
#   2 MAG_AUTO               Kron-like elliptical aperture magnitude                    [mag]
#   3 X_IMAGE                Object position along x                                    [pixel]
#   4 Y_IMAGE                Object position along y                                    [pixel]
#   5 X_WORLD                Barycenter position along world x axis                     [deg]
#   6 Y_WORLD                Barycenter position along world y axis                     [deg]
#   7 A_WORLD                Profile RMS along major axis (world units)                 [deg]
#   8 B_WORLD                Profile RMS along minor axis (world units)                 [deg]
#   9 THETA_WORLD            Position angle (CCW/world-x)                               [deg]
#  10 FWHM_WORLD             FWHM assuming a gaussian core                              [deg]
#  11 ELONGATION             A_IMAGE/B_IMAGE                                           
#  12 ELLIPTICITY            1 - B_IMAGE/A_IMAGE                                       
         1 -13.8265    235.7908     55.7185   4.2067771981e+01   2.0262118018e+01     1.797861    0.7312968 -44.34     0.002017    2.071    0.517
         2 -15.4530    244.2515     62.4171   4.2613308970e+01   1.7536874956e+01     4.846946     4.328355  38.03   0.01559057    1.499    0.333
         3 -13.8933    245.9275     28.3877   3.5270310550e+01   2.1834768114e+01      3.11113     1.200929 -64.07   0.01268911    3.165    0.684
         4  -9.7159    197.7841     20.1591   3.7886514021e+01   3.3439875132e+01    0.4154242    0.2532753  60.60   0.00223298    1.609    0.378
         5  -8.8573    192.5666     10.4455   3.6035458705e+01   3.5718322271e+01    0.3151189    0.1989173  82.90 0.0009334974    1.422    0.297
         6  -8.8380    205.8536      8.6684   3.4361274101e+01   3.2821023603e+01    0.2320279    0.1855476  12.00  0.001085867    1.913    0.477
         7  -7.9186    181.3330      5.2999   3.5884991552e+01   3.8888949165e+01      0.12678   0.08716333  47.69 0.0002048927    1.651    0.394
         8  -7.5930    238.2223      1.3496   3.0349667717e+01   2.6528721293e+01    0.1494484   0.08875109 -84.91 0.0002257869    1.468    0.319
         9  -8.9913    194.6928    199.3605   8.0759509789e+01   2.9320092679e+00    0.2006053    0.1716605  75.61  0.001106309    1.750    0.429
        10  -9.2645    191.3887    191.9119   8.0018464215e+01   4.8477168921e+00    0.4989323    0.1843362 -50.29  0.001707167    3.552    0.718
        11  -7.4316    181.5533    192.8178   8.2254375035e+01   6.4110912400e+00    0.1823874    0.1360455 -55.30 0.0006941922    1.618    0.382
        12  -7.2972    166.6979    189.3358   8.4816914402e+01   9.7655132348e+00    0.1407182    0.1163858  80.50 0.0003547743    1.662    0.398
        13  -8.6011    237.6011    187.7810   7.0359581409e+01  -2.0514204571e+00    0.1822109    0.1114894 -42.45 0.0007290626    1.676    0.403
        14 -10.4364    245.5449    166.2611   6.4718132450e+01   2.1706113705e-01    0.5189782     0.260554 -45.69  0.002422757    2.055    0.513
        15 -10.1754    244.5118    172.9970   6.6248041855e+01  -7.2453881702e-01    0.3440106    0.1967795 -39.36  0.001778656    1.584    0.369
        16  -8.3756    176.8937    171.2331   7.8952955390e+01   1.1516758142e+01    0.2517331    0.2078982 -68.63 0.0007422245    1.528    0.346
        17  -7.8395    224.3602    170.9064   6.9353030576e+01   2.9125346146e+00    0.1992415     0.113739 -27.43 0.0005064118    1.753    0.430
        18  -8.8251    229.4208    167.4420   6.7726494275e+01   2.6571499469e+00    0.3890543    0.2232434 -56.66   0.00164853    2.725    0.633
        19  -8.8372    196.3338    165.4935   7.3628276563e+01   8.9501207723e+00      0.27547    0.1294714 -41.21  0.001107231    2.044    0.511
        20  -9.6108    232.5442    151.4228   6.3819209568e+01   4.9140810076e+00    0.2594896    0.2269922 -23.67  0.000538725    1.012    0.012
        21  -9.8243    234.7834    146.8487   6.2464469411e+01   5.3211877173e+00    0.3167514    0.2469186  29.48   0.00141933    1.430    0.301
        22  -9.4400    235.7917    138.6275   6.0528918976e+01   6.5807992793e+00     0.340675    0.1912167  45.34  0.001302007    2.026    0.506
        23  -9.7224    247.6979    159.8953   6.3069466958e+01   9.2507898453e-01    0.5028613    0.2872549 -54.40  0.002308605    2.454    0.593
        24  -9.8351    243.5559    135.1784   5.8552107363e+01   5.7945159898e+00    0.5209219    0.3287696  45.43   0.00272873    1.837    0.456
        25 -11.5178    248.9684    145.6685   5.9927860003e+01   3.0887082864e+00      1.46119    0.5097725 -37.89  0.005500793    2.436    0.589
        26 -10.3964    240.1174    143.0910   6.0785767605e+01   5.0373042453e+00    0.6939489    0.2995481 -27.63  0.002622474    2.850    0.649
        27  -9.0698    249.0108    129.7990   5.6578511963e+01   5.7519313448e+00    0.3043455    0.2653543 -62.55   0.00188049    1.307    0.235
        28 -10.0684    241.6045    127.6107   5.7223493832e+01   7.4428445910e+00    0.6589067    0.4496208  73.07  0.003283141    2.238    0.553
        29 -10.3913     17.0612    159.0161   1.1766897815e+02   3.9494347922e+01    0.5701112    0.2811471 -43.86  0.002659818    2.556    0.609
        30 -11.6923     13.2906    155.4148   1.1828617804e+02   4.0685023626e+01    0.8012104    0.6611911 -63.83  0.004712715    1.211    0.174
        31  -9.2399    236.6525    159.8307   6.4888772677e+01   2.7494494924e+00    0.3502315    0.2249113   2.94  0.001647576    2.195    0.544
        32  -9.0536    188.6237    155.8528   7.3129401411e+01   1.2340671196e+01    0.5473965    0.2960568  56.24  0.002131843    2.499    0.600
        33  -8.5697    191.7708    152.9832   7.1838617257e+01   1.2290829646e+01    0.2597377    0.2136624 -48.79 0.0007690252    1.252    0.201
        34  -9.2985    133.2827    148.3636   8.4370911932e+01   2.5199081164e+01     0.671877     0.263621 -51.06  0.002258589    2.587    0.614
        35  -8.2753    131.6827    141.3110   8.3189602832e+01   2.7173226296e+01    0.2783459    0.2486616  -3.38 0.0007315187    1.259    0.206
        36  -8.8130    130.3449    137.9659   8.2763264664e+01   2.8229543908e+01    0.2839729    0.2577746  67.77 0.0003243203    1.174    0.148
        37  -7.3007    143.6526    148.3417   8.1743620652e+01   2.3109757839e+01    0.1638224    0.1253911  84.16 0.0002703308    1.794    0.442
        38 -10.7983     67.7992    143.4817   1.0153571231e+02   3.7779195835e+01     1.471545    0.7138502 -63.24  0.006077652    1.941    0.485
        39 -10.3679     43.1653    145.8524   1.0902418213e+02   4.0248328798e+01    0.3729243    0.2987207   2.46 0.0009516118    1.625    0.385
        40 -12.2791     53.8476    141.9893   1.0534750584e+02   3.9987731821e+01     1.527436     1.093214 -12.09  0.007502119    1.999    0.500
        41  -9.4940    187.1331    139.0733   6.9627945729e+01   1.6034014274e+01    0.4638089    0.2253818 -36.99  0.001168238    2.061    0.515
        42  -7.9675    143.4038    138.2590   7.9475677460e+01   2.5464194037e+01     0.226669    0.1492114 -57.67 0.0009464545    1.668    0.401
        43  -7.3143    177.7136    147.2872   7.3537219311e+01   1.6299492456e+01    0.1455492     0.122192 -83.85 0.0002462519    1.531    0.347
        44  -7.3481    192.2507    135.6537   6.7778642032e+01   1.5654193610e+01    0.1491457    0.1154013 -66.18 0.0002516779    1.583    0.368
        45  -8.2884    212.4704    123.0239   6.0987616790e+01   1.3901924999e+01    0.2157925    0.2013152 -88.04 0.0003686765    1.205    0.170
        46  -8.2970    216.3944    125.6959   6.0916227741e+01   1.2609920583e+01    0.2692971    0.2037064  65.50  0.001266616    1.626    0.385
        47  -9.2218    221.0731    129.0557   6.0872850937e+01   1.1064013402e+01    0.3877172    0.2581121  68.08  0.001330007    2.130    0.530
        48  -9.0691    160.1256    130.2112   7.3467985125e+01   2.3679161863e+01    0.4096706    0.2789781 -47.00  0.001567254    1.448    0.309
        49  -9.3280    186.7865    129.2309   6.7368153335e+01   1.8099154735e+01    0.2712993    0.1972256  49.77  0.001018155    1.459    0.315
        50  -7.5444    142.6565    129.7029   7.7596509205e+01   2.7567787001e+01    0.1617676    0.1268615   0.31 0.0003360602    1.669    0.401
        51  -7.8074    209.3061    127.3720   6.2566809174e+01   1.3733958565e+01    0.1919902     0.140908  63.50 0.0009310885    1.662    0.398
        52 -13.1352    217.1885     78.6476   4.9696327038e+01   2.0740223461e+01     2.380334    0.7734618  61.75  0.002055169    3.558    0.719
        53  -7.2853     90.7861    248.0747   1.0990636159e+02   1.0666154685e+01    0.1374356   0.09752042 -74.04  0.000328628    1.587    0.370
        54  -8.5388    202.9723    245.0461   8.6985592534e+01  -5.6611677230e+00    0.1788204     0.146979  15.07 0.0003210831    1.068    0.063
        55  -9.8594    133.9022    120.8191   7.7620343417e+01   3.1457031695e+01    0.5956267    0.3033109  49.00  0.002234093    2.075    0.518
        56  -8.1120    202.0095    228.0115   8.4399896479e+01  -2.9979062533e+00    0.1784758    0.1555496  57.26 0.0006638345    1.655    0.396
        57  -8.9270    182.0007    120.2872   6.6174309810e+01   2.0946287041e+01    0.2146224    0.2028792  60.73 0.0006941258    1.117    0.104
        58  -7.4430    157.2788    120.6687   7.1749132485e+01   2.6369466918e+01     0.158361    0.1249199 -77.94 0.0003127805    1.603    0.376
        59  -7.5677    162.3634    119.1503   7.0178057186e+01   2.5558494254e+01    0.2315582    0.1415632 -52.52 0.0008902789    1.736    0.424
        60  -9.6266    231.8837    116.5877   5.6292144106e+01   1.1185932716e+01    0.4485419    0.2846744 -38.72  0.002254429    1.381    0.276
        61  -7.8914    109.9006    117.4637   8.3397389746e+01   3.7170746663e+01    0.2376361    0.2014095 -46.98 0.0004328684    1.146    0.128
        62  -9.5484    211.2495    113.3141   5.8921040225e+01   1.5956081749e+01    0.3828848    0.2467888 -34.97  0.001283423    1.475    0.322
        63  -8.9675    126.8088    114.0634   7.7758240495e+01   3.4502319790e+01    0.3960173    0.2318983  34.65  0.001571421    1.905    0.475
        64 -11.1888    190.7868    109.7888   6.1800739001e+01   2.1065702256e+01    0.8403288    0.6264538 -37.32  0.001691346    1.289    0.224
        65  -9.7519    186.2065    101.1295   6.0493503401e+01   2.3758757520e+01    0.4424403    0.3437379 -21.71  0.002143993    1.467    0.318
        66 -10.0944    204.9392    110.5455   5.9365681124e+01   1.7814158953e+01    0.5067181    0.2881547  41.42  0.002183145    2.037    0.509
        67  -9.4833    226.4566    122.0194   5.8379789417e+01   1.1282257542e+01    0.5436044    0.2506625 -34.72    0.0022396    2.057    0.514
        68 -11.0087    134.5129    108.9164   7.4322005142e+01   3.3984590054e+01     0.897629    0.3772498 -43.18  0.003104844    2.355    0.575
        69  -9.8718    114.5791    108.7517   7.9758097710e+01   3.8259077687e+01    0.5660281    0.3562608 -75.26  0.002033054    2.781    0.640
        70  -7.3906    151.4693    110.5286   7.0492838952e+01   2.9843660441e+01    0.1569244    0.1531218 -61.13 0.0003860144    1.024    0.024
        71  -9.4293    216.6281    117.1083   5.8889971089e+01   1.4141523228e+01    0.2818401    0.2583194  69.86 0.0007835238    1.223    0.182
        72  -8.8727    226.6820    115.1585   5.6787504453e+01   1.2460899941e+01    0.3616432    0.1730657 -40.57  0.001117901    1.836    0.455
        73  -8.4976    146.8425    106.0454   7.0412299578e+01   3.1843371728e+01    0.2701997    0.2304421  52.87 0.0005186754    1.200    0.167
        74 -10.8342    112.3727     97.2225   7.7188546027e+01   4.1290064333e+01    0.8818166    0.5153804  30.93  0.003531029    2.025    0.506
        75  -9.7508    112.5183    102.6432   7.8679162215e+01   4.0060757622e+01    0.3720512    0.2074244  46.80  0.001494722    1.869    0.465
        76  -9.8626    118.1778    105.2845   7.7784834333e+01   3.8299269035e+01    0.3957532    0.3484036 -66.47  0.001986923    1.225    0.184
        77 -10.6388    120.9502     99.9526   7.5513737327e+01   3.8890162201e+01    0.7074519    0.3792131 -47.01  0.002795485    1.857    0.462
        78  -8.2267    199.0400    111.5320   6.0674396379e+01   1.8909592282e+01    0.2270579    0.1842792 -42.12 6.895661e-05    1.149    0.129
        79 -10.4862    125.3755    104.8105   7.5647495303e+01   3.6876792863e+01    0.4563257    0.3753361 -39.83  0.001176217    1.204    0.170
        80  -9.5010    156.5474    102.4436   6.7120652424e+01   3.0364233210e+01    0.4102105    0.3940012  -1.82  0.002143836    1.099    0.090
        81 -11.2306    131.0654     94.8592   7.1302135903e+01   3.7759505873e+01    0.8605419    0.5411873 -47.17  0.002238141    1.604    0.377
        82  -9.5670    140.1871     96.0915   6.9301977402e+01   3.5438374269e+01    0.2654648    0.2250983  45.74 0.0004869848    1.189    0.159
        83  -7.5450    206.6663    123.6480   6.2177751192e+01   1.4983170845e+01    0.1528421    0.1147807  -0.36 0.0007046172    1.784    0.439
        84  -8.9198    197.0642     97.8837   5.7654143731e+01   2.1895762440e+01    0.2514102    0.2124969 -29.97 0.0003981306    1.214    0.176
        85  -9.3516    178.5793     93.7750   6.0067661053e+01   2.6914998650e+01    0.3023739    0.2600417 -71.45 0.0003552047    1.231    0.188
        86  -8.9749    164.8918     94.5038   6.3091831154e+01   2.9994271084e+01    0.2322923     0.153016  53.27  0.001018452    1.548    0.354
        87  -9.9258    155.4502     93.0564   6.4787205481e+01   3.2500572247e+01    0.5833681    0.3508367  26.58   0.00216124    2.571    0.611
        88  -8.0524    116.0973     90.8574   7.4253727127e+01   4.1873318806e+01    0.2290825    0.2112835 -81.60 0.0005200615    1.218    0.179
        89  -9.5391     95.5310     89.5212   8.0073453592e+01   4.6314797462e+01    0.2681839    0.2610154  -8.18 0.0001460646    1.032    0.031
        90  -9.7482    149.7540     89.0373   6.4967597180e+01   3.4627322523e+01    0.5503587    0.2062892  43.31  0.001771624    2.935    0.659
        91  -7.4698    137.5861     80.7674   6.5477652990e+01   3.9074344046e+01    0.2070723    0.1432738 -50.62 0.0007201766    1.533    0.348
        92  -8.3307    157.9097     75.6609   5.9295984915e+01   3.5167101713e+01    0.2786954    0.1829699 -49.82  0.001117679    1.584    0.369
        93  -7.5818    127.3186     76.6512   6.6843644190e+01   4.2225576503e+01    0.1570891    0.1215073 -78.36 0.0007048334    1.734    0.423
        94  -9.0545    192.6551     71.6943   5.1716084933e+01   2.7487433839e+01    0.3706954    0.2470198 -32.15  0.001056344    1.569    0.363
        95  -8.5561    168.1791     68.0518   5.5049435445e+01   3.3977917584e+01    0.2185351    0.1974664  19.04  0.000528944    1.287    0.223
        96  -7.8024    138.6348     68.2494   6.1405784941e+01   4.1101956565e+01    0.2066225    0.1437156 -24.34 0.0003831691    1.642    0.391
        97  -8.4351    157.8307     63.0173   5.5624409769e+01   3.7332566393e+01    0.3928137    0.1585679 -36.13  0.001437245    2.501    0.600
        98  -7.9117    169.9805    122.7279   6.9362816034e+01   2.3107597584e+01     0.193969    0.1382185  46.47 0.0004926307    1.448    0.309
        99  -7.8558    163.7643     64.4286   5.4864493003e+01   3.5651368272e+01    0.2002157    0.1348435  48.69 0.0002715605    1.503    0.335
       100  -8.2020    136.6528     62.9250   6.0212310155e+01   4.2479729099e+01     0.284023    0.1440923 -27.25  0.001084234    2.387    0.581
       101  -8.4548    192.1028     57.6378   4.8144034927e+01   2.9837687788e+01    0.2627116    0.2047995 -36.32 0.0009839297    1.314    0.239
       102  -9.0221    181.5680     57.0853   4.9645859985e+01   3.2457477406e+01    0.2819393    0.2236895 -53.04 0.0006396364    1.230    0.187
       103  -8.3194    128.4850     57.4540   6.0423289139e+01   4.5311140732e+01     0.145725    0.1397465  46.96 0.0001464674    1.013    0.013
       104  -9.9310    158.4846     49.5921   5.1528754923e+01   3.9233259879e+01    0.4104438    0.3041743  87.54  0.001618025    1.513    0.339
       105  -8.8326    204.7811     42.7275   4.2631754441e+01   2.8983236170e+01    0.2870042    0.2083302 -30.87  0.001220944    1.507    0.336
       106  -9.1273    199.2295     46.6354   4.4313682486e+01   2.9745614436e+01    0.3671824    0.2361612 -53.90  0.001869507    1.498    0.332
       107  -9.7390    205.5712     47.0034   4.3584624151e+01   2.8209801984e+01    0.3503408     0.270211 -65.27 0.0008013156    1.209    0.173
       108  -8.7549    131.9857     45.4576   5.5657176705e+01   4.6296821422e+01    0.2183399     0.188291 -30.40  0.000361201    1.231    0.188
       109  -7.4800    126.1515     44.2126   5.6585176396e+01   4.7862980478e+01    0.1891248    0.1644852 -70.93  0.000430395    1.327    0.247
       110  -8.9781    182.0208     41.3632   4.5324364996e+01   3.4595967707e+01    0.2426419    0.1931142 -43.17 0.0004696789    1.268    0.211
       111  -9.4393    132.6225     39.4700   5.3538508757e+01   4.6967740621e+01    0.3766032    0.1366025 -30.65  0.001376935    2.960    0.662
       112  -9.2082    154.5157     39.5199   4.9238082272e+01   4.1607212835e+01    0.3427722    0.2045345 -74.39  0.001424383    2.449    0.592
       113  -9.5817    158.0457     38.3694   4.8272195655e+01   4.0886277363e+01     0.472592    0.2743998  84.39  0.002028166    2.186    0.543
       114  -8.1924    191.2872     36.4075   4.2745390988e+01   3.3011123659e+01    0.3353146    0.1645624  49.26  0.001461552    2.306    0.566
       115  -8.9540    125.2876     31.7284   5.2528226086e+01   4.9711314417e+01    0.2471029    0.2092294  37.31 0.0002071048    1.152    0.132
       116  -8.0988    204.4554     28.8909   3.9293639867e+01   3.0849064349e+01    0.2101002    0.1917791   1.08  0.001078101    1.465    0.318
       117  -8.9221    206.7812     22.7539   3.7577546321e+01   3.1047700738e+01    0.4056083    0.2900116   8.93  0.001352969    2.409    0.585
       118  -8.6747    168.8424     25.7443   4.2919128847e+01   3.9772502630e+01     0.445183     0.207982 -15.56   0.00170621    3.459    0.711
       119  -8.6652    170.2356     20.6129   4.1292566117e+01   4.0007741597e+01    0.2723112    0.1936987 -13.63  0.001464126    1.815    0.449
       120 -10.3895    221.8366    221.3708   7.9472540194e+01  -4.9226263949e+00    0.2258283    0.1858603   5.75  0.000275909    1.041    0.039
       121  -8.2131    140.5340    122.5270   7.6338050683e+01   2.9643799338e+01     0.272139    0.1508511  55.22 0.0009407875    2.117    0.528
       122  -7.2924    155.2839     15.3360   4.1862944046e+01   4.4224039106e+01    0.1329691   0.09359206  37.85 0.0007012056    1.623    0.384
       123  -8.2208    190.9790    221.8545   8.5540858412e+01  -3.1273136456e-01    0.3573171     0.157906  30.56  0.001309169    2.216    0.549
       124  -8.0856    191.8877    212.8352   8.3790257971e+01   1.0513409630e+00    0.2033761    0.1624935   7.04 0.0003989771    1.181    0.153
       125  -7.4228    124.0264    205.9890   9.7422101770e+01   1.3878505357e+01    0.1649294    0.1437875  42.74 0.0009363043    1.055    0.052
