#   1 NUMBER                 Running object number                                     
#   2 MAG_AUTO               Kron-like elliptical aperture magnitude                    [mag]
#   3 X_IMAGE                Object position along x                                    [pixel]
#   4 Y_IMAGE                Object position along y                                    [pixel]
#   5 X_WORLD                Barycenter position along world x axis                     [deg]
#   6 Y_WORLD                Barycenter position along world y axis                     [deg]
#   7 A_WORLD                Profile RMS along major axis (world units)                 [deg]
#   8 B_WORLD                Profile RMS along minor axis (world units)                 [deg]
#   9 THETA_WORLD            Position angle (CCW/world-x)                               [deg]
#  10 FWHM_WORLD             FWHM assuming a gaussian core                              [deg]
#  11 ELONGATION             A_IMAGE/B_IMAGE                                           
#  12 ELLIPTICITY            1 - B_IMAGE/A_IMAGE                                       
         1 -14.0390    248.7038     62.6599   2.6983312455e+01   1.7968288566e+01     2.222847    0.3150494 -30.69  0.006984206    5.080    0.803
         2 -15.6063    246.5583    166.6456   4.7892996274e+01   5.4892978248e+00     3.122977    0.8082817 -31.20   0.01325565    3.394    0.705
         3 -14.7633    249.2242    111.7239   3.7153095468e+01   1.1899501300e+01      3.16019    0.3573501 -32.02  0.008176928    7.680    0.870
         4 -16.8510    141.4286    167.8207   6.7545438652e+01   2.0770079371e+01     3.799766     3.000718 -49.84    0.0194261    1.461    0.316
         5 -16.1795    201.4863     67.4913   3.3156689048e+01   2.6270683570e+01     3.556391     1.419921 -47.52   0.01429465    2.614    0.617
         6 -14.6020    167.7980     22.5519   2.4815034476e+01   3.9748718026e+01     2.329351    0.6923426 -34.61  0.008646745    2.798    0.643
         7 -14.7550    152.5352      8.4343   2.1984852533e+01   4.5088439673e+01     1.189554     0.944486  72.14  0.006534585    1.205    0.170
         8 -13.1722    227.7881     22.9864   1.9719431858e+01   2.6245807325e+01    0.6074898    0.4539856 -84.10  0.004011915    1.387    0.279
         9 -14.7199    209.1447     25.1479   2.1598636396e+01   2.9861787211e+01     1.412336     0.816966 -75.96  0.006028005    1.891    0.471
        10 -13.3555    203.3558     12.5169   1.8802405280e+01   3.2429375167e+01    0.7546785    0.4975174 -82.54  0.003547727    1.497    0.332
        11 -13.0218     97.9948     25.0051   3.8209908864e+01   5.7628655918e+01    0.4939135    0.2967655  50.93   0.00222976    1.558    0.358
        12 -12.7560    245.1765     14.1000   1.6716078010e+01   2.3819247550e+01    0.6332895     0.202056 -43.41  0.003141813    2.194    0.544
        13 -13.0582     43.7467      7.1868   4.9845371266e+01   7.2784075823e+01    0.5381229    0.3749126  36.03  0.002153463    1.344    0.256
        14 -13.3548     92.0480      3.2625   2.9301336318e+01   6.1670469128e+01    0.5312685    0.2438278  65.09  0.002231963    1.909    0.476
        15 -14.8721    112.0613      4.0921   2.5777814645e+01   5.6251570089e+01     1.705006    0.6186735  70.38  0.006355846    2.460    0.594
        16 -14.2849    145.1705      4.0058   2.1266166683e+01   4.7415992438e+01     1.029633    0.5971447  85.95   0.00492718    1.656    0.396
        17 -12.7396    232.1596      2.5627   1.4782269196e+01   2.7373208376e+01    0.6016625    0.2554214  87.23  0.003106631    2.550    0.608
        18 -12.2525     74.3498      3.0501   3.3873234096e+01   6.6259064609e+01    0.2937565    0.2205169  45.06  0.001396501    1.233    0.189
        19 -11.7525     21.5003      2.4042   6.2695349781e+01   7.7422759521e+01    0.4109668    0.2512684  16.77  0.002100221    1.809    0.447
        20 -11.8195     61.5980      1.6646   3.7431753728e+01   6.9526633364e+01    0.2819331    0.1654999  61.68  0.001347755    1.621    0.383
        21 -12.9300     83.2745      4.0504   3.1872974026e+01   6.3885942797e+01    0.4170048    0.3673403  38.39  0.001829763    1.124    0.110
        22 -14.5754     34.8122    167.7928   9.6455509203e+01   3.5585617431e+01      1.29535    0.7731178 -45.99  0.005570419    2.092    0.522
        23 -14.5795    244.8445    247.0727   6.0606466536e+01  -2.9023848692e+00    0.8317555    0.3749371  15.96  0.005591572    1.835    0.455
        24 -14.1704    247.7536    230.3367   5.7862806680e+01  -1.5831129293e+00    0.7963873    0.3552234 -21.39  0.004161113    1.967    0.492
        25 -11.1987    195.0280    249.6527   6.8952287652e+01   1.7596085148e+00    0.1970761     0.127924 -11.47   0.00145379    1.425    0.298
        26 -13.0193    161.6640    249.2052   7.4932152072e+01   5.4775446947e+00    0.8166735    0.2685426  28.40  0.004056373    2.331    0.571
        27 -14.7233    175.7134    234.3206   7.0457338079e+01   5.7159338626e+00     1.414924    0.9044931 -22.55  0.007628803    1.636    0.389
        28 -13.7412    167.6375    210.5399   6.8737850121e+01   9.9214951992e+00    0.8091341    0.4902517 -48.84  0.004420541    2.208    0.547
        29 -13.0014    163.3667    202.1015   6.8347920606e+01   1.1737598423e+01    0.4672615    0.2697411 -39.47  0.002637621    1.907    0.476
        30 -14.1027     99.0605    245.6173   8.7116846947e+01   1.3211044988e+01    0.7326023    0.5267867  26.72  0.003347751    1.068    0.064
        31 -15.3379    116.5649    244.2832   8.3339639665e+01   1.1380425030e+01     1.473977    0.7256758  32.01  0.006679169    1.495    0.331
        32 -14.1497    136.5585    229.7472   7.7616004019e+01   1.1101719436e+01     1.091529    0.4878925  24.01  0.004354697    1.951    0.487
        33 -12.8429     59.1620    250.2978   9.5859512312e+01   1.6820124986e+01    0.7788252    0.1218827  27.06  0.002609908    4.860    0.794
        34 -14.9739     19.4849    203.3716   1.0251785765e+02   2.9203364307e+01     1.091519    0.5895493  57.66    0.0055871    1.579    0.367
        35 -15.9231     13.8583    217.5131   1.0433490310e+02   2.6886978482e+01     1.327897    0.5339431  50.37  0.006698391    1.870    0.465
        36 -17.5060     16.7134    245.9423   1.0452384151e+02   2.1534019230e+01     2.643528     1.526641  -5.35   0.01394164    3.087    0.676
        37 -17.3944      4.9817    231.7427   1.0664553572e+02   2.4967764206e+01      2.17749    0.8839436 -85.19   0.01221385    2.715    0.632
        38 -14.0974     27.3862    168.3615   9.8638433372e+01   3.6152605828e+01    0.6948839    0.4713537 -24.70  0.002437282    2.053    0.513
        39 -12.5252      1.5906    172.9774   1.0606650172e+02   3.7123294774e+01    0.4768416    0.1796877 -86.53  0.001848904    2.585    0.613
        40 -13.6116      1.9447    161.5242   1.0562486358e+02   3.9728332991e+01     1.031451    0.2028933 -80.43  0.003421527    4.610    0.783
        41  -9.7514     65.6487    166.6933   8.7406606350e+01   3.2367368922e+01     0.137412    0.1044476 -18.26 0.0007042588    1.710    0.415
        42 -13.5129    214.4568    154.6339   5.0564604376e+01   1.1368612480e+01    0.5873342    0.5644311  10.66  0.004226175    1.376    0.273
        43 -13.3703    199.3171    229.1949   6.5493768464e+01   3.6137275058e+00    0.5564606    0.3822533  14.41  0.003223979    1.096    0.087
        44 -13.2090     68.2336    148.3992   8.4277204642e+01   3.6333490695e+01    0.8106586    0.4868698 -56.29  0.002815985    1.756    0.431
        45 -10.5157     83.4958    150.3215   7.9925737126e+01   3.3699584955e+01    0.2625547    0.1256538  30.85  0.001069456    1.953    0.488
        46 -13.8433      6.2320    141.5742   1.0354936042e+02   4.4259761028e+01    0.5753849    0.4153865  71.39  0.002780359    1.237    0.192
        47 -10.8687     88.3457    134.8518   7.5798967322e+01   3.6586892968e+01    0.1974933    0.1865327 -43.19 0.0006979677    1.131    0.116
        48 -14.6302      2.6440    122.4726   1.0383663152e+02   4.9285540185e+01     2.363556    0.2669444 -84.14  0.005019339    9.259    0.892
        49 -14.1020      7.5518     96.2008   1.0017002449e+02   5.5889200288e+01    0.7382472    0.4847145 -64.36  0.003884556    1.417    0.294
        50 -12.3225     69.5708    118.8656   7.8962360290e+01   4.3455673408e+01    0.4360829    0.3021064 -21.09  0.001920079    1.993    0.498
        51  -9.7823     32.2992    118.2866   9.2542286918e+01   4.8206824142e+01    0.1396599    0.1030967 -37.14 0.0002009725    1.554    0.356
        52 -13.3250    141.1816    106.3143   5.4434296254e+01   3.2794625945e+01     1.299918    0.6171011 -40.84  0.005106781    2.130    0.530
        53 -14.0433    113.4448    107.0261   6.2012256408e+01   3.8419531582e+01     1.212247    0.8411072 -41.14  0.004590821    1.507    0.336
        54 -13.6843     96.8435     93.4675   6.3566833593e+01   4.4825173678e+01     1.623231    0.5201004 -54.39  0.004671913    3.796    0.737
        55 -12.7846    123.3261     93.3831   5.5563590817e+01   3.9246683032e+01    0.7785983     0.423717  64.47  0.002704989    2.906    0.656
        56 -11.7143     22.5121     92.6610   9.3211745251e+01   5.5861433841e+01    0.3337145    0.2303139 -51.69  0.001485114    1.428    0.300
        57 -15.2356    210.2023    220.7040   6.2405355359e+01   3.3740837004e+00     1.656881    0.8999211  13.09  0.008131851    1.656    0.396
        58 -13.9259    231.6752     80.5067   3.2584217416e+01   1.8728776277e+01    0.9023091    0.5468419 -78.28  0.004375093    2.995    0.666
        59 -13.6506     65.7710     72.1720   6.8984306724e+01   5.5711939710e+01    0.7906618    0.5080661 -73.88  0.003282998    2.110    0.526
        60 -13.0794     58.8049     63.4977   6.9289611615e+01   5.8959010954e+01    0.5852712    0.3909159  42.03  0.002719648    1.506    0.336
        61 -13.5908     54.6348     55.6697   6.8554900542e+01   6.1474974361e+01    0.8170301    0.3953733 -48.70  0.003298377    2.035    0.509
        62 -12.5702     44.9594     58.0702   7.4330923989e+01   6.2398155223e+01    0.6764039    0.5421477  57.50  0.003504496    1.425    0.298
        63 -12.8221      2.0953     52.6558   9.8137010101e+01   6.7531894666e+01    0.6653841    0.2263456 -78.26  0.002565052    2.722    0.633
        64 -13.1953      8.3300     48.1378   9.3385000700e+01   6.8425638198e+01    0.7270505    0.4687638 -87.78  0.003186622    1.648    0.393
        65 -11.7818     75.8543     80.2401   6.7311260900e+01   5.1980271845e+01    0.3737833     0.319663  55.54  0.001817355    1.210    0.173
        66 -13.1173    212.9389     40.7210   2.5168772394e+01   2.7301719235e+01    0.4883946    0.2926352  34.44  0.001723256    2.519    0.603
        67 -14.1512     70.1916    218.8722   9.1283127035e+01   2.1026125167e+01    0.6929408    0.4515088  36.09  0.002114849    1.193    0.162
        68 -11.8265     75.0037    212.7487   8.9628857225e+01   2.1602906218e+01    0.3333086    0.2576556  89.85  0.002135411    1.570    0.363
        69 -14.8324    140.2181    208.5535   7.4145990710e+01   1.3892292320e+01      1.30736    0.9371204 -17.30  0.007505311    1.564    0.361
        70 -16.4169    117.4968    186.9137   7.6317217540e+01   2.0875706438e+01     2.839209     2.465666 -77.69   0.01213013    1.480    0.324
        71 -12.7644     37.7731    190.6411   9.7239027384e+01   3.0172921051e+01    0.3629141    0.3188276   8.62  0.001119085    1.317    0.241
        72 -15.2402      9.5216    206.8319   1.0502675642e+02   2.9329445372e+01    0.7676367    0.6059354   8.50  0.004151004    1.507    0.336
        73 -12.0494     70.7999    243.7488   9.2983960832e+01   1.6654982533e+01     0.296361     0.225497 -68.38  0.001506738    1.717    0.417
        74 -14.2977    137.4133    243.0320   7.8954585076e+01   9.0990070368e+00    0.7946585    0.6098289  66.74  0.003859937    2.189    0.543
        75 -14.1433    210.6088    205.2514   5.9998552492e+01   5.1831742633e+00      1.01637    0.5839172  23.37  0.005325699    1.498    0.333
        76 -11.1786     49.7127    182.5881   9.3458339996e+01   3.0674082638e+01    0.3139415    0.1682793  60.57 0.0009466505    1.940    0.485
        77 -12.8851     12.4434    183.2916   1.0351420038e+02   3.4034110634e+01    0.3857513    0.1291769  40.61  0.001770866    2.169    0.539
        78 -15.1922     16.3540    145.7508   1.0053680772e+02   4.2519370276e+01     1.456512    0.6211908 -81.13  0.006386745    2.275    0.561
        79 -13.1439     25.3519    150.7398   9.8030554604e+01   4.0553302838e+01    0.4350107    0.4222814 -20.01  0.002047911    1.211    0.174
        80 -14.6475     25.1160    159.0185   9.8687305643e+01   3.8563930001e+01     1.185602    0.6086345 -61.53  0.005736394    2.054    0.513
        81 -12.8090     42.8940    167.8093   9.4113418636e+01   3.4759293018e+01    0.6324083    0.4370506 -88.01    0.0028909    1.517    0.341
