#   1 NUMBER                 Running object number                                     
#   2 MAG_AUTO               Kron-like elliptical aperture magnitude                    [mag]
#   3 X_IMAGE                Object position along x                                    [pixel]
#   4 Y_IMAGE                Object position along y                                    [pixel]
#   5 X_WORLD                Barycenter position along world x axis                     [deg]
#   6 Y_WORLD                Barycenter position along world y axis                     [deg]
#   7 A_WORLD                Profile RMS along major axis (world units)                 [deg]
#   8 B_WORLD                Profile RMS along minor axis (world units)                 [deg]
#   9 THETA_WORLD            Position angle (CCW/world-x)                               [deg]
#  10 FWHM_WORLD             FWHM assuming a gaussian core                              [deg]
#  11 ELONGATION             A_IMAGE/B_IMAGE                                           
#  12 ELLIPTICITY            1 - B_IMAGE/A_IMAGE                                       
         1  -8.9639     12.8747     30.0687   1.0369354565e+02   6.8431647170e+01    0.3037514    0.1520729 -64.49  0.001528142    2.394    0.582
         2  -8.0354    168.8076     12.2372   4.8013063166e+01   4.1472873450e+01    0.1823119    0.1535542  35.29 0.0007068602    1.283    0.221
         3  -9.0220    135.8275     10.1751   5.2729186797e+01   5.0076582085e+01    0.2274445    0.2097981  59.15 0.0003365915    1.050    0.048
         4  -8.5481     55.7354      9.9619   7.5280623465e+01   6.6865805980e+01    0.2017391    0.1542907 -36.41 0.0007510373    1.523    0.343
         5  -8.3636     90.8623      9.1379   6.2816261773e+01   6.0526669828e+01    0.1852546    0.1763742 -35.22 0.0005746572    1.294    0.227
         6  -7.6992    101.4588      8.4500   5.9628944165e+01   5.8331307250e+01    0.1310751    0.1186562  29.62 0.0001426641    1.060    0.057
         7  -8.5077     33.6882      5.5310   8.2808866900e+01   7.0517153105e+01    0.2444465    0.1599541 -53.38  0.001330828    2.772    0.639
         8  -8.2430     79.1808      4.4039   6.4155172156e+01   6.3358443515e+01    0.2300913    0.1459206 -36.75 0.0008847373    1.836    0.455
         9  -7.6411    115.3167      2.6231   5.3957882125e+01   5.5717690461e+01    0.1346973   0.09891338 -60.31 0.0007028375    1.806    0.446
        10  -8.2718     62.1700      1.5892   6.8567895744e+01   6.6772508472e+01    0.1660063     0.145225  44.56 0.0004695042    1.411    0.291
        11  -7.4462     39.4324      1.4895   7.7945974753e+01   7.0298809358e+01    0.1176747   0.09228559  -4.77 8.664554e-05    1.040    0.039
        12  -9.1420    211.0148    246.5438   9.5994264924e+01  -5.4028773022e+00    0.1791563    0.1635733 -48.93  0.000877864    1.638    0.390
        13  -8.6679    248.9878    249.2234   8.9957829619e+01  -1.1164062726e+01     0.307147    0.1369263 -18.40   0.00163264    2.746    0.636
        14  -9.4259    248.5570    242.5529   8.8985004972e+01  -1.0418628969e+01    0.2566399    0.1825493 -32.04 0.0009886639    1.757    0.431
        15  -8.1287    191.7928    249.8694   9.9848515545e+01  -2.8559655578e+00    0.1547478    0.1197522  48.49 0.0005470555    1.369    0.270
        16  -8.5756     93.9052    249.3581   1.1728546881e+02   1.2287246940e+01    0.2330416    0.1385313  82.75  0.001151514    1.969    0.492
        17  -9.4080    147.1501    246.1333   1.0740032045e+02   4.7063120478e+00    0.2894079     0.219174 -78.73  0.001878667    1.803    0.445
        18  -8.9701    120.2251    245.6152   1.1223435450e+02   8.9925427936e+00    0.3005447    0.1795792  78.73  0.001633896    2.388    0.581
        19  -8.6413     68.3696    246.1263   1.2145018929e+02   1.6324200497e+01    0.3137085    0.1416487  72.18  0.001615942    2.596    0.615
        20  -8.9257      9.9285    244.7148   1.3089738302e+02   2.3319310253e+01    0.2790761   0.09222186  82.86   0.00144182    3.045    0.672
        21  -8.5348    193.8820    244.3044   9.8698781731e+01  -2.4803650510e+00    0.2255492    0.1454437  24.28 0.0007591406    1.439    0.305
        22  -8.9223    194.1078    239.7164   9.7998104756e+01  -1.9242446712e+00    0.1969012    0.1683433 -57.44 0.0005023121    1.686    0.407
        23  -8.7795    201.9616    243.4624   9.7138034508e+01  -3.6382553753e+00    0.1844801    0.1667885 -61.01 0.0008390974    1.668    0.400
        24  -8.7788    169.1203    242.9975   1.0299593548e+02   1.6412779422e+00    0.2612368    0.1755769 -42.06  0.001123138    1.872    0.466
        25  -7.6533    139.3437    244.6533   1.0864908168e+02   6.1637578012e+00    0.1242129   0.07879131  64.13 0.0007044812    1.797    0.444
        26  -8.5207     78.0361    243.3172   1.1955662592e+02   1.5509182309e+01    0.3056701     0.132149  63.60  0.001534121    2.455    0.593
        27  -8.3381    153.7048    242.5909   1.0576748271e+02   4.1812629078e+00    0.1810626    0.1399443  81.18 0.0007440328    1.730    0.422
        28  -9.0272    183.4089    240.5741   1.0005960268e+02  -3.2535643840e-01    0.3939758    0.2313128  63.19  0.001808873    3.095    0.677
        29  -9.3264    160.1655    240.4058   1.0429851413e+02   3.4584924802e+00    0.2767541    0.2015506 -81.66  0.001216002    2.160    0.537
        30  -8.1387     88.3367    242.1847   1.1763904286e+02   1.4269772156e+01    0.1513203   0.09421429 -88.62 0.0005320948    1.777    0.437
        31  -8.3441    213.6892    241.3290   9.4749691037e+01  -5.1884417157e+00    0.1054344   0.08823102  55.83 0.0007041725    1.666    0.400
        32  -8.1533    240.4877    240.0084   8.9928975855e+01  -9.0113645869e+00    0.1547714    0.1036965 -24.21  0.001031479    1.595    0.373
        33  -8.6950    135.3358    238.9558   1.0871864620e+02   7.6814346932e+00    0.2279887    0.1347402  57.99 0.0008659452    1.688    0.408
        34  -8.1778    129.4795    238.9873   1.0980929835e+02   8.6064516080e+00    0.1552806    0.0968883  84.24 0.0008092923    2.464    0.594
        35  -9.2685    230.7899    236.1413   9.0967025511e+01  -7.1602025003e+00    0.3223976     0.214718 -24.99  0.001623512    1.620    0.383
        36  -8.4199     25.8329    237.2227   1.2802743124e+02   2.2974740427e+01    0.1998115   0.06475034  64.85 0.0009638772    2.933    0.659
        37  -9.9043    214.7180    233.1652   9.3309891589e+01  -4.3460128171e+00    0.4472284    0.3387975 -88.73  0.002298607    3.509    0.715
        38  -8.7972    203.1431    235.0869   9.5679310038e+01  -2.7621209042e+00    0.2420031    0.1921642 -56.10  0.001229595    1.908    0.476
        39  -9.6816    175.6246    233.2886   1.0045910769e+02   1.9594418485e+00    0.4101909    0.2485467 -60.83  0.002164861    2.653    0.623
        40  -8.4293    170.3587    236.1033   1.0183381685e+02   2.4203730799e+00    0.1458953     0.115811 -66.21 0.0004893721    1.756    0.431
        41  -9.3116    109.0165    234.6011   1.1313180878e+02   1.2516131524e+01    0.4013629    0.2037123  60.49  0.001242612    2.049    0.512
        42  -7.8992     57.9728    237.0000   1.2258052392e+02   1.9249431011e+01    0.1758088   0.05221747  39.27 0.0007992481    2.920    0.658
        43  -9.2095    247.8382    234.6818   8.7837744928e+01  -9.4740445927e+00     0.215749    0.1506652   3.28 0.0008105555    1.245    0.197
        44  -9.5937    246.4598    229.3817   8.7194534450e+01  -8.6862824358e+00    0.4474284    0.2077834 -26.09  0.002338605    2.271    0.560
        45  -8.3749     99.8258    234.6662   1.1484542739e+02   1.3889885228e+01    0.2241702     0.129078  75.88  0.001213686    2.106    0.525
        46  -9.0628     78.7586    234.3619   1.1867730297e+02   1.6967884827e+01    0.2426796    0.1431224  78.87 0.0008800717    1.760    0.432
        47  -8.8424      7.9545    234.9663   1.3080081314e+02   2.5211157008e+01    0.1273281   0.08557939  72.39 0.0007939252    1.018    0.018
        48  -8.2493    122.9692    234.0608   1.1045987297e+02   1.0438963104e+01    0.1996607    0.1236347  65.41 0.0008921733    1.759    0.431
        49  -8.4499    194.4526    233.0313   9.6945404636e+01  -1.0924283661e+00     0.187323    0.1504852  47.22 0.0008979638    1.318    0.241
        50  -8.5018    144.9884    233.4771   1.0623754254e+02   6.9865455588e+00    0.2110495    0.1205424  68.78 0.0007924635    2.849    0.649
        51  -8.7656    140.0775    230.2136   1.0675337531e+02   8.3148025237e+00     0.323193    0.1600113  57.67  0.001512537    2.351    0.575
        52  -8.1930    132.7397    232.9571   1.0848745988e+02   9.0611413134e+00    0.1932805    0.1260521  73.97  0.001063427    1.995    0.499
        53  -9.2345     68.0279    231.6777   1.2039223470e+02   1.8902114776e+01    0.4404093    0.2161164  88.37  0.002326369    2.421    0.587
        54  -9.1124    186.5914    230.7203   9.8045910954e+01   5.1331847637e-01    0.2946012    0.2233241 -77.72  0.001104509    2.350    0.574
        55  -8.0686    158.1399    232.3895   1.0361213358e+02   4.9886381304e+00    0.1798014   0.09489552  49.30 0.0004754184    1.701    0.412
        56  -8.2114     92.0219    231.7916   1.1600921048e+02   1.5541262414e+01     0.200285    0.1016301  60.73  0.000728596    1.895    0.472
        57  -8.7340    236.0043    230.8347   8.9212686629e+01  -7.3190717268e+00    0.1876988    0.1490384  -9.81 0.0004520313    1.252    0.201
        58  -8.9477      1.7974    230.9709   1.3161188153e+02   2.6510177029e+01    0.1899173   0.09358487  73.84    0.0007297    1.507    0.336
        59  -8.0911    204.8028    230.3871   9.4654735161e+01  -2.4145699171e+00    0.1771409   0.09408985  31.32 0.0006146921    1.645    0.392
        60  -9.1480    151.3268    228.9861   1.0444605733e+02   6.6512549699e+00    0.2973255    0.1881443  87.70  0.001368436    3.179    0.685
        61  -9.3254    148.8123    224.6901   1.0434748679e+02   7.7637597047e+00     0.390893    0.2652726  85.84  0.001647075    2.356    0.576
        62  -8.4423    229.6936    228.6154   8.9940755644e+01  -6.1033666110e+00    0.1869439    0.1031268 -31.98 0.0008198605    1.988    0.497
        63  -8.7018    162.3016    227.9279   1.0220748830e+02   4.9801472437e+00    0.2886744     0.166406  58.09  0.001036508    2.083    0.520
        64  -8.8350    128.0518    227.3583   1.0869958969e+02   1.0752024849e+01    0.2724467    0.1789486  73.20    0.0011538    1.877    0.467
        65  -8.4101    119.8968    227.3889   1.1026963580e+02   1.2057050477e+01    0.2498208    0.1604162 -75.41  0.001351994    1.947    0.486
        66  -7.8018    223.4813    227.4956   9.0847405083e+01  -5.0072829065e+00    0.1212729   0.09710877  20.76 1.098883e-05    1.039    0.037
        67  -8.5948    206.0163    226.4010   9.3804903327e+01  -2.0819440304e+00    0.1971657    0.1748612 -57.13 0.0007566021    1.635    0.388
        68  -7.6704     58.9807    227.7640   1.2171474984e+02   2.0794121031e+01    0.1437428   0.07970484  44.19 0.0005240996    1.575    0.365
        69  -8.2809     49.2696    226.9133   1.2339238037e+02   2.2160845980e+01    0.2364918     0.119616  69.55  0.001292432    1.794    0.443
        70  -8.0874    200.1590    226.2644   9.4855324227e+01  -1.1055161449e+00    0.1552772    0.1371252  50.38 0.0005494732    1.363    0.266
        71  -8.6429    180.5871    224.3374   9.8208326442e+01   2.4373472575e+00    0.2123062    0.1786205  75.92 0.0007431468    1.627    0.385
        72  -9.0943    104.6008    223.4245   1.1276167236e+02   1.5154962413e+01    0.3465287    0.2017802 -89.87   0.00143756    2.329    0.571
        73  -8.8634     94.3241    224.3917   1.1483763183e+02   1.6532830289e+01    0.3451459    0.1667138  64.98  0.001634398    2.447    0.591
        74  -8.0368     38.7500    225.1844   1.2513581560e+02   2.3726463415e+01    0.1988797   0.07316378  64.77 0.0009458627    2.731    0.634
        75  -8.8397    216.3949    223.5650   9.1465662506e+01  -3.3849177626e+00    0.2145294    0.2053634  70.83 0.0008275816    1.548    0.354
        76  -8.7694    172.9368    223.2059   9.9492249947e+01   3.9060780174e+00    0.2334919    0.1807242 -73.60  0.000796728    1.914    0.477
        77  -8.0480    113.9781    224.0481   1.1101986414e+02   1.3580767253e+01    0.1975793    0.1269271  68.01 0.0009674082    1.656    0.396
        78  -8.0709     59.7603    223.9886   1.2127737909e+02   2.1396622460e+01    0.1957749   0.09756879  71.26 0.0009145027    2.025    0.506
        79  -9.2566    225.4567    221.8951   8.9569831603e+01  -4.6119493924e+00    0.2294766    0.1881819 -28.73 0.0005820282    1.426    0.299
        80  -9.2744    192.5004    221.5047   9.5523656854e+01   8.3808663095e-01    0.2962565    0.2425841  87.24  0.001221799    1.989    0.497
        81  -9.2808    159.9102    220.7727   1.0164368742e+02   6.5145962476e+00     0.446316    0.3021468  69.27   0.00191992    2.063    0.515
        82  -8.7300    140.5916    222.9039   1.0570217950e+02   9.4392906634e+00    0.2177198    0.1546829 -79.62 0.0009862861    1.899    0.473
        83  -8.9854    239.0815    221.6232   8.7142897901e+01  -6.6857698802e+00    0.1991515    0.1883401 -49.96 0.0008617804    1.696    0.410
        84  -9.1749    120.2557    219.2173   1.0921411303e+02   1.3437304500e+01      0.38748    0.2090551  68.47  0.001756496    2.643    0.622
        85  -8.6981     82.8412    220.7477   1.1666619373e+02   1.8879144085e+01    0.2873561    0.1348915  63.49  0.001336479    2.310    0.567
        86  -8.1435     27.5448    220.8146   1.2682760799e+02   2.5793308101e+01    0.1936584   0.08568487 -73.13  0.001134249    2.082    0.520
        87  -8.2609    210.2833    219.4016   9.1885875546e+01  -1.8354482537e+00    0.1734328    0.1505048 -57.78 0.0005934092    1.694    0.410
        88  -8.0686    202.6892    220.1692   9.3409975677e+01  -6.8202544670e-01    0.1666106    0.1576767 -48.95    0.0006727    1.418    0.295
        89  -7.6836     72.5625    220.4976   1.1859733567e+02   2.0360674391e+01    0.1221027   0.09112589  67.41 0.0002179749    1.070    0.065
        90  -8.7902    249.4907    218.6722   8.4860972162e+01  -7.8897556052e+00    0.2614367    0.1804394  59.98  0.001383419    2.999    0.667
        91  -8.0021    183.3519    219.3091   9.6906214437e+01   2.7168369215e+00     0.131568   0.09010681  14.53 0.0003553453    1.718    0.418
        92  -9.2704    132.7896    215.9713   1.0631121754e+02   1.1945358492e+01    0.4557532    0.2699816  77.88  0.002031462    2.903    0.656
        93  -8.9187     51.7293    217.5649   1.2225240173e+02   2.3625959353e+01    0.2320564    0.1413666  74.10 0.0008573253    1.418    0.295
        94  -8.7950    169.3069    216.4602   9.9170486670e+01   5.5843149861e+00    0.2619207    0.2109821  88.24 0.0009456103    1.757    0.431
        95  -8.7130    142.9977    216.4022   1.0434100010e+02   1.0140150819e+01    0.2808734    0.1959763  89.54  0.001304659    2.077    0.519
        96  -8.1936    111.7823    217.0198   1.1061952313e+02   1.5198281063e+01    0.2041448    0.1275471  77.66  0.001062488    1.999    0.500
        97  -8.1433     61.7305    217.1533   1.2034953399e+02   2.2440879099e+01       0.1915    0.1156108  76.08 0.0009170548    1.531    0.347
        98  -7.5941     18.4996    216.4835   1.2815704931e+02   2.7558994715e+01    0.1106428   0.07728754  73.03 0.0008103674    1.022    0.021
        99  -8.7448    232.3055    214.8415   8.7153183788e+01  -4.7920598936e+00    0.1926315    0.1881161 -28.45 0.0009451817    1.501    0.334
       100  -8.4414    185.5824    214.5894   9.5726731580e+01   3.0468454824e+00    0.2281185    0.1738758  71.26 0.0007184964    1.940    0.485
       101  -8.2506    154.4141    215.2156   1.0190815372e+02   8.3765389827e+00    0.1629541    0.1244076 -71.31 0.0007589282    1.704    0.413
       102  -9.5359    213.9507    211.9982   8.9959307898e+01  -1.4242708503e+00    0.3424394    0.3098207 -52.46  0.001339398    1.542    0.351
       103  -8.8576     92.9370    213.9615   1.1400005913e+02   1.8688051089e+01    0.2619697    0.1537322  67.36  0.001404721    1.761    0.432
       104  -9.4749     73.5786    212.3682   1.1764248582e+02   2.1783916270e+01    0.6117095    0.2084025  59.17  0.002284169    3.813    0.738
       105  -7.9666    224.8781    212.7877   8.8114042285e+01  -3.3337168711e+00    0.1519511    0.1437365  24.00 0.0004908388    1.338    0.253
       106  -8.4471    161.6812    212.4502   1.0005349137e+02   7.5708678871e+00    0.2331002    0.1847118  86.31 0.0007473239    1.720    0.419
       107  -8.0483    106.3038    212.8208   1.1120715240e+02   1.6848656824e+01    0.1925302    0.1367162  78.38 0.0006798911    1.486    0.327
       108  -8.8965    204.2258    210.8279   9.1561754919e+01   3.8867751158e-01    0.2346795     0.195392 -63.83 0.0006640914    1.798    0.444
       109  -8.3121    192.3172    210.7830   9.3809249167e+01   2.4541208006e+00    0.2213898     0.192837  77.16  0.001317837    1.600    0.375
       110  -9.2625    175.5697    210.1623   9.6953279878e+01   5.4960207774e+00    0.3712056    0.2435405  65.66  0.001561906    2.258    0.557
       111  -8.8112    147.9588    210.5396   1.0250623505e+02   1.0301306903e+01     0.274503    0.1923206  70.76  0.001049662    1.809    0.447
       112  -9.0668    116.3242    210.4127   1.0888897848e+02   1.5692794400e+01    0.3293225    0.2068568  74.10  0.001159308    1.975    0.494
       113  -8.2414     32.6412    210.8288   1.2528542616e+02   2.7160255455e+01    0.2466134   0.09732402  76.38  0.001139436    2.900    0.655
       114  -9.3511      6.5637    209.4582   1.2986613810e+02   3.0061639600e+01    0.4314804    0.1285793  77.67  0.001751147    4.172    0.760
       115  -9.2968    236.4248    208.8238   8.5367147241e+01  -4.6677027870e+00    0.3137846    0.2717028   7.78  0.001251079    1.138    0.122
       116  -8.7018     85.4084    209.0577   1.1496611708e+02   2.0752774944e+01    0.3230707    0.1748938  81.12  0.001554112    2.383    0.580
       117  -7.9405     46.3407    209.7230   1.2265235514e+02   2.5809470091e+01    0.2565705   0.07353972  58.08  0.000965414    3.960    0.748
       118  -8.4500    139.2469    208.2537   1.0393423259e+02   1.2223220713e+01     0.256579    0.1672647  70.51 0.0008509084    2.005    0.501
       119  -9.3907    246.5103    207.3008   8.3349087135e+01  -6.0518900868e+00    0.2445893    0.1957789 -19.56 0.0007804272    1.276    0.216
       120  -7.9274    156.5044    208.0025   1.0040250923e+02   9.2383811255e+00    0.1748524    0.1329566 -56.08 0.0009463499    1.555    0.357
       121  -8.2860    126.4342    208.3172   1.0655452974e+02   1.4404409787e+01    0.2264571    0.1385772  59.70 0.0007713672    1.682    0.405
       122  -9.2924     99.3443    206.2216   1.1182411799e+02   1.9207852193e+01    0.3318877    0.2045808  79.13  0.001228223    1.936    0.483
       123  -8.4055     56.3057    205.7285   1.2040525891e+02   2.5383958447e+01    0.2377708    0.1380194  73.56 0.0008642472    1.609    0.378
       124  -9.3380    194.9035    203.6229   9.2088718095e+01   3.0970694192e+00    0.2926957    0.2687024 -61.47  0.001230014    1.422    0.297
       125  -9.1853    192.3732    197.3743   9.1476275643e+01   4.5386913375e+00    0.2772499    0.2240677 -51.86 0.0008087645    1.533    0.348
       126  -9.0442    184.0074    204.2232   9.4311633138e+01   4.9483729493e+00    0.3387226    0.2221027  64.07  0.001334824    2.262    0.558
       127  -8.7054    131.3900    204.3537   1.0498168401e+02   1.4297839733e+01    0.2871388    0.1905791  68.98  0.001046327    1.792    0.442
       128  -8.1183    109.0275    205.2908   1.0972283918e+02   1.7855595940e+01     0.183146    0.1486426  61.59 0.0006311391    1.062    0.059
       129  -7.7541     92.3691    205.6653   1.1318204956e+02   2.0386837170e+01    0.1402236   0.08124756  67.30 0.0007029272    1.837    0.456
       130  -7.6039     25.3065    205.6052   1.2629106559e+02   2.8975785226e+01    0.1256773   0.06011618  68.86 0.0007006178    1.828    0.453
       131  -9.6203    249.9977    201.5889   8.1710954954e+01  -5.8662239952e+00    0.4789597    0.1879178 -36.88  0.002151313    2.668    0.625
       132  -9.5939    245.3881    193.3476   8.0952206064e+01  -4.0567849225e+00    0.2998303     0.232742 -53.29  0.001359781    2.021    0.505
       133  -7.7288     41.2933    202.9525   1.2308896211e+02   2.7755852316e+01    0.1899662   0.07080367  83.52 0.0007028502    4.147    0.759
       134  -9.3027    243.0112    200.7251   8.2746222291e+01  -4.6567655286e+00    0.3054375    0.1690703 -36.34 0.0009768773    1.930    0.482
       135  -8.7397    140.6380    201.3802   1.0262887730e+02   1.3236402467e+01    0.3203743    0.2010562  70.73  0.001272539    2.254    0.556
       136  -8.6508     80.1525    201.3600   1.1519546705e+02   2.3051739718e+01    0.3175585     0.168187  71.24  0.001524643    2.219    0.549
       137  -8.3159     48.4074    202.1263   1.2164101533e+02   2.7086015964e+01    0.2366112    0.1073266  65.69   0.00108785    2.230    0.552
       138  -7.9333    222.1574    201.2059   8.6538726659e+01  -1.2896831100e+00    0.1559024    0.1528756  -4.16 0.0004666111    1.346    0.257
       139  -8.9787    237.1485    198.6265   8.3377991648e+01  -3.4303254392e+00     0.302389    0.1662605 -38.43   0.00127593    2.001    0.500
       140  -9.3807    149.6210    198.7012   1.0034822952e+02   1.2123837015e+01    0.4035604    0.2731643  83.96  0.001417491    2.365    0.577
       141  -8.9717    123.8034    199.2302   1.0582653785e+02   1.6575783539e+01    0.3101518    0.2064552  77.22  0.001237859    1.911    0.477
       142  -9.5979    113.0234    198.5948   1.0800620718e+02   1.8515182714e+01    0.4371815    0.2403444  68.10  0.001780909    2.457    0.593
       143  -9.0498     88.8732    198.7660   1.1309676407e+02   2.2298776603e+01    0.3632466    0.2043827  78.39  0.001730823    2.254    0.556
       144  -8.6054    202.8047    198.1163   8.9592023529e+01   2.5412428485e+00    0.2446905    0.1946099 -62.89  0.001008928    1.850    0.460
       145  -8.2412    177.0427    199.0188   9.4801800117e+01   7.0661781833e+00    0.1994605    0.1614133  76.73 0.0005586504    1.676    0.403
       146  -9.2333     61.5779    196.8555   1.1852924090e+02   2.6520940726e+01    0.4296846    0.2120191  74.14  0.001579545    2.376    0.579
       147  -8.5431     12.6017    197.4442   1.2813733047e+02   3.1865742908e+01    0.2801435    0.1004018  84.36  0.001303733    2.884    0.653
       148  -8.1193     53.9634    196.9827   1.2008617582e+02   2.7462712177e+01    0.2047483    0.1132742  68.94 0.0006615272    1.719    0.418
       149  -7.7253     29.3575    197.6806   1.2499185810e+02   3.0146622397e+01    0.1267791   0.06349587  66.12 0.0007044864    1.759    0.432
       150  -8.7723    215.8320    195.3778   8.6629719644e+01   6.4844561365e-01    0.2551303    0.1790984 -49.68  0.001012232    1.892    0.471
       151  -8.2839    133.1515    196.2189   1.0341102342e+02   1.5533449366e+01    0.1885753    0.1449511  67.78 0.0005596873    1.362    0.266
       152  -8.8408    224.6653    194.4400   8.4827646020e+01  -7.4911714277e-01    0.2749417    0.1644195 -43.57  0.001031439    2.006    0.502
       153  -7.3794    209.3077    195.6715   8.7908086502e+01   1.7568624689e+00    0.1210234    0.1070225  79.73  0.000703868    1.658    0.397
       154  -8.8025    185.2663    194.7556   9.2410078565e+01   6.2689648647e+00    0.2297871    0.2067824 -57.41 0.0006842116    1.356    0.263
       155  -9.0997    160.9614    194.4427   9.7296254151e+01   1.0824529381e+01    0.3122235    0.2128398  65.29 0.0009612087    1.869    0.465
       156  -8.9545     43.8832    193.7364   1.2182810947e+02   2.9350009271e+01    0.3674447    0.1689827  73.62  0.001769996    2.404    0.584
       157  -8.2057    230.9303    194.2868   8.3667337214e+01  -1.7956432532e+00    0.1822148     0.149386  12.80 0.0005922904    1.037    0.035
       158  -8.8652     77.0002    193.9353   1.1502494635e+02   2.5031076436e+01    0.2500137    0.1613044  68.91 0.0007153013    1.482    0.325
       159  -9.6635    163.7715    203.0836   9.8155599207e+01   8.7868388894e+00    0.3793326    0.2631099  62.50 0.0009744309    1.731    0.422
       160  -8.2612    199.0099    191.9806   8.9198930311e+01   4.1937720622e+00    0.1909735     0.167066  81.82 0.0005728651    1.611    0.379
       161  -7.9128    178.8517    191.8312   9.3173917361e+01   7.9554260475e+00     0.177763     0.159466  69.64 0.0004358282    1.318    0.241
       162  -8.6074    172.3536    191.7692   9.4486198749e+01   9.1812230649e+00    0.2467788    0.2061976  87.96 0.0009552602    1.590    0.371
       163  -9.2714    139.5467    190.8321   1.0120657394e+02   1.5429477871e+01    0.3857782    0.2505514  80.03  0.001132966    2.404    0.584
       164  -7.4485    205.2874    191.6810   8.7931468322e+01   3.0963759290e+00    0.1213594    0.1082285  82.38 0.0003729021    1.594    0.373
       165 -10.4548     92.2259    188.8245   1.1115166234e+02   2.3847723620e+01    0.9320598    0.2688999  50.36    0.0031936    3.660    0.727
       166  -8.7698      6.6075    190.5135   1.2885487044e+02   3.3814303211e+01    0.1905929   0.08305523 -80.93  0.001090211    1.850    0.459
       167  -8.3623    219.5741    190.4832   8.5013412204e+01   7.2046655086e-01    0.1991527     0.160547  42.60 0.0005832943    1.315    0.239
       168  -8.8056    216.5094    187.9347   8.5095930312e+01   1.6514698061e+00    0.2395189    0.2160363 -37.37 0.0008033601    1.317    0.241
       169  -8.5170    148.3899    189.2156   9.9053368125e+01   1.4120242050e+01      0.25529     0.196302  82.41 0.0007224748    1.654    0.396
       170  -8.3910    237.1415    188.3428   8.1427650946e+01  -2.0043575746e+00    0.2183687    0.1576389 -14.89 0.0005840447    1.324    0.245
       171  -9.3245    156.0210    187.5435   9.7146915496e+01   1.3014400260e+01    0.3368975    0.2242969 -61.02 0.0009166779    1.847    0.459
       172  -8.9932    129.2369    188.6161   1.0307245032e+02   1.7716890490e+01     0.283762    0.2011113  73.98  0.001110417    1.679    0.405
       173  -9.8502    120.9593    186.8400   1.0459870949e+02   1.9532036220e+01     0.521623    0.2843962 -76.77  0.002120696    2.902    0.655
       174  -8.6331     34.1199    188.0016   1.2331841965e+02   3.1648102021e+01    0.3063659    0.1338489  79.76  0.001243354    2.559    0.609
       175  -8.5808    210.9896    202.2362   8.8787856728e+01   4.7843738087e-01    0.2077302     0.185996 -66.73  0.000714656    1.622    0.383
       176  -7.9723    230.5911    187.7732   8.2483176460e+01  -8.0430016362e-01    0.1689817    0.1189025 -40.63 0.0006137732    1.626    0.385
       177  -8.9624    191.5267    187.5037   8.9835026370e+01   6.3162042673e+00    0.2802753     0.210215  86.45  0.001301748    2.358    0.576
       178  -9.1760     54.8187    186.9899   1.1895595913e+02   2.9460956741e+01     0.418541    0.1970996  71.40  0.001592615    2.533    0.605
       179  -8.7929    164.7755    186.7162   9.5156919854e+01   1.1516629045e+01    0.2478243    0.1940263 -65.22 0.0007543747    1.576    0.366
       180  -9.3476    109.6407    186.2538   1.0699287244e+02   2.1585287591e+01    0.3679232    0.2334627  72.27   0.00126084    1.897    0.473
       181  -8.8971    249.3095    185.3414   7.8739695879e+01  -3.6069480194e+00     0.279222    0.1983968 -34.33 0.0009270646    1.483    0.326
       182  -8.9612    210.3019    183.6735   8.5443612202e+01   3.4448300869e+00    0.4048607    0.2001823 -30.16  0.001553471    2.254    0.556
       183  -8.4194    202.8096    185.0669   8.7154806187e+01   4.6088703620e+00    0.1925518    0.1854049  70.65 0.0005592395    1.302    0.232
       184  -8.3949    182.9720    185.1142   9.1106670138e+01   8.3419529364e+00    0.2016297    0.1836231  71.03 0.0005975904    1.307    0.235
       185  -9.2141     66.7347    184.5484   1.1615721650e+02   2.8444757978e+01    0.3747987    0.2006285  65.60  0.001224433    1.964    0.491
       186  -8.7093    224.1188    183.7112   8.2866817830e+01   9.3293941155e-01    0.2462102    0.1800206 -22.67 0.0006046479    1.352    0.260
       187  -9.1843    174.1380    182.8721   9.2502193250e+01   1.0430011277e+01    0.4159298    0.2205979 -48.43 0.0009879207    2.131    0.531
       188  -8.2500      1.7162    183.9218   1.2940850411e+02   3.5582266061e+01    0.1575724     0.108345  79.94  0.001028731    1.060    0.057
       189  -9.4315    241.2359    181.6865   7.9408342642e+01  -1.7513206992e+00    0.4102999    0.2569931 -54.59  0.001917027    2.799    0.643
       190  -8.6419    140.9632    182.6902   9.9548868102e+01   1.6766169628e+01    0.2196776    0.2001453 -61.02 0.0003231752    1.187    0.157
       191  -8.4560    137.6370    179.3189   9.9701391681e+01   1.8059542856e+01    0.3386743    0.2180325  73.47  0.001198727    2.239    0.553
       192  -8.8462     44.4295    182.0736   1.2067090038e+02   3.1764593792e+01    0.3698578    0.1751035  77.70  0.001255862    2.431    0.589
       193  -9.5009    191.4091    178.4333   8.8120708055e+01   7.8851471565e+00      0.28154    0.2441957  53.31  0.000571731    1.258    0.205
       194  -9.3062    147.5316    180.7624   9.7782300819e+01   1.5917134570e+01    0.3402669    0.2500814  83.70  0.001028618    1.849    0.459
       195  -7.9128     83.1951    182.2454   1.1228045011e+02   2.6618434357e+01    0.1869286    0.1322662  75.08 0.0005049912    1.383    0.277
       196  -8.7300     26.8029    181.1642   1.2426179214e+02   3.3864265442e+01    0.2897367    0.1182276  60.00  0.001423368    2.380    0.580
       197  -8.8770     24.3311    176.9787   1.2444152346e+02   3.5008162820e+01    0.3344496    0.1437355  78.60  0.001581758    2.519    0.603
       198  -9.0451     35.7595    176.5165   1.2199899100e+02   3.3936651187e+01    0.4882208    0.1843163  79.47  0.001708628    4.514    0.778
       199  -9.5991    248.4084    176.4509   7.7132091639e+01  -2.2186388882e+00    0.4168586    0.2613607 -44.84  0.002179747    1.972    0.493
       200  -8.5622    250.5104    172.9255   7.6066003995e+01  -2.0715595202e+00    0.2165971    0.1635335 -22.16 0.0005197797    1.207    0.172
       201  -8.5268    231.1463    177.3069   8.0318679739e+01   6.4705925780e-01    0.2413583    0.1791945 -35.48 0.0005969501    1.409    0.290
       202  -8.5566    217.6137    177.3995   8.2820943075e+01   3.0901471929e+00    0.2391515    0.2003033 -60.79 0.0006068451    1.662    0.398
       203  -8.6947    205.1122    177.7581   8.5278002683e+01   5.3749850629e+00    0.2226638    0.1870452 -46.39 0.0006809745    1.386    0.278
       204  -7.9438    169.2171    178.4480   9.2702695103e+01   1.2193659135e+01    0.1950738    0.1271274  53.11 0.0005526243    1.592    0.372
       205  -8.6613    129.1626    177.5115   1.0127880180e+02   1.9989656003e+01    0.2920829    0.2059135  87.65 0.0008930452    1.862    0.463
       206  -8.4192     97.2633    177.9044   1.0853914574e+02   2.5390092503e+01    0.2241569    0.1789089  24.04 0.0009326451    1.591    0.372
       207  -9.1550     88.9963    176.7899   1.1025293633e+02   2.6931109543e+01    0.3332585    0.2015149  88.81  0.001123176    2.026    0.506
       208  -9.2250    183.1001    175.9444   8.9324026575e+01   9.9402401890e+00    0.3248435    0.2287759 -53.06 0.0007877581    1.683    0.406
       209  -8.3347     56.9542    163.8832   1.1594031780e+02   3.4302847877e+01    0.4265697    0.2623943 -30.64  0.001925202    3.192    0.687
       210  -9.2412     59.0153    176.2364   1.1691400640e+02   3.1271369874e+01    0.4346376     0.181568  60.65  0.001575147    2.862    0.651
       211  -9.5542     55.9762    171.4620   1.1705420624e+02   3.2715133299e+01    0.4656806    0.2266064  80.59  0.002003064    2.717    0.632
       212  -8.6318     12.8688    176.7077   1.2677076214e+02   3.6136053428e+01    0.2313868    0.1046724  74.39 0.0009914206    2.089    0.521
       213  -9.3216    158.9246    175.1434   9.4282018130e+01   1.4828000872e+01    0.3841463    0.2741047  80.02  0.001518716    2.087    0.521
       214  -9.5497    104.2486    174.7166   1.0647431413e+02   2.4941161105e+01    0.4819946    0.3051745  77.94  0.001745548    2.020    0.505
       215 -10.7019     75.8673    170.5435   1.1240428070e+02   3.0264276142e+01     1.118241    0.4259808 -77.72  0.003539897    4.624    0.784
       216  -8.5772     79.2427    158.6067   1.0991788466e+02   3.2489646435e+01    0.4313311    0.1761684  27.57  0.001516064    3.874    0.742
       217  -9.6251     81.5614    154.7644   1.0876221815e+02   3.3033887126e+01    0.5161437     0.307522 -87.01  0.001527434    2.067    0.516
       218  -8.5203    224.3710    174.4406   8.0970049075e+01   2.3107136656e+00    0.2484697      0.15826 -36.94 0.0007052192    1.605    0.377
       219  -9.3391    175.7896    172.3204   9.0132796484e+01   1.2044015867e+01    0.3566076    0.2567263 -50.89  0.001076817    1.558    0.358
       220  -8.6594    143.0824    172.8804   9.7348937271e+01   1.8341150547e+01    0.2252103    0.1851059  70.48 0.0006383838    1.315    0.239
       221  -8.9301    135.0199    171.0895   9.8838705002e+01   2.0240219874e+01    0.4502491    0.2305946 -47.39  0.001690634    2.099    0.523
       222  -9.6250    121.3537    170.3177   1.0182722544e+02   2.2924027257e+01    0.4185975    0.2727858 -75.89  0.001106521    1.915    0.478
       223  -9.0893     45.0275    171.1292   1.1946501575e+02   3.4096847056e+01     0.329198    0.1754846  78.51  0.001169924    1.993    0.498
       224  -8.8451    230.4907    170.1970   7.8989163175e+01   1.8501800479e+00    0.2175717    0.1828523 -26.76 0.0007366011    1.193    0.162
       225  -8.1223    244.4883    169.4933   7.6386716065e+01  -5.4183711069e-01    0.2018626     0.177832 -61.51 0.0005443328    1.647    0.393
       226  -8.3254    237.2162    169.8913   7.7730256005e+01   6.8248021252e-01    0.1910409    0.1757131 -32.61 0.0006266775    1.280    0.219
       227  -8.2609    205.7343    170.1782   8.3624245719e+01   6.5237306474e+00     0.210544     0.173959 -53.62 0.0006301782    1.480    0.325
       228  -8.4295    198.5121    170.1981   8.5050067278e+01   7.9302764164e+00    0.2121336    0.1938383  66.40 0.0006382451    1.318    0.241
       229  -8.6938    149.8538    169.6413   9.5235369747e+01   1.7690003694e+01    0.2665149    0.1928636 -75.03  0.001072431    1.822    0.451
       230  -9.2241    167.0120    168.5934   9.1266395084e+01   1.4500072938e+01    0.3581822    0.2488998  66.76  0.001281386    1.887    0.470
       231  -8.3356     88.5259    168.4368   1.0916704426e+02   2.8855524327e+01    0.2713908    0.1642133  83.31 0.0008221302    2.111    0.526
       232  -8.2698    218.8234    168.2437   8.0725136591e+01   4.3311247334e+00    0.1921449    0.1871149 -11.38  0.000540011    1.195    0.163
       233  -9.2913    209.4921    166.5116   8.2136248112e+01   6.4122250504e+00    0.3996962    0.2946669  68.77  0.001225314    2.024    0.506
       234  -8.5513    212.8814    163.6153   8.0877589738e+01   6.2386458911e+00    0.2572115    0.1944882 -41.14 0.0005361901    1.405    0.288
       235  -8.6605    111.8616    167.7350   1.0359142267e+02   2.5168780120e+01    0.3170455    0.1903611  69.98  0.001037384    2.238    0.553
       236  -8.9111    191.9090    166.4196   8.5600218158e+01   9.9065651484e+00    0.3513098    0.1975232 -42.41 0.0005829571    1.868    0.465
       237  -8.8250    185.0390    166.6583   8.7059468577e+01   1.1242457629e+01    0.2343369    0.1979673 -54.22 0.0006681858    1.354    0.261
       238 -10.0932     95.0659    162.8317   1.0676029690e+02   2.9085198678e+01    0.8923625    0.4765163  81.01  0.003072231    3.621    0.724
       239  -9.0363     20.5716    166.3162   1.2437665722e+02   3.7687666674e+01     0.294551    0.1138787  56.14 0.0009843984    2.560    0.609
       240  -9.8872    136.8810    164.5534   9.7209696957e+01   2.1259085893e+01    0.6613219    0.2976521  56.92  0.002261414    3.036    0.671
       241  -8.1113    233.8933    165.1105   7.7324274023e+01   2.0151209622e+00    0.1942154    0.1755148 -34.05 0.0005200356    1.253    0.202
       242  -8.7844    159.4189    164.5019   9.2110522693e+01   1.6827144045e+01    0.2909804    0.2405025 -87.43  0.000805043    1.503    0.334
       243  -9.4549     33.6109    163.4808   1.2124652390e+02   3.7047454232e+01    0.5216212     0.191866  57.38  0.002216003    3.059    0.673
       244  -9.5909    246.0004    163.1526   7.4814338941e+01   1.3243555549e-01    0.2551776    0.1711497 -29.70 0.0005183114    1.386    0.279
       245  -9.8259    250.1651    157.8484   7.3000332574e+01   1.8759388996e-01    0.3630164    0.1729899 -33.77 0.0008273667    1.933    0.483
       246  -8.1138    246.5667    155.5413   7.3110127026e+01   1.1773308156e+00    0.1759845    0.1299043  52.59 0.0001384706    1.657    0.396
       247  -8.1071    239.8763    164.1854   7.6080663886e+01   1.0697423641e+00    0.1916479    0.1772518 -30.74 0.0006458347    1.253    0.202
       248  -8.5199    204.8976    163.0545   8.2302270925e+01   7.9068680540e+00    0.2053531    0.1955328 -76.38 0.0005473255    1.296    0.228
       249  -9.2511      3.3380    162.4274   1.2776098552e+02   3.9994616285e+01    0.3400759    0.1459706  59.65  0.001549574    2.196    0.545
       250  -9.2672    177.3718    160.7356   8.7439889983e+01   1.3910517686e+01    0.3026556    0.2534511 -66.28 0.0009519639    1.440    0.306
       251  -8.9784    151.6569    161.0117   9.3147107848e+01   1.9093818030e+01    0.3193844    0.2413405 -70.33 0.0008778761    1.612    0.380
       252  -8.5357     60.4744    160.2771   1.1466074498e+02   3.4682398864e+01    0.3081564    0.1699704  79.36  0.000976846    2.197    0.545
       253  -8.7349    227.4781    159.1686   7.7215970584e+01   4.1533411048e+00    0.3273934    0.2123126 -55.59 0.0009734511    2.251    0.556
       254  -8.4316    128.5094    159.3230   9.8171016734e+01   2.3979218308e+01     0.308951    0.2173429  85.36 0.0008760403    1.919    0.479
       255  -9.8027    106.0768    157.7797   1.0326207013e+02   2.8390254927e+01    0.5848973    0.4022764 -70.55  0.001137379    1.529    0.346
       256  -8.5151    237.0731    159.0308   7.5479992598e+01   2.3745584149e+00    0.1997899    0.1681763 -63.49  0.000852464    1.686    0.407
       257  -8.6145    196.6520    158.1072   8.2884006463e+01   1.0442599881e+01    0.2375278    0.1992015  55.62 0.0005906296    1.318    0.241
       258  -8.3776    188.1657    157.7168   8.4532683442e+01   1.2256708036e+01    0.2542095    0.1927679 -49.90 0.0008152793    1.459    0.315
       259  -9.1625    167.5699    157.2786   8.8831224559e+01   1.6603834883e+01    0.3355905    0.2620227 -88.24  0.001141203    1.770    0.435
       260  -8.4949    217.9547    156.5142   7.8397659241e+01   6.4358658457e+00    0.2663992    0.1861249 -49.53 0.0009352124    1.690    0.408
       261  -9.1574    157.5815    155.9090   9.0764841303e+01   1.8938640102e+01    0.3752518    0.2413134 -56.42  0.001089383    1.767    0.434
       262  -9.5667    119.5421    155.3410   9.9558037200e+01   2.6533723215e+01    0.4348251    0.2865962 -84.73  0.001683714    2.112    0.527
       263  -9.2950     49.5659    155.4385   1.1665609496e+02   3.7130684000e+01     0.384657    0.2011971  67.05   0.00167691    2.197    0.545
       264  -9.4268    242.7418    155.0135   7.3643374402e+01   1.9536971224e+00    0.2174861    0.1952461  18.93 0.0003365357    1.129    0.115
       265  -7.8521    239.6996    153.2930   7.3793217359e+01   2.7830756648e+00    0.2045718    0.1630738 -33.63 0.0004428661    1.238    0.192
       266  -7.9410    237.4160    150.4799   7.3575848185e+01   3.6552666249e+00    0.1824308    0.1347306  55.65 5.906309e-05    1.664    0.399
       267  -9.0834    233.6105    147.6627   7.3619463018e+01   4.8349151023e+00    0.2643939     0.210136 -40.04 0.0007761904    1.304    0.233
       268  -8.0226    204.8686    155.1418   8.0607256893e+01   9.2953166855e+00    0.2120784    0.1967415 -63.49 0.0008127402    1.292    0.226
       269  -8.7359    144.4987    154.8411   9.3538306414e+01   2.1820154692e+01    0.2883478    0.2226696  71.19 0.0009451181    1.514    0.339
       270  -9.8478    132.8144    153.1171   9.5939364607e+01   2.4504887450e+01    0.4774702    0.3414981  79.19  0.001248312    1.847    0.459
       271  -9.4926    133.4981    148.5067   9.4837514099e+01   2.5380322617e+01     0.380672     0.250928 -42.55  0.001746548    1.625    0.385
       272  -9.6699     68.0512    154.0766   1.1198497529e+02   3.5117909653e+01     0.392735    0.2313993  70.42  0.001206548    1.985    0.496
       273  -8.1456    232.8772    154.1587   7.5170118756e+01   3.9303121804e+00    0.2000243    0.1874941 -49.30   0.00091269    1.297    0.229
       274  -8.5215    151.9239    152.7862   9.1396939956e+01   2.0745736759e+01    0.2670802    0.1964269 -65.76  0.001210868    1.612    0.380
       275  -9.7772     29.4259    150.8016   1.2093207211e+02   4.0337459998e+01    0.4260972    0.1914427  70.16  0.001832622    2.754    0.637
       276  -9.0742     20.1061    152.3143   1.2325819174e+02   4.0850526476e+01    0.2194711    0.1314907  59.20  0.001115344    1.612    0.380
       277  -9.7680    248.8600    149.3828   7.1405017020e+01   1.7000624473e+00    0.4157931    0.2101655 -29.92   0.00161566    1.847    0.459
       278  -8.9314    247.0419    144.0138   7.0533960204e+01   2.8624648358e+00    0.2622348    0.1709944 -31.38 0.0005343481    1.397    0.284
       279  -9.2555    242.6608    150.0869   7.2592893226e+01   2.7325902994e+00     0.303931    0.2750604  55.92  0.001832737    1.377    0.274
       280  -8.9087    189.4470    150.3454   8.2657457570e+01   1.3365804908e+01    0.3148953    0.2232015 -57.98 0.0009023642    1.755    0.430
       281  -7.9720    182.3846    151.2611   8.4337659489e+01   1.4681077753e+01    0.2044073    0.1391124 -52.25 0.0005612208    1.660    0.397
       282  -8.2730    162.3224    150.4784   8.8542254252e+01   1.9064788294e+01    0.2499289    0.1827266 -68.43 0.0007620276    1.755    0.430
       283  -8.7753     98.3150    150.8240   1.0394388776e+02   3.1296695278e+01    0.2736889    0.1993861  87.96  0.001074508    1.551    0.355
       284  -8.2180    213.0664    149.8854   7.7864891783e+01   8.5452849073e+00    0.2054758    0.1938682 -68.65 0.0004708374    1.285    0.222
       285 -10.0801     89.4485    146.6323   1.0543822838e+02   3.3713523440e+01    0.7091408    0.3796871 -87.78  0.002458103    3.394    0.705
       286  -9.8239     39.8601    148.0883   1.1811834987e+02   3.9910615381e+01    0.5057127    0.2264933  62.65  0.002195104    2.782    0.641
       287  -8.3644    198.8164    149.0818   8.0468025409e+01   1.1631289349e+01    0.2173769    0.1980973 -74.37 0.0005874595    1.335    0.251
       288 -10.4272    106.7917    144.2018   1.0058049031e+02   3.1368714161e+01    0.8388916    0.5315355  89.41  0.002464305    2.362    0.577
       289  -9.1604     77.9902    146.9986   1.0841472078e+02   3.5373902518e+01    0.3205652       0.2057  89.98 0.0009881482    1.817    0.450
       290 -10.3839     54.6438    144.2383   1.1393372989e+02   3.9139366632e+01    0.8494189    0.4140747  81.03  0.003120636    3.314    0.698
       291  -9.1860     56.8031    135.5694   1.1209646169e+02   4.0927314577e+01    0.3386211    0.1777966  21.40  0.001500583    2.794    0.642
       292  -8.0559    223.3136    147.0224   7.5317723864e+01   6.9660243127e+00    0.1971712    0.1699084 -29.25 0.0003637568    1.130    0.115
       293 -10.3194    149.1045    145.1016   9.0402819308e+01   2.2949460573e+01    0.5985548    0.4137504  86.81  0.001656425    2.304    0.566
       294  -9.0611     13.3351    146.2103   1.2427350253e+02   4.2796687992e+01     0.368881    0.1685412  66.23   0.00135801    2.358    0.576
       295  -9.9114    241.0185    144.6942   7.1688789023e+01   3.8893949483e+00    0.4447637    0.2862698  10.86  0.001592654    2.041    0.510
       296 -10.3215    242.1941    138.3584   7.0081978638e+01   4.6717792159e+00    0.5787245    0.2799312 -48.01  0.002351477    2.540    0.606
       297  -9.9454    139.0171    144.5986   9.2686712250e+01   2.5131107346e+01    0.5055348    0.3083982 -68.07  0.001385565    2.247    0.555
       298  -9.8805    125.1087    142.7510   9.5689730642e+01   2.8301247956e+01    0.5578163    0.3624581 -87.51  0.001672495    2.463    0.594
       299 -11.0482     69.0035    140.2731   1.0963472934e+02   3.8231894747e+01    0.9366291    0.4387187 -65.11  0.003110939    1.982    0.495
       300  -7.7997    194.1930    144.1943   8.0298463096e+01   1.3509754416e+01    0.1989615    0.1774345 -73.52 0.0004953786    1.357    0.263
       301  -8.8002    165.4393    144.0983   8.6433369630e+01   1.9706077956e+01    0.2835846    0.2152867  53.40 0.0006912246    1.347    0.258
       302 -10.1311      2.6804    140.7233   1.2629331543e+02   4.4823234016e+01    0.5776843    0.2073405 -79.56  0.002793778    2.225    0.551
       303  -8.2428    250.3320    140.9961   6.9334009203e+01   2.7185400765e+00    0.1977327      0.15587 -27.54 0.0006059617    1.142    0.124
       304  -7.9469    206.7746    146.5507   7.8328353833e+01   1.0425739102e+01    0.1919225    0.1413327  57.48 0.0008394232    1.572    0.364
       305  -9.0447    134.3458    139.9810   9.2819210333e+01   2.7091120686e+01    0.3393967    0.1412963 -49.04  0.001219687    2.425    0.588
       306  -9.8018     23.4769    138.3175   1.2104498831e+02   4.3752769540e+01    0.4948525    0.2263827  68.66  0.001937801    2.712    0.631
       307  -8.5526    172.0619    138.4282   8.3662493828e+01   1.9422323991e+01    0.2871364    0.2101603 -61.67 0.0007058161    1.648    0.393
       308  -7.8984    166.0290    139.0109   8.5141250539e+01   2.0618425269e+01    0.1873486     0.173473 -39.99 0.0005629295    1.098    0.089
       309  -7.8284    218.5369    138.5107   7.4265767135e+01   9.3903676943e+00    0.1449933    0.1346751  -9.08 7.261998e-05    1.008    0.008
       310  -8.2587    207.6672    138.1075   7.6223261775e+01   1.1747797226e+01    0.2317861    0.1779953 -55.70 0.0008386825    1.538    0.350
       311  -8.6084    197.5029    137.5074   7.8084341454e+01   1.4042428615e+01    0.2837606    0.2302715 -53.37 0.0008186554    1.370    0.270
       312 -10.4905     83.4153    133.0756   1.0455179048e+02   3.7852103756e+01    0.7041694    0.3689098 -60.04  0.001897797    1.787    0.440
       313  -8.7834     84.7415    123.1036   1.0222181557e+02   4.0014891719e+01    0.4685475     0.305535  -0.06  0.001873476    3.053    0.672
       314  -8.1212    140.5271    136.9670   9.0641756970e+01   2.6488904647e+01    0.2077444    0.1331702 -23.55 0.0004929972    2.352    0.575
       315  -9.4328     39.2715    136.3098   1.1679391377e+02   4.2723453688e+01    0.3183916    0.1942154  75.50 0.0009883245    1.774    0.436
       316  -8.5695    246.9093    130.1732   6.7467823400e+01   5.0622866816e+00    0.4149403    0.2190184 -26.55  0.001851104    1.882    0.469
       317  -9.0090    248.5527    135.2736   6.8351239957e+01   3.9430260664e+00     0.322878    0.1942899 -39.44 0.0008386558    1.575    0.365
       318  -9.3656    250.7337    130.1495   6.6855328660e+01   4.3307549998e+00    0.6672122    0.1272379 -37.42  0.001928202    4.426    0.774
       319  -7.8243    192.5049    136.5341   7.8869646256e+01   1.5313090905e+01    0.1474825    0.1465149 -15.19 1.829969e-05    1.067    0.063
       320  -8.5534    162.6298    136.2504   8.5269777965e+01   2.1926112900e+01    0.2318366    0.1895412 -59.93 0.0007948909    1.338    0.253
       321  -8.7736    151.5490    135.7411   8.7721931133e+01   2.4428737195e+01    0.3258427    0.1808662  34.46   0.00127248    2.072    0.517
       322  -8.1210    125.8038    135.9910   9.4066941292e+01   2.9687655834e+01    0.2168043    0.1713785  17.07   0.00087203    1.608    0.378
       323  -8.7204    179.4715    134.0991   8.1029705233e+01   1.8654352559e+01    0.2799457    0.2365815 -89.29 0.0007238747    1.480    0.324
       324  -8.5214    175.4895    146.1291   8.4672895624e+01   1.7145440503e+01    0.2198591    0.1486769 -43.24 0.0005513303    1.514    0.340
       325  -7.7668    231.3784    134.1587   7.0967191527e+01   7.4938916998e+00    0.1999967    0.1230056 -43.54 0.0003858765    1.653    0.395
       326  -9.3329    112.7790    133.1744   9.6788575080e+01   3.2828231259e+01    0.3821876    0.2916046 -83.92  0.001140254    1.536    0.349
       327  -9.2611    143.0302    131.6775   8.8818194962e+01   2.7119396766e+01     0.392746    0.2721189 -69.11 0.0008072369    1.840    0.457
       328 -10.7369    132.4810    130.5702   9.1167618733e+01   2.9561761217e+01    0.8041082    0.4878812 -49.49  0.002134132    1.647    0.393
       329 -10.0697    131.1441    118.7450   8.8679199398e+01   3.2473388863e+01     0.652199    0.4184272 -83.58  0.001884845    2.876    0.652
       330 -10.5302     98.2778    130.3191   1.0001421690e+02   3.6087864433e+01      0.69873    0.3727571 -60.87  0.001598555    1.899    0.473
       331  -8.8438     98.9762    120.8423   9.7782121845e+01   3.8191140340e+01    0.7429288    0.4070605  13.85   0.00212331    5.410    0.815
       332  -8.1167    192.9198    130.4585   7.7339962499e+01   1.6371540847e+01    0.2354173    0.1919779 -37.18 0.0003834019    1.214    0.176
       333  -9.4878    152.9710    129.0975   8.5819489428e+01   2.5536484718e+01    0.5255564    0.2867786 -59.72 0.0009146443    2.449    0.592
       334  -8.2736    153.6665    123.6651   8.4330615902e+01   2.6537280897e+01    0.2815064    0.1979733  24.51 0.0009206904    1.791    0.442
       335 -10.0989     73.3316    128.8133   1.0649380241e+02   4.0357176659e+01    0.6712822    0.2965909 -61.55  0.001819503    2.088    0.521
       336  -9.6117     70.9790    119.8634   1.0545083861e+02   4.2824303382e+01    0.4182645    0.2756483  86.69  0.001364456    1.951    0.487
       337  -9.9849     12.8269    128.7983   1.2271063408e+02   4.6803040191e+01    0.5816332    0.2642335  84.79   0.00251253    2.419    0.587
       338  -8.1155    204.5018    130.0860   7.4946070022e+01   1.3883922983e+01    0.2283042    0.1431728 -39.24  0.001016175    1.559    0.359
       339  -8.4388     26.1449    129.8472   1.1938858147e+02   4.5486492237e+01    0.2458582    0.1608177   1.84  0.001356687    2.451    0.592
       340  -8.6166    181.9809    141.5616   8.2238312833e+01   1.6641671871e+01    0.2791951    0.2072234 -57.99 0.0006105752    1.583    0.368
       341  -8.2101    211.5181    129.0431   7.3356771150e+01   1.2543425394e+01    0.2241481    0.1394941 -40.40 0.0008979363    1.569    0.362
       342  -7.1271    186.3250    129.6696   7.8512177758e+01   1.7993529690e+01    0.1553875    0.1232157 -80.47   0.00070505    1.703    0.413
       343 -10.6910     44.9158    123.6364   1.1346647392e+02   4.5129637063e+01     1.036892    0.5011492  77.98  0.003790726    3.821    0.738
       344 -10.4298     60.1149    125.1474   1.0948943281e+02   4.3001143829e+01    0.7539048    0.4176045  80.31  0.002574619    2.819    0.645
       345  -8.9049     59.5052    115.2441   1.0786645118e+02   4.5441931123e+01     0.410995    0.2668788 -14.50  0.001869831    2.641    0.621
       346 -10.1880    117.9739    124.6202   9.3518909516e+01   3.3805776073e+01    0.6823356    0.4893531 -60.39  0.002065608    1.432    0.302
       347  -8.2222    228.5878    125.7648   6.9499935546e+01   9.4755621648e+00    0.2066584    0.1264325 -43.94  0.000671411    1.642    0.391
       348  -8.8415    179.2532    124.8741   7.8840404809e+01   2.0525657959e+01    0.2776321    0.2527941  87.38 0.0006264719    1.244    0.196
       349 -10.2183     28.4492    122.5482   1.1784158161e+02   4.6992546259e+01    0.6520024     0.306076  78.99  0.002693896    3.153    0.683
       350  -9.6097     26.8945    113.8528   1.1706968077e+02   4.9167189998e+01    0.3563949    0.2198042  11.14  0.001960475    2.318    0.569
       351  -7.6025    188.6651    124.3104   7.6715940310e+01   1.8499528410e+01    0.1551009    0.1234606 -81.29 0.0004788208    1.679    0.404
       352  -9.3620    168.0797    129.3541   8.2395213368e+01   2.2142310209e+01    0.3486288    0.2815121 -82.64 0.0009027589    1.586    0.369
       353  -7.9430    194.9838    122.0425   7.4868195699e+01   1.7497935708e+01    0.2353522    0.1841143 -69.51 0.0005526132    1.634    0.388
       354  -8.3189    171.9486    121.7479   7.9656542747e+01   2.2812875830e+01    0.2636648    0.1975913 -59.97 0.0006861184    1.538    0.350
       355  -9.0065    158.4880    121.5810   8.2676806694e+01   2.5899818878e+01    0.3173105    0.2526661 -77.13  0.000775654    1.567    0.362
       356 -10.2034    141.4742    117.9197   8.5858661283e+01   3.0450509717e+01    0.7202674    0.3219248 -50.00  0.001279145    2.336    0.572
       357  -9.3899      3.1693    117.5743   1.2405657357e+02   5.0022127050e+01    0.4328727    0.1871801  68.79  0.002007692    2.944    0.660
       358  -7.4577    231.6591    117.3511   6.6984776247e+01   1.0245638938e+01    0.1495141    0.1106457 -65.70 0.0007043405    1.802    0.445
       359 -10.1888    109.3638    114.2833   9.3383575942e+01   3.7826751520e+01    0.6232664    0.3752466 -70.93  0.001378014    2.330    0.571
       360  -9.0343    109.9961    107.3371   9.1476169282e+01   3.9292391936e+01    0.3468468    0.1874548  27.29   0.00128007    2.659    0.624
       361  -7.6495    219.3013    116.6536   6.8944619554e+01   1.3029972718e+01    0.1506309    0.1140918 -65.13 0.0003504238    1.685    0.407
       362  -8.3719    192.9677    115.3316   7.3591850352e+01   1.9224256010e+01     0.262906     0.202911 -48.89 0.0005178687    1.337    0.252
       363  -8.2919    185.8157    116.0521   7.5236804447e+01   2.0742512250e+01    0.2365176    0.2056922 -60.97 0.0005392324    1.254    0.203
       364  -9.5141    249.5432    114.4487   6.3455479974e+01   7.0394670340e+00    0.4605916    0.2627206 -58.71  0.001844293    2.679    0.627
       365 -10.2926    248.7701    108.0578   6.2085353231e+01   8.2087052131e+00    0.4233525    0.3358267   2.31  0.001936801    1.447    0.309
       366 -10.6771    248.9990    103.1531   6.0902286731e+01   8.9387280738e+00    0.5128072    0.3358708 -29.32  0.002586065    1.411    0.291
       367 -10.0101     79.0132    112.7091   1.0165085177e+02   4.3360165830e+01    0.5758777    0.3706399 -89.55  0.001698291    2.254    0.556
       368  -8.5414     78.1975    105.3066   1.0022767227e+02   4.5226810044e+01    0.2822195    0.2119787 -32.07 0.0008157103    1.509    0.337
       369  -7.8239    167.4453    114.5111   7.8818582782e+01   2.5311648247e+01    0.1549423    0.1527907 -58.48 0.0002230066    1.027    0.026
       370 -10.1866     92.7669    112.4736   9.7618091183e+01   4.1217221799e+01    0.5935493    0.3670325 -74.44   0.00140513    2.143    0.533
       371  -9.0110     93.2074    104.9666   9.5687611014e+01   4.2887866605e+01    0.5495287    0.3302398   9.10  0.001932478    3.585    0.721
       372  -8.0910    153.0167    115.5292   8.2431927713e+01   2.8403045206e+01    0.2348999    0.1543527  47.91 0.0007679655    1.528    0.345
       373  -8.6881    174.8159    112.1494   7.6571994390e+01   2.4068967597e+01    0.3471556     0.208112 -54.41 0.0008615718    1.954    0.488
       374 -10.0038    133.5027    109.7725   8.5784394921e+01   3.3951029218e+01    0.6478975    0.3434456 -47.60  0.001675763    1.873    0.466
       375 -10.0568    122.0228    112.5243   8.9510863836e+01   3.5744156263e+01    0.4407052    0.3261631 -69.84 0.0007708357    1.593    0.372
       376 -10.0837    119.0277    106.9012   8.8871538453e+01   3.7610059737e+01    0.4801979     0.288569 -38.66   0.00159971    1.750    0.429
       377  -9.8801     14.5598    111.8464   1.2029204574e+02   5.0589262470e+01    0.3379221    0.1820551  75.74  0.001338457    2.181    0.541
       378  -8.6385    159.1837    111.7445   7.9991067472e+01   2.7786134345e+01    0.2719288    0.2083371 -53.93  0.000557142    1.375    0.273
       379 -10.2051     66.3549    109.8166   1.0476809576e+02   4.5847690333e+01    0.6149557    0.3013649 -63.69  0.001983557    1.954    0.488
       380  -7.8081    149.7637    110.0427   8.1783316657e+01   3.0294864149e+01    0.2073227     0.130881 -43.96 0.0004065746    1.574    0.365
       381  -7.6135    182.5555    109.4879   7.4223590582e+01   2.2771179248e+01    0.1550185    0.1503947 -56.93 8.612134e-05    1.053    0.050
       382  -8.9195     42.8924    109.4064   1.1169519107e+02   4.8720167410e+01    0.2777892    0.1355103  12.92  0.001148554    3.513    0.715
       383  -8.3612    189.2993    108.0476   7.2459049387e+01   2.1456145728e+01    0.2278286    0.1899337 -41.51 0.0004723308    1.180    0.153
       384  -7.7469    215.2883    107.6641   6.7434415219e+01   1.5495933036e+01    0.1519136     0.114291 -64.32  0.000269289    1.632    0.387
       385  -9.3667    140.0819    104.8588   8.2793546143e+01   3.3570292868e+01    0.3805172    0.2863867 -84.95 0.0007627803    1.835    0.455
       386 -10.6016     45.6284    102.4437   1.0958487632e+02   5.0078342441e+01    0.7760466      0.42654  75.58  0.003171682    3.187    0.686
       387  -9.1122     45.6014     92.8575   1.0765593481e+02   5.2322577280e+01    0.4204648    0.2339296  -0.11  0.001784047    3.310    0.698
       388 -10.6058     22.7661    102.6858   1.1661979553e+02   5.2110041938e+01    0.6803942    0.3502723  76.66  0.002775719    2.828    0.646
       389  -8.5150    166.4613    103.8541   7.6218123884e+01   2.7686435086e+01    0.3011389    0.2032458 -57.48 0.0007605916    1.726    0.421
       390  -9.4210    150.4074    103.0202   7.9738076496e+01   3.1614676792e+01    0.3834146    0.2662023 -58.67  0.001011434    1.654    0.396
       391  -9.0073      7.1480    103.3748   1.2133943029e+02   5.3023369919e+01    0.2791729     0.148788  61.19  0.001288807    2.280    0.561
       392  -8.7804    239.7928    103.1893   6.2289060511e+01   1.0856874823e+01    0.1967736     0.163802   1.04 0.0005597073    1.345    0.256
       393  -7.8608    221.5296    103.5285   6.5318457717e+01   1.4801568140e+01    0.1479428    0.1382928 -38.87 -4.365796e-05    1.034    0.033
       394 -10.0765    128.3530    102.0607   8.5070450272e+01   3.6734506938e+01    0.3856489    0.2796398 -52.71 0.0007982841    1.401    0.286
       395 -10.7700    109.3570     99.1587   8.9506604983e+01   4.1254877517e+01    0.8772113    0.4941766  64.80  0.002512865    3.026    0.670
       396  -9.0637    108.1953     92.5424   8.8013472420e+01   4.2940996858e+01     0.483177    0.2841862  26.58  0.001718354    2.294    0.564
       397  -7.7544    175.5573    102.4334   7.3834580223e+01   2.5799303391e+01    0.1560728     0.150487 -70.88  0.000284292    1.071    0.067
       398  -8.1318    159.8800    101.1677   7.6986895429e+01   2.9781581017e+01    0.2408678    0.2115828 -76.08  0.000524529    1.278    0.217
       399  -9.3127     81.9092     99.8788   9.7806236310e+01   4.5919746847e+01    0.3778511    0.2620491 -79.63 0.0008762388    1.868    0.465
       400 -10.1462     63.7623     96.0647   1.0253636265e+02   4.9423571548e+01    0.6665369    0.3620643 -75.56  0.001661968    2.637    0.621
       401  -8.8664     64.6855     87.8257   1.0023904219e+02   5.1196095244e+01    0.3372294    0.2194372  -5.82  0.001530761    2.424    0.588
       402  -9.3461     94.8985     97.1277   9.3180952350e+01   4.4387345279e+01    0.3265316    0.2547022 -66.85 0.0005892323    1.380    0.275
       403  -8.2530    151.7804     95.0126   7.7176190313e+01   3.2931596706e+01    0.2359458    0.1692189  29.73 0.0006862457    1.634    0.388
       404  -8.0733    164.8381     94.3161   7.3951094762e+01   2.9955914113e+01    0.2234172    0.1903999 -49.31 0.0005218143    1.186    0.157
       405  -8.5719    242.6753     93.6991   5.9575727489e+01   1.1766931156e+01     0.140273    0.1084518  11.11 0.0003752021    1.635    0.388
       406  -7.5762    188.5168     93.5118   6.8742558866e+01   2.4352013429e+01     0.154459    0.1504415 -51.46 2.371855e-05    1.019    0.019
       407  -8.2134    176.4102     93.2596   7.1140462855e+01   2.7349871841e+01    0.2538645    0.1973481  89.85 0.0006988739    1.647    0.393
       408  -9.3068    138.9390     92.4189   7.9606271139e+01   3.6434455336e+01    0.3617565      0.27871 -76.77  0.000810269    1.693    0.409
       409 -10.2624    124.0588     91.3577   8.3218292629e+01   3.9946445220e+01    0.5710703    0.4462293  32.90  0.001380079    1.376    0.273
       410  -8.8068    126.8569     84.3032   8.0377825605e+01   4.0803884156e+01    0.5120511    0.3003789  13.79  0.001552902    4.109    0.757
       411  -9.4849      5.1924     92.1498   1.2044293780e+02   5.5692568500e+01    0.3407476    0.1771441  56.33    0.0013148    2.474    0.596
       412  -9.6818    247.7825     90.7985   5.8152559893e+01   1.1136363164e+01    0.4318752     0.239895 -66.09  0.001654619    3.107    0.678
       413  -8.2390    157.6961     91.3579   7.4739629319e+01   3.2252838615e+01    0.3527702    0.1860608 -52.09 0.0008594064    2.207    0.547
       414  -9.6013     34.8177     90.0155   1.1059352480e+02   5.4039878605e+01    0.4231581    0.2381178 -89.88  0.001556871    2.585    0.613
       415  -9.1787     22.8013     90.3564   1.1457906281e+02   5.4958332472e+01    0.2542247    0.2057004 -32.69 0.0008588997    1.364    0.267
       416  -7.9824    151.1587     89.2114   7.5659128332e+01   3.4236354244e+01    0.2163821    0.1825028 -69.15 0.0003800364    1.347    0.258
       417 -10.0117     86.3714     86.5986   9.2928257660e+01   4.8207007077e+01    0.5257636    0.3677346  79.14  0.001309488    2.331    0.571
       418  -8.8387     86.3490     81.3269   9.1428224584e+01   4.9365415031e+01    0.3510656    0.2332468   4.25  0.001507593    2.363    0.577
       419  -7.6910    164.1885     87.3763   7.2120064853e+01   3.1450320791e+01    0.2144811    0.1506535  64.78 0.0005256449    1.598    0.374
       420  -9.9284     48.6916     84.2166   1.0469080859e+02   5.3974291146e+01    0.5711992    0.3746507 -81.22  0.002253382    1.940    0.485
       421  -7.5509    179.3037     85.6456   6.8407396063e+01   2.8052110587e+01    0.1643989    0.1207517 -69.09 0.0007040026    1.710    0.415
       422  -9.8152    104.9967     83.3672   8.6287989582e+01   4.5539602095e+01    0.4631873    0.3396321 -78.29  0.001044606    1.976    0.494
       423  -9.0417    105.8543     76.9375   8.4070480351e+01   4.6712056499e+01    0.3982527     0.230657  26.94  0.001213761    2.301    0.565
       424  -8.1841    157.8633     84.1167   7.2598223756e+01   3.3612407700e+01     0.235985    0.2076361 -65.15 0.0003901141    1.228    0.186
       425  -9.1030    140.9895     82.7386   7.6231646481e+01   3.7908389851e+01    0.4358289    0.2404096 -51.53  0.001112206    2.052    0.513
       426  -9.7697     24.8016     80.7451   1.1210518927e+02   5.6996867443e+01    0.4219943    0.2464556  87.03  0.001288756    2.428    0.588
       427  -9.4176      9.9643     81.2020   1.1723289391e+02   5.7893665400e+01    0.3488005    0.1914249  63.54  0.001454955    2.613    0.617
       428  -7.9382     35.3161     82.3190   1.0882228216e+02   5.5755993736e+01    0.1338942   0.08165363 -38.04 0.0002895832    1.656    0.396
       429  -8.5247    150.0427     80.5347   7.3356445379e+01   3.6187185761e+01    0.3088453    0.2139989 -55.74 0.0008980415    1.641    0.391
       430  -9.1496    119.3021     79.9530   8.1125009920e+01   4.3326854377e+01    0.4306371    0.2529479 -49.15  0.001465864    1.762    0.432
       431  -9.1444     74.4901     80.1501   9.4943819972e+01   5.1516605501e+01    0.3703516    0.2308116 -65.59  0.001418413    1.947    0.486
       432  -8.1666    249.6913     80.6629   5.5478879356e+01   1.2296915699e+01    0.1372654    0.1067413   7.91 0.0007043121    1.680    0.405
       433  -8.2960    166.8663     79.6762   6.9290285328e+01   3.2227338090e+01     0.255394    0.2086421 -25.71 0.0003040008    1.285    0.222
       434  -8.0124    184.0000     78.0725   6.5326292742e+01   2.8235467199e+01    0.2537539   0.08729004 -35.05 0.0007684606    2.875    0.652
       435  -9.9973     63.4745     73.7414   9.6852224752e+01   5.4490671183e+01     0.707725    0.2943342 -62.24   0.00248549    3.395    0.705
       436  -8.6920     64.3600     63.6890   9.3506822645e+01   5.6494729523e+01    0.3893417    0.2153151 -19.28  0.001549965    2.964    0.663
       437  -9.4572    127.9336     75.1310   7.7261616200e+01   4.2389813663e+01     0.418862    0.2779991 -59.70 0.0006674693    1.906    0.475
       438  -8.4588    140.3640     75.5107   7.4173747635e+01   3.9449308606e+01    0.2668919      0.22491  86.02 0.0006174218    1.425    0.298
       439  -9.9894     82.5272     71.5576   8.9718257732e+01   5.2081456372e+01    0.8490436    0.3440794 -45.21  0.002733125    2.269    0.559
       440  -8.0230    163.4829     73.4925   6.8179370638e+01   3.4185792111e+01    0.2608105    0.1397956 -46.10 0.0007071024    1.951    0.488
       441 -10.2205    114.3631     71.2122   7.9761742108e+01   4.6115239037e+01    0.3750648    0.2725605 -57.90  0.001752734    1.612    0.379
       442  -8.0450    175.4385     72.7349   6.5466450915e+01   3.1316389131e+01    0.2079936     0.152097 -20.65 0.0006072326    1.547    0.354
       443  -7.9855    151.4917     73.5346   7.0881299284e+01   3.7142185064e+01    0.1540491    0.1519282 -78.69 0.0004500399    1.037    0.035
       444  -9.2556    105.8983     71.6404   8.2377517619e+01   4.7773413692e+01     0.355286     0.210993 -52.82 0.0009009646    1.882    0.469
       445  -9.5237     95.0949     70.9535   8.5470198750e+01   4.9995374855e+01    0.4364144    0.2219438 -52.27   0.00094496    2.166    0.538
       446  -9.4681     51.3952     69.6205   9.9970038371e+01   5.6907854357e+01    0.4301789    0.2518211 -72.48   0.00145639    2.456    0.593
       447  -9.1625     30.0158     69.9839   1.0789155316e+02   5.8978260435e+01    0.4385396    0.2098044 -18.11  0.001759122    3.840    0.740
       448  -9.1968     16.6657     70.1829   1.1282559968e+02   5.9933396937e+01    0.2867331    0.1770823 -82.84 0.0009857276    1.846    0.458
       449  -8.8039    146.9686     68.2308   7.0284377776e+01   3.9203880460e+01    0.3275648    0.2033436 -45.52 0.0006154592    1.671    0.401
       450  -8.7506    138.6172     66.1964   7.1651848046e+01   4.1580275631e+01    0.3388309    0.2398044 -60.15 0.0009414295    1.749    0.428
       451  -8.8753    121.6478     66.1275   7.6053352976e+01   4.5504342973e+01    0.3228532    0.2383042 -62.92 0.0006707343    1.725    0.420
       452  -9.0184    110.1584     63.6365   7.8472839706e+01   4.8446856797e+01    0.3480778    0.2204659 -53.97 0.0008471537    1.883    0.469
       453  -8.2901     42.8114     72.7610   1.0391883636e+02   5.7168016168e+01    0.2335091    0.1598533 -84.23  0.001036246    2.003    0.501
       454  -8.8151     37.3665     64.2400   1.0368223432e+02   5.9562785239e+01    0.3031998    0.1969459 -76.01  0.000937088    1.989    0.497
       455  -7.6371    187.7238     63.3689   6.0412399373e+01   2.9762582947e+01    0.1614254    0.1119161 -62.43 0.0007006986    1.681    0.405
       456  -8.2422    158.2425     61.9802   6.5766986683e+01   3.7490796362e+01    0.2132131    0.1944617 -38.70 0.0003806665    1.107    0.097
       457  -9.3294     97.3732     60.6376   8.1319853408e+01   5.1582897571e+01    0.2733214    0.2669209  62.67 0.0008468656    1.176    0.149
       458  -9.7334     73.2517     59.5151   8.8973167007e+01   5.6020279221e+01    0.4018826    0.2424019 -56.03   0.00111761    1.913    0.477
       459  -8.1582    147.0136     59.0267   6.7318857232e+01   4.0784448430e+01    0.2366727      0.18157 -65.19 0.0004623875    1.585    0.369
       460  -8.5687    130.7908     57.8911   7.0870808069e+01   4.4885702464e+01    0.2644187    0.2013208 -53.91 0.0004837587    1.491    0.329
       461  -9.9084     23.2991     56.4453   1.0706232278e+02   6.2429171949e+01    0.4028843    0.2582781  89.85  0.002083357    2.540    0.606
       462  -9.4009      7.4289     57.1367   1.1352499097e+02   6.3303680361e+01    0.2590698    0.1807433  88.70  0.001052813    1.787    0.441
       463  -8.4794    139.9764     56.2964   6.8066992085e+01   4.2961523068e+01    0.2725282    0.2043054 -58.18 0.0005956892    1.574    0.365
       464  -9.4949    119.1703     55.7670   7.3214595266e+01   4.7911829131e+01    0.4600102    0.2371251 -46.40  0.001507022    2.144    0.534
       465  -9.4790     54.2811     55.4501   9.4579464661e+01   5.9511138361e+01    0.3438162    0.2148082 -63.81  0.001038949    2.080    0.519
       466  -9.0076     44.1415     55.8515   9.8628552572e+01   6.0625319690e+01    0.2673586    0.1931257 -64.92 0.0008105907    1.587    0.370
       467  -8.6644    105.6903     53.2920   7.6190391113e+01   5.1248210121e+01    0.2365693    0.2157255 -57.79 0.0005280928    1.265    0.210
       468  -8.3856     88.8439     59.7851   8.3760539083e+01   5.3338991674e+01    0.1848494    0.1698154 -69.14  0.000530258    1.314    0.239
       469  -9.4522     92.3573     50.6531   7.9364277907e+01   5.4365172975e+01    0.4046447    0.2352159 -49.41  0.001031413    1.975    0.494
       470  -8.4805    144.8103     49.3410   6.4617777401e+01   4.2889597172e+01    0.2067767       0.1865 -41.00 0.0005539868    1.145    0.127
       471  -8.2390    129.5549     49.0041   6.8125128285e+01   4.6642726635e+01    0.2213411    0.1444753 -33.33 0.0004063022    1.547    0.353
       472  -8.6850    120.9613     47.6745   6.9870662247e+01   4.8851258333e+01    0.2462775     0.203829 -27.68 0.0005106125    1.210    0.174
       473  -8.4527    112.3408     47.0387   7.1997101410e+01   5.0880608953e+01    0.2312227    0.2046776 -82.02 0.0005337396    1.434    0.303
       474  -9.1714     82.1680     45.8264   8.0950115224e+01   5.7080314949e+01    0.4772392     0.200265 -39.15  0.001439101    2.257    0.557
       475  -8.9430    133.2354     43.8610   6.5419188709e+01   4.6557523875e+01    0.4186341    0.2482836 -60.02  0.001636932    2.585    0.613
       476  -8.3496     45.0259     44.8419   9.4621359269e+01   6.2704789258e+01      0.22357    0.1565235 -44.78 0.0006013211    1.261    0.207
       477  -8.8794     16.6231     44.5670   1.0654682231e+02   6.5355834635e+01    0.2133775    0.1747858 -58.71 0.0006485023    1.226    0.184
       478  -8.7123     92.8417     43.2464   7.6429596636e+01   5.5533099803e+01    0.2709687    0.1737787  -7.34  0.001116229    2.039    0.509
       479  -8.8991     58.0620     42.5573   8.8557932830e+01   6.1473494730e+01    0.3056667    0.1777701 -55.99  0.001039062    2.229    0.551
       480  -9.3458     69.6235     41.4298   8.3723936676e+01   5.9950806404e+01    0.4147528    0.2417535 -50.40  0.001700239    2.015    0.504
       481  -9.4026      5.1324     42.0382   1.1083899294e+02   6.6551567966e+01    0.3046846    0.1896933 -81.99  0.001368184    2.127    0.530
       482  -8.3375    106.0191     41.5015   7.1743091878e+01   5.3124262089e+01    0.2599059     0.188698 -47.03 0.0007314628    1.564    0.361
       483  -7.7538    140.4202     41.5099   6.2935080171e+01   4.5149064771e+01    0.1448422     0.141672  36.40 9.658752e-05    1.026    0.026
       484  -8.6754     36.7682     40.8798   9.6673000632e+01   6.4360218985e+01    0.2141408     0.159992 -60.13  0.000743367    1.565    0.361
       485  -9.0753     95.4215     37.8465   7.3518064448e+01   5.5882781828e+01    0.3231494    0.1988917 -39.33  0.001389041    1.665    0.400
       486  -8.2900     80.8672     37.0979   7.7989840487e+01   5.8768713057e+01    0.1978302    0.1814396 -49.50 0.0004870936    1.340    0.254
       487  -9.3993     26.2417     35.6065   9.9424320448e+01   6.6358288008e+01    0.2916563    0.1933465 -63.10 0.0009482773    1.822    0.451
       488  -8.0284    133.1465     36.1880   6.2716942214e+01   4.7683850668e+01    0.1981843    0.1732396 -68.24 0.0006198546    1.337    0.252
       489  -8.1590    125.9472     35.6704   6.4238082555e+01   4.9483582053e+01    0.2011228    0.1756539  48.35 0.0003579498    1.107    0.097
       490  -8.6806    111.8521     34.7692   6.7531424835e+01   5.2853580339e+01    0.2521771    0.1732518 -54.42 0.0006622147    1.916    0.478
       491  -7.6704     88.5403     34.5065   7.4374561850e+01   5.7745175898e+01    0.1371835     0.123359   0.20 0.0001293195    1.021    0.020
       492  -8.9820     48.4568     33.3513   8.8858304255e+01   6.4381628582e+01    0.2534166     0.201505 -49.02 0.0007653025    1.446    0.308
       493  -8.9707    118.8977     32.3506   6.4756275780e+01   5.1589598299e+01    0.3706832    0.1677948 -39.03  0.001238268    2.332    0.571
       494  -8.7070     60.7461     32.5657   8.3543839145e+01   6.2813085348e+01    0.2303972    0.1600897 -34.71 0.0004137217    1.316    0.240
       495  -8.7735     72.1856     31.3667   7.8712362864e+01   6.1183562520e+01    0.2172536    0.2006442 -78.29 0.0005578246    1.579    0.367
       496  -7.6217    139.0321     31.7266   5.9818276953e+01   4.6835968337e+01    0.1847367    0.1229642  59.19 0.0006995071    1.443    0.307
       497  -8.9338    175.5073    247.6559   1.0245582917e+02  -1.5718835392e-02    0.2725464    0.2156562  83.53  0.001373428    1.971    0.493
       498  -7.9660     42.2730     30.6028   9.0388719906e+01   6.5615579170e+01    0.1136568   0.09548076 -64.74  0.000692366    1.741    0.426
       499  -8.9248     81.3885     27.5396   7.3858114019e+01   6.0121913700e+01    0.2590072    0.2102382 -47.13 0.0007641377    1.522    0.343
       500  -9.3312      3.3832     27.3010   1.0735616997e+02   6.9520870358e+01    0.2777439    0.1683741 -66.91  0.001509472    1.802    0.445
       501  -7.8291    109.7272     27.3431   6.5212206650e+01   5.4336826934e+01    0.1347016    0.1083291 -59.55 0.0006144075    1.616    0.381
       502  -8.8908     91.6497     26.3427   7.0023808076e+01   5.8305616624e+01    0.2896011    0.2097424 -45.05  0.000914703    1.648    0.393
       503  -8.3239    104.1816     22.7910   6.4888542445e+01   5.6137545255e+01    0.1927892    0.1469205  21.41 0.0003816077    1.296    0.229
       504  -8.0685     34.9457     23.4491   9.0687737508e+01   6.7661124191e+01    0.1519162    0.1003854  51.59 0.0008079818    2.726    0.633
       505  -8.9810     63.5354     21.0727   7.7464118734e+01   6.4139117623e+01    0.2715354    0.2033491 -51.65  0.000848839    1.895    0.472
       506  -8.9961     48.3626     21.7655   8.3959679283e+01   6.6286847284e+01    0.2267548     0.193347 -29.99 0.0006842543    1.262    0.208
       507  -8.2238     19.7462     21.7917   9.7269598922e+01   6.9412950307e+01     0.141749    0.1270668 -44.48 0.0005011585    1.376    0.273
       508  -7.8108    120.5139     20.9764   6.0012006819e+01   5.2643239643e+01     0.197598    0.1052948 -49.00 0.0008089129    2.521    0.603
       509  -8.4626    101.5805     29.6598   6.8406377604e+01   5.5801640192e+01    0.2095127    0.1722616  77.45 0.0006693692    1.634    0.388
       510  -9.0273     74.0314     19.3977   7.2834908590e+01   6.2581414437e+01    0.2878575    0.1901806 -36.80 0.0008446578    1.609    0.379
       511  -8.1147     87.7887     17.7944   6.7563618890e+01   6.0177231456e+01    0.1690421    0.1522635 -39.76 0.0004951471    1.347    0.258
       512  -8.3693     38.7191     18.1828   8.6611448400e+01   6.8070861606e+01    0.1796533    0.1319036 -39.71 0.0007163431    1.406    0.289
       513  -7.8701    112.8729     16.8240   6.0216019593e+01   5.4890300859e+01    0.1753911    0.1625529 -71.07  0.000352211    1.312    0.238
       514  -7.2020    120.6651     16.3319   5.8182195878e+01   5.3128176235e+01     0.138899    0.1063009 -66.50 0.0007052201    1.732    0.423
       515  -8.2338     30.0481     16.0681   8.9734214988e+01   6.9384699061e+01    0.1564066    0.1406397 -52.74 0.0005945817    1.628    0.386
       516  -8.0066      7.5785     15.7723   1.0106806287e+02   7.1364158003e+01    0.1454789   0.09269369 -55.78 0.0004881512    1.620    0.383
       517  -8.1288     97.1722     15.1732   6.3654971712e+01   5.8548175248e+01    0.1743156    0.1551086 -40.79 0.0004605046    1.340    0.254
       518  -7.9246     17.1209     14.1569   9.5373267995e+01   7.0923659585e+01    0.1420679    0.1205262 -37.08 0.0004698033    1.316    0.240
       519  -8.8114    176.6952    243.6864   1.0170958042e+02   3.3024037987e-01    0.3405657    0.2112625   8.66  0.001761154    2.565    0.610
       520  -8.7816    156.1944    248.4457   1.0604028253e+02   2.9382569908e+00    0.2277473    0.1552632  66.64 0.0008996473    1.875    0.467
       521  -8.2536    113.1582    248.6699   1.1381656424e+02   9.5806052970e+00    0.1854565    0.1390028  87.99 0.0008964444    1.499    0.333
       522  -7.8518     47.5661     10.4870   7.8962715662e+01   6.8017608067e+01    0.1211076   0.09858149  -7.05 0.0001704134    1.056    0.053
       523  -9.2437    103.8892    247.0073   1.1530798241e+02   1.1223194598e+01    0.3970193     0.201368 -82.01  0.002017902    3.015    0.668
       524  -9.0165    242.9657    246.7587   9.0571949334e+01  -1.0083655885e+01    0.2932896    0.1519835 -25.41  0.001402813    2.083    0.520
       525  -8.5609    232.5583    247.3410   9.2407876558e+01  -8.6749030483e+00    0.1657524    0.1521477  -1.99 0.0006161031    1.436    0.304
       526  -8.1709    218.5180    248.0533   9.4914149081e+01  -6.7040127839e+00    0.1487495    0.1088489 -25.72 0.0008000644    1.579    0.367
       527  -8.7000    132.2071    247.7987   1.1030279714e+02   6.8047612911e+00    0.2100366    0.1485821  66.41 0.0007094905    1.488    0.328
       528 -10.0341    223.9662    244.0866   9.3379809459e+01  -7.0600309524e+00    0.3973941    0.2270453 -43.95  0.002318871    2.521    0.603
