#   1 NUMBER                 Running object number                                     
#   2 MAG_AUTO               Kron-like elliptical aperture magnitude                    [mag]
#   3 X_IMAGE                Object position along x                                    [pixel]
#   4 Y_IMAGE                Object position along y                                    [pixel]
#   5 X_WORLD                Barycenter position along world x axis                     [deg]
#   6 Y_WORLD                Barycenter position along world y axis                     [deg]
#   7 A_WORLD                Profile RMS along major axis (world units)                 [deg]
#   8 B_WORLD                Profile RMS along minor axis (world units)                 [deg]
#   9 THETA_WORLD            Position angle (CCW/world-x)                               [deg]
#  10 FWHM_WORLD             FWHM assuming a gaussian core                              [deg]
#  11 ELONGATION             A_IMAGE/B_IMAGE                                           
#  12 ELLIPTICITY            1 - B_IMAGE/A_IMAGE                                       
         1 -10.2200    245.1294      8.3660   3.9096148991e+01   2.2573162885e+01    0.2395894    0.1738626   6.38  0.001308758    1.910    0.476
         2  -9.6184    128.4078    248.9143   1.1069475724e+02   8.5462590361e+00    0.2469535    0.1527009  29.45   0.00122403    1.740    0.425
         3 -10.6624    244.6402    237.5920   8.9778441132e+01  -6.9627812276e+00    0.8838131    0.3201997  32.40  0.004649989    2.288    0.563
         4  -9.9542    219.4286    244.5529   9.4813692162e+01  -4.1908555281e+00    0.3546493    0.1644514  32.51  0.001286976    1.700    0.412
         5 -10.6422    208.1963    234.7076   9.5253073618e+01  -1.5122316825e+00    0.4857073     0.155861  41.29  0.002180673    2.558    0.609
         6 -11.2524    198.3352    244.9695   9.8332560624e+01  -1.2224641614e+00     1.049451    0.5356435  15.83  0.005223444    2.975    0.664
         7 -11.4976    212.6015    242.8298   9.5682322916e+01  -3.0447625905e+00    0.8165446    0.4766185  11.14   0.00496069    1.967    0.492
         8  -9.8660    246.7438    250.3954   9.1348327885e+01  -8.4213471094e+00    0.7491797    0.1391324  40.81  0.002929192    4.669    0.786
         9 -10.9298    227.0005    240.4339   9.3000207065e+01  -4.8286180783e+00    0.5425525    0.2187119  43.97  0.002859192    2.409    0.585
        10 -10.6977    205.1213    248.6125   9.7701786714e+01  -2.5951159510e+00    0.5954055    0.3675142  31.56  0.004083321    1.225    0.184
        11  -9.6210    185.2523    250.1149   1.0118124853e+02   9.5771535694e-02    0.4079957    0.1877634  32.49  0.002209374    1.842    0.457
        12 -10.6839    191.2482    243.0723   9.9264930460e+01   3.0577820084e-02    0.6791649    0.3207624  23.24  0.003351289    2.723    0.633
        13 -10.3599    245.2523    244.6319   9.0737481677e+01  -7.7061740947e+00    0.9366172    0.2406846  31.36  0.003819776    4.008    0.751
        14 -10.6005    235.5762    243.5009   9.2082766399e+01  -6.3104524652e+00    0.6144024    0.2280749  36.04  0.003350693    2.112    0.527
        15  -8.3283    177.2978    250.6484   1.0257700239e+02   1.1906339091e+00    0.2140612    0.0794708  43.16 0.0007053521    2.119    0.528
        16 -10.0863    168.4317    249.0705   1.0387969164e+02   2.6777043045e+00    0.5360789    0.2943436  26.70  0.003163733    1.890    0.471
        17 -10.3611    178.0368    243.6788   1.0158224939e+02   1.9158568182e+00    0.5120515    0.2991572  20.65  0.003008369    1.981    0.495
        18  -9.5914    151.6377    249.3869   1.0677108850e+02   5.1046149910e+00    0.4365143    0.1418424  39.45   0.00209317    2.397    0.583
        19  -9.9509    157.4856    245.6160   1.0533893230e+02   4.7308402611e+00     0.269695      0.19957  12.05  0.001311854    1.672    0.402
        20  -9.3714    144.1310    249.5730   1.0807277846e+02   6.1779751138e+00     0.316493    0.1555302  36.26   0.00183477    1.702    0.413
        21  -8.6968    138.9334    250.4794   1.0905591925e+02   6.8127178853e+00    0.2559503    0.1085423  39.37  0.001407099    1.841    0.457
        22  -7.5812    132.2831    250.6273   1.1020481023e+02   7.7527505578e+00    0.1090314   0.07112982  64.35 0.0007015079    1.705    0.414
        23  -9.8091    119.4716    248.7471   1.1220887043e+02   9.8463903758e+00    0.2928878    0.2095272 -21.65  0.001842646    2.676    0.626
        24 -10.7877    119.3892    245.0303   1.1186456215e+02   1.0393571113e+01    0.3366173    0.1750679  35.93  0.001986702    1.744    0.427
        25 -11.2197    124.7716    240.5968   1.1047995511e+02   1.0263065543e+01    0.5647169    0.2475987  36.45  0.002987939    2.050    0.512
        26  -8.7760     98.9975    247.5042   1.1559625872e+02   1.2879957849e+01    0.1626965    0.1268733  18.80  0.001142962    1.881    0.469
        27  -9.0755     89.0677    249.7651   1.1746050914e+02   1.3872759932e+01    0.2416715    0.1562628  37.96  0.001682123    1.478    0.324
        28  -9.3561     73.7996    250.4314   1.2005519408e+02   1.5744021093e+01    0.3578638   0.09447149  40.23  0.001702832    2.892    0.654
        29  -9.8707     50.4371    249.8392   1.2383449898e+02   1.8667196429e+01    0.3842736    0.1400914  41.30  0.002239841    2.132    0.531
        30 -10.0875      9.6665    244.0907   1.3000205546e+02   2.3935373782e+01     0.202194     0.090383  60.00  0.001228439    1.526    0.345
        31  -9.3819     18.6553    248.7968   1.2879228852e+02   2.2285954449e+01    0.2020066    0.1281923  61.07  0.001646381    1.063    0.059
        32  -9.6476      3.7719    248.8370   1.3104846764e+02   2.3732346501e+01    0.3302664    0.1117733  42.83  0.002054682    2.136    0.532
        33  -9.9062     13.3076    247.8587   1.2957661199e+02   2.2970343435e+01    0.2788215   0.07997046  50.19  0.001671208    2.164    0.538
        34 -10.4006      2.9748    242.1826   1.3096373415e+02   2.4882822251e+01    0.4322561    0.1428804  67.84  0.002562281    2.352    0.575
        35  -9.7858    125.0750    245.4853   1.1092500111e+02   9.5104460138e+00    0.2469023   0.08637789  40.92  0.001222897    2.208    0.547
        36  -9.8126    132.9794    245.7179   1.0958075920e+02   8.3304597686e+00     0.245371    0.1736333  16.09  0.001265568    1.988    0.497
        37  -9.9084    109.1727    249.0149   1.1399313932e+02   1.1254795927e+01    0.1989773    0.1260806  43.83  0.001294623    1.231    0.188
        38 -10.3436     64.2297    248.4326   1.2150248075e+02   1.7244400631e+01    0.5761359    0.1370456  39.42  0.002638768    3.268    0.694
        39  -8.8674     25.6835    248.7835   1.2770504921e+02   2.1565523491e+01    0.2071803   0.08639185  50.19 0.0009614173    1.646    0.393
        40  -9.4885     33.5841    247.7249   1.2641826666e+02   2.0894805777e+01    0.2117168    0.1099589  57.44  0.001133845    1.348    0.258
        41  -8.8794    139.2269    245.7781   1.0850659695e+02   7.4078556695e+00    0.2681751    0.1226258  36.07  0.001467651    1.899    0.473
        42  -9.4778    143.9780    242.0800   1.0727369540e+02   7.2143952312e+00    0.2700727    0.1549517  29.41  0.001371481    1.817    0.450
        43  -9.3662    104.7653    246.3904   1.1451332783e+02   1.2253991214e+01    0.2292266   0.08774129  35.31  0.001114234    2.631    0.620
        44  -9.0162    163.7819    244.3736   1.0410883244e+02   3.9538051699e+00    0.2348507    0.1595972  33.06   0.00105956    1.219    0.180
        45  -9.7869    147.9075    244.8752   1.0690580463e+02   6.2498355877e+00    0.2820307     0.166091  26.27  0.001302685    1.916    0.478
        46  -9.9368     95.8784    243.6708   1.1580596874e+02   1.3888008254e+01    0.3301186    0.2382638  -5.93  0.001848019    3.486    0.713
        47  -9.8490     81.0044    244.5097   1.1842000181e+02   1.5741079093e+01     0.236875    0.1748749  22.72  0.001626401    2.012    0.503
        48  -9.7978     21.9205    244.3192   1.2810736256e+02   2.2676725316e+01    0.3464954   0.07606433  38.94  0.001732459    3.304    0.697
        49 -10.2436    113.9753    243.0452   1.1261290103e+02   1.1458838161e+01    0.2564811    0.1366849  36.15  0.001275954    1.717    0.418
        50 -10.0905     28.8149    242.8856   1.2695323696e+02   2.2191706988e+01    0.1972117    0.1166339  62.94  0.001058581    1.185    0.156
        51  -9.6492    103.7000    241.9882   1.1430354665e+02   1.3067386124e+01    0.1498385    0.1225893  57.02 0.0007359523    1.089    0.082
        52 -10.3297     15.0710    240.6361   1.2903676650e+02   2.3973410446e+01    0.2836257    0.1025867  61.50  0.001731154    2.033    0.508
        53  -8.8363    138.4845    240.4911   1.0805819032e+02   8.2546118793e+00    0.2066281   0.09112488  33.22  0.001029813    2.298    0.565
        54  -8.2878     96.1816    250.6290   1.1633256862e+02   1.2794512132e+01    0.2482158    0.1313021  25.57  0.001259504    3.223    0.690
        55  -9.4729    134.1825    237.9821   1.0853963039e+02   9.2552218253e+00    0.2201969    0.1580694   7.43  0.001276642    2.236    0.553
        56  -8.9928     37.2495    240.5540   1.2547794619e+02   2.1663368667e+01    0.1959473   0.06841532  43.88  0.001133715    2.090    0.522
        57  -9.0755    170.4232    240.0413   1.0242734858e+02   3.5106197550e+00    0.3311938    0.1919083  26.42  0.001748627    1.753    0.429
        58  -8.9540    149.8099    237.8135   1.0575698874e+02   6.9285728077e+00     0.284824    0.1776427  25.15  0.001692049    1.804    0.446
        59  -8.8730     70.4926    239.2439   1.1982576733e+02   1.7935434702e+01     0.355055    0.1230112  37.43  0.001778361    2.642    0.622
        60  -9.3847    200.4544    224.6631   9.5088572629e+01   8.4406487300e-01    0.2675137    0.1791925  17.47  0.001287362    1.458    0.314
        61  -9.5670    184.6406    236.4434   9.9500556316e+01   1.8112896788e+00    0.2587612    0.2048234  16.27  0.001460653    1.216    0.178
        62  -9.4322    190.4352    234.8080   9.8280118066e+01   1.1341513499e+00    0.2999574    0.1556503  27.53  0.001127067    1.868    0.465
        63 -10.2093    195.6391    230.1194   9.6722026656e+01   9.1428828579e-01     0.392527    0.2007353  24.76  0.002073409    2.101    0.524
        64 -10.1234    161.6971    235.4644   1.0337285429e+02   5.4385948277e+00    0.4475366    0.2553155  21.20  0.002387349    2.338    0.572
        65  -8.4893    112.8111    237.6988   1.1229847890e+02   1.2433300391e+01    0.1738896    0.1218575  34.20 0.0008798628    1.437    0.304
        66  -9.2501     44.2071    244.1629   1.2453280112e+02   2.0292065324e+01    0.3061769     0.104254  43.09  0.001750301    2.155    0.536
        67  -7.7494    117.3433    238.3287   1.1155876662e+02   1.1682654832e+01    0.1054175   0.08371928  15.52 0.0007050976    1.746    0.427
        68  -8.8258     91.3846    236.2148   1.1595081333e+02   1.5675103901e+01    0.1996053     0.164773  30.50  0.001286302    1.510    0.338
        69  -8.6736     44.6067    236.1965   1.2402354056e+02   2.1564607587e+01    0.2477776    0.1025086  57.21  0.001472262    1.866    0.464
        70 -10.5831    220.3917    249.1327   9.5299369980e+01  -4.7882525911e+00     1.193214    0.2416926  35.67  0.004457685    4.420    0.774
        71  -9.5365    129.8577    235.4664   1.0903231995e+02   1.0270213374e+01     0.193882    0.1518363 -25.49  0.001309386    1.903    0.475
        72  -8.0642     34.6909    236.3120   1.2568110393e+02   2.2653248298e+01    0.1111837   0.05301156  63.18 0.0003224653    1.624    0.384
        73  -9.0523    139.7847    234.7651   1.0717974665e+02   8.8801091606e+00    0.2762954    0.1581785  32.47  0.001610093    1.686    0.407
        74  -8.5224     53.3297    238.8192   1.2271348846e+02   2.0110662623e+01    0.2209878    0.0918294  55.50  0.001301308    1.850    0.460
        75  -9.8402      5.3252    235.2450   1.3037305243e+02   2.5815401445e+01    0.1700809    0.1019084  57.15  0.001159185    1.194    0.163
        76  -8.4764    237.7663    233.8372   9.0289378791e+01  -5.6570843372e+00    0.2629389     0.117398  34.11  0.001237099    1.797    0.443
        77  -9.9659    232.0746    234.0718   9.1235908299e+01  -4.8876232918e+00      0.36158    0.1322812  44.77  0.001741839    2.858    0.650
        78 -10.6143    196.6118    236.0066   9.7392608195e+01   6.0626294526e-02    0.5988595    0.2044515  32.25   0.00259565    2.998    0.666
        79  -8.6904    171.3984    233.0039   1.0134567655e+02   4.2754455580e+00    0.2425316    0.1681468   4.93  0.001484651    1.927    0.481
        80  -8.3121    153.4779    232.8624   1.0450557784e+02   7.0594715388e+00    0.2372925    0.1302161  29.19  0.001301415    1.912    0.477
        81  -8.4737    108.9756    233.4786   1.1256615008e+02   1.3642322144e+01    0.1769965   0.09115703  42.17  0.001022709    1.563    0.360
        82  -8.5802    177.5118    232.1045   1.0015121975e+02   3.4499961589e+00    0.2451262    0.1261163  28.21  0.001304081    1.984    0.496
        83  -8.1248     27.7012    232.3502   1.2664073009e+02   2.4077927179e+01     0.112888     0.052118  64.71  0.000651152    1.688    0.408
        84  -9.5478    208.2745    229.7864   9.4517573940e+01  -9.5912207626e-01    0.3931639    0.1356767  34.83  0.001814007    2.524    0.604
        85  -7.8562     85.3519    231.3067   1.1659993128e+02   1.7297942678e+01   0.09840898   0.08643855  14.38 0.0007042485    1.712    0.416
        86  -9.2134     11.5220    231.4934   1.2924979302e+02   2.5862096722e+01    0.1771684   0.05315582  47.41    0.0010233    2.212    0.548
        87 -10.0855    217.8326    229.3342   9.2846893737e+01  -2.3288386691e+00    0.3799849    0.1586262  31.04  0.001937057    2.153    0.535
        88  -9.2488    188.5768    229.7192   9.7887097127e+01   2.0476657606e+00    0.2554823     0.159099  16.78  0.001494225    1.826    0.452
        89  -8.4561    146.7076    230.1604   1.0538793667e+02   8.4904881728e+00    0.2247308    0.1366205  22.69  0.001234227    2.110    0.526
        90  -8.1766    134.4651    230.4644   1.0763960093e+02   1.0324467715e+01    0.1173182    0.0935241  46.35 0.0001599481    1.004    0.004
        91  -7.8161    249.5037    229.5216   8.7766963589e+01  -6.8349843934e+00     0.153815   0.09116694  40.79 -6.243328e-05    1.741    0.426
        92  -8.3299    246.0234    228.9402   8.8220250677e+01  -6.3034169231e+00    0.1855738    0.1038616  12.88  0.001127241    1.732    0.423
        93  -8.4085    226.5186    229.4959   9.1438243538e+01  -3.6140423261e+00     0.227444   0.09051271  38.85  0.001062721    2.077    0.519
        94  -8.8430    126.2292    228.9363   1.0896312938e+02   1.1807450321e+01    0.1648436    0.1319675 -11.07 0.0009881736    1.937    0.484
        95  -8.1235     31.4430    229.2226   1.2585887666e+02   2.4219698683e+01    0.1435926   0.07565193  80.38 0.0009437272    1.641    0.391
        96  -9.9105      5.3283    229.3942   1.3016888755e+02   2.6812439900e+01    0.1550689    0.1116259  51.66  0.001283259    1.332    0.250
        97  -9.4845      3.0196    222.0047   1.3027973221e+02   2.8317047750e+01    0.2604852   0.07927407  65.80  0.001371861    2.667    0.625
        98  -8.2610    185.2358    226.5315   9.8017332822e+01   2.9731572676e+00    0.2218965    0.1242036  29.80  0.001017675    1.623    0.384
        99  -8.5633    175.3105    227.1770   9.9864300481e+01   4.4421930290e+00    0.2495051     0.157556  19.72  0.001443887    1.806    0.446
       100  -9.0405    175.8918    237.6219   1.0116877915e+02   2.9905956039e+00    0.2970242    0.1538241  25.42  0.001571452    2.193    0.544
       101  -8.7809    236.1641    226.2352   8.9362528797e+01  -4.6489414265e+00    0.2730358    0.1359739  23.00  0.001525945    1.917    0.478
       102  -8.0912    152.9863    227.4954   1.0391813982e+02   7.9011012829e+00    0.1835248   0.09617724  39.76 0.0009745879    1.550    0.355
       103  -8.0318    139.4680    227.0331   1.0632240752e+02   1.0074290589e+01    0.1464106   0.09944573 -20.55 0.0008095647    2.537    0.606
       104  -8.2715    241.0292    228.5228   8.8944500879e+01  -5.5711653542e+00    0.1672199   0.08874556  35.39 0.0007688963    1.570    0.363
       105  -8.6627    212.7754    225.1423   9.3055355835e+01  -1.0950479282e+00    0.2078592    0.1404207   0.44 0.0008540018    1.588    0.370
       106  -9.2502    191.3617    225.1214   9.6737931379e+01   2.1980576556e+00    0.2417076    0.1460797  32.72  0.001419556    1.369    0.270
       107  -8.7987    163.2381    224.8476   1.0171231099e+02   6.6666693299e+00    0.2352943    0.1373132  22.50  0.001242538    2.125    0.529
       108  -8.3138    224.9299    224.4713   9.0918663575e+01  -2.8312276888e+00    0.1730931   0.09254386  36.56 0.0007858627    1.554    0.356
       109  -9.0524     68.7740    223.5500   1.1894609196e+02   2.0812177530e+01    0.2680926    0.1912165  -3.45  0.001385904    3.866    0.741
       110  -7.5159    169.6546    227.7272   1.0094786989e+02   5.2549999864e+00    0.1177096     0.079842  19.72 0.0006997372    1.621    0.383
       111  -8.8324    207.4444    222.1900   9.3508903621e+01   6.8755554443e-02      0.22675    0.1508838  16.96 0.0009204724    1.439    0.305
       112  -8.1684    120.3800    224.7973   1.0957412129e+02   1.3344394833e+01      0.14134     0.109725 -46.49 0.0008241773    1.663    0.399
       113  -8.2352    132.7680    223.1895   1.0709245688e+02   1.1704499916e+01    0.1579502    0.1302081  24.78  0.001067525    1.357    0.263
       114  -8.1536    195.9950    221.5015   9.5388097685e+01   1.9343738481e+00     0.175456   0.08462896  24.16 0.0008104644    2.544    0.607
       115  -8.4866    181.1105    220.8009   9.7921282580e+01   4.3840256276e+00    0.2281598     0.141754  25.02  0.001316087    1.605    0.377
       116  -8.6927    148.7820    220.7836   1.0381993841e+02   9.5589079273e+00     0.191354    0.1248284   6.43 0.0009533477    2.772    0.639
       117  -8.6120    217.8530    219.8284   9.1367578682e+01  -1.2411471326e+00    0.2104418    0.1590077  19.56  0.001013263    1.062    0.058
       118  -7.8397    176.4596    220.4864   9.8711935070e+01   5.1706893406e+00    0.1206061   0.09852916  32.92  0.000131279    1.006    0.006
       119  -9.6636    233.5022    250.5270   9.3417667955e+01  -6.7005999670e+00    0.6413382   0.09231126  39.65  0.002243741    5.348    0.813
       120  -8.6069    202.8446    218.8596   9.3787789407e+01   1.1941661811e+00    0.1892564    0.1356019  15.26 0.0007727655    1.322    0.243
       121  -8.3556    186.8421    219.3778   9.6686250036e+01   3.6605649910e+00    0.1790574   0.09271803  32.24 0.0009439543    1.734    0.423
       122  -8.2117    159.3795    217.7942   1.0145320164e+02   8.3079961646e+00    0.1526876    0.1125968 -28.77 0.0009457816    1.714    0.416
       123  -7.4501    104.4601    218.5138   1.1186352972e+02   1.6763540725e+01     0.117422   0.09738377  54.21 0.0001551901    1.063    0.059
       124  -8.1952    181.5118    228.5003   9.8951545225e+01   3.2982309840e+00    0.1785751   0.09221675  32.70 -1.418399e-05    1.696    0.411
       125  -8.3930    212.2843    215.5841   9.1637683963e+01   1.2553927306e-01    0.2169297    0.1255438  30.56 0.0007629503    1.469    0.319
       126  -9.6169     13.3245    216.1120   1.2831270713e+02   2.8407921907e+01    0.2071104    0.1123691  52.83  0.001446906    1.412    0.292
       127  -8.1910    206.7147    215.4123   9.2572410936e+01   1.0193750285e+00    0.1701136   0.09354127  31.02 0.0006896051    1.581    0.367
       128  -9.1569    194.7808    215.4442   9.4673486205e+01   2.9125437498e+00    0.2983057   0.09860031  39.11  0.001281925    2.562    0.610
       129  -7.9913    180.2063    215.5770   9.7310927680e+01   5.2480937215e+00    0.1758636   0.09742432  32.04 0.0009422345    1.640    0.390
       130  -8.6492    171.9382    213.5405   9.8520214504e+01   6.8878978891e+00    0.2404958    0.1438363  -1.43   0.00103854    3.520    0.716
       131  -8.1739    223.2307    212.6020   8.9287354095e+01  -1.2075408383e+00    0.1732328   0.09062135  30.04 0.0009134399    1.677    0.404
       132  -8.4595      1.5153    211.9967   1.3016289282e+02   3.0256940448e+01    0.1518881   0.07783092 -88.56  0.000675869    1.585    0.369
       133  -7.6084    125.3441    211.3097   1.0703861859e+02   1.4805912425e+01    0.1165232   0.09331133  11.58 0.0007044885    1.700    0.412
       134  -9.4570    217.7484    206.8317   8.9254780443e+01   3.5269473574e-01    0.3764024    0.1809641  17.68  0.001571829    3.274    0.695
       135  -8.2066    193.6041    207.7290   9.3660277086e+01   4.1436701812e+00    0.1486733    0.1177857 -44.67 0.0009430912    1.583    0.368
       136  -8.0832    144.4013    213.7936   1.0371330970e+02   1.1347725895e+01    0.1531328     0.115064 -33.61 0.0005605022    1.707    0.414
       137  -8.2562    162.0140    208.0124   9.9554219227e+01   9.3589265112e+00    0.1989337    0.1410552  14.71  0.000822739    1.735    0.424
       138  -8.4766    207.4088    205.8886   9.0895377335e+01   2.1325700112e+00    0.2371966    0.1361014  13.81  0.001179412    2.239    0.553
       139  -9.0526      6.2431    205.1232   1.2906589137e+02   3.1110600094e+01    0.2177297   0.07834469  56.97  0.001238802    2.084    0.520
       140  -8.7542    186.9992    202.4954   9.4012966830e+01   5.9836273004e+00    0.2531708    0.1458039   0.73  0.001042992    3.480    0.713
       141  -8.2772    198.3599    201.4670   9.1766836643e+01   4.2209665782e+00    0.2287574    0.1050786 -23.64 0.0009481857    3.332    0.700
       142  -8.0449    179.5063    202.5016   9.5405614946e+01   7.2503282967e+00    0.1272054    0.1072382  27.61 0.0001448128    1.032    0.031
       143  -7.7614    132.8058    199.3469   1.0398313338e+02   1.5665599563e+01    0.1793379    0.1065871  33.91            0    1.690    0.408
       144  -9.2696      3.5150    196.8629   1.2919646920e+02   3.2933820122e+01     0.321745    0.1023124  72.13  0.001522922    3.003    0.667
       145  -7.7950    203.1938    195.3717   8.9845060409e+01   4.2586424424e+00    0.1806911    0.1076868  46.94 0.0009538088    1.708    0.415
       146  -8.1804    185.8376    194.3837   9.2870052725e+01   7.3810506957e+00    0.1898119    0.1053401  32.41  0.000944159    1.714    0.416
       147  -7.2860    223.3113    182.3373   8.3891927582e+01   2.6461112711e+00    0.1345063   0.08757309   7.91 0.0007045065    1.687    0.407
       148  -8.6789    190.7069    179.0652   8.9203614623e+01   8.8791232632e+00    0.1795239    0.1627187  -1.15 0.0008287565    1.089    0.082
       149  -8.7529      2.4444    177.9331   1.2851312494e+02   3.6802931829e+01    0.1694165   0.06033594  74.75 0.0008079206    2.628    0.619
       150  -8.3597    211.9702    162.5339   8.1975067482e+01   7.5302533179e+00    0.2019931    0.1034467  24.72 0.0008096961    2.608    0.617
       151  -8.3573    198.7750    134.7686   7.8323158563e+01   1.4670037121e+01     0.238132     0.106195 -45.29 0.0008926041    2.469    0.595
       152  -7.9098      3.7013    135.3455   1.2561429045e+02   4.5948738486e+01    0.1248904   0.06727157  70.83 0.0003741884    1.677    0.404
       153  -7.7089    193.0000    128.9733   7.8062182516e+01   1.6906097874e+01    0.2434982   0.08174713 -37.30 0.0007976939    2.910    0.656
       154  -8.4901    219.5279    126.5059   7.2599370260e+01   1.1735044720e+01     0.145573     0.128185  -4.93 0.0008093268    1.058    0.055
       155  -7.6782    203.6498    119.6805   7.3773514051e+01   1.6226938965e+01    0.1564304    0.1118146  11.06 0.0007048137    1.740    0.425
       156  -7.8041    155.6005    112.4745   8.1810276202e+01   2.8314696854e+01    0.1528739    0.1471245 -41.58 8.979246e-05    1.023    0.022
       157  -8.1335    212.4623    109.4206   6.9621803277e+01   1.6030830439e+01    0.3464396   0.09034779 -45.83 0.0008091506    5.980    0.833
       158  -8.8331    115.3522     68.8663   7.9032321646e+01   4.6255724857e+01    0.2285679    0.2112818  69.17 0.0003363683    1.196    0.164
       159  -8.0738      7.3129     11.3595   9.9767229871e+01   7.3533293214e+01    0.1274577   0.06440178 -31.65 0.0004629743    1.747    0.428
