#   1 NUMBER                 Running object number                                     
#   2 MAG_AUTO               Kron-like elliptical aperture magnitude                    [mag]
#   3 X_IMAGE                Object position along x                                    [pixel]
#   4 Y_IMAGE                Object position along y                                    [pixel]
#   5 X_WORLD                Barycenter position along world x axis                     [deg]
#   6 Y_WORLD                Barycenter position along world y axis                     [deg]
#   7 A_WORLD                Profile RMS along major axis (world units)                 [deg]
#   8 B_WORLD                Profile RMS along minor axis (world units)                 [deg]
#   9 THETA_WORLD            Position angle (CCW/world-x)                               [deg]
#  10 FWHM_WORLD             FWHM assuming a gaussian core                              [deg]
#  11 ELONGATION             A_IMAGE/B_IMAGE                                           
#  12 ELLIPTICITY            1 - B_IMAGE/A_IMAGE                                       
         1 -16.5754    231.7517     29.7747   8.2675878671e+00   2.3486277181e+01     8.381264     3.974291 -41.53   0.04112967    1.786    0.440
         2 -13.0370     13.3283     12.7841   6.2161494748e+01   7.3583460189e+01    0.5158126    0.2272755 -36.59  0.002567366    1.985    0.496
         3 -13.5958      3.5182     20.8629   7.2288845078e+01   7.2681375581e+01     1.636589    0.3414033 -59.64  0.006165178    3.529    0.717
         4 -12.7497      6.7263     11.4673   6.6184929748e+01   7.4347993503e+01    0.8536823     0.311677 -37.78  0.003982023    2.349    0.574
         5 -11.6314      3.0102      3.7640   6.5182397063e+01   7.6043697328e+01    0.4323662    0.3145037 -37.74  0.002939502    1.123    0.109
         6 -12.8453      9.8046      2.4704   5.9186881797e+01   7.5737286399e+01    0.6966608    0.2637555  30.80  0.003371769    2.829    0.647
         7 -12.0169     13.8524     21.9266   6.5954431070e+01   7.1779249282e+01    0.4088211    0.1140126 -49.09  0.001697273    2.662    0.624
         8 -12.1230    167.6584      9.0604   9.1097377124e+00   4.1112525827e+01    0.3588296    0.2002006 -79.21   0.00157722    2.102    0.524
         9 -11.2502    138.2276      2.0180   1.0588767220e+01   4.9420662231e+01    0.2811961    0.1940406  80.23  0.001098456    1.397    0.284
        10 -13.0525    132.2096      3.2108   1.1941640780e+01   5.0893583047e+01    0.7837434    0.4413164 -77.45  0.003337365    2.358    0.576
        11 -13.0972    119.4195      4.5724   1.4671056113e+01   5.4092654436e+01    0.8678561    0.3905944  82.20  0.003147775    3.059    0.673
        12 -11.8240    230.5047    103.7128   2.6166842106e+01   1.3836417550e+01    0.3819043    0.2136895 -41.32  0.001481528    1.694    0.410
        13 -12.2892    232.3006    244.8774   5.2830302306e+01  -5.1127003659e+00    0.8556144    0.3759184   3.83  0.003559624    4.375    0.771
        14 -12.5998    238.9361    232.5593   4.9884213341e+01  -4.6411595179e+00    0.8366435    0.3601797  -5.90  0.003337855    4.654    0.785
        15 -10.4716    233.4889    250.4923   5.3445575829e+01  -5.8204106964e+00    0.3043129     0.109361  32.65  0.001539127    2.207    0.547
        16 -11.4456    238.0931    245.7016   5.1998993363e+01  -5.8894065079e+00    0.4568337    0.1832457 -27.47  0.002613862    2.576    0.612
        17 -12.0548    242.4728    237.4227   5.0051482402e+01  -5.5754844661e+00    0.6055828    0.2829803  -2.91  0.003084355    2.866    0.651
        18 -11.9372    249.2444    231.8164   4.8099218532e+01  -5.8107181162e+00    0.7876506     0.209205 -27.37  0.003397974    4.149    0.759
        19 -11.5124    245.7754    229.3256   4.8266622916e+01  -5.1367954660e+00    0.2936904     0.162952 -15.91  0.001551645    1.656    0.396
        20 -11.3143    248.3728    223.9990   4.7003785221e+01  -4.8919825696e+00    0.3235263    0.1843309  -1.66  0.001739893    1.617    0.382
        21 -10.9804    248.4821    250.1713   5.0982009166e+01  -7.5227916648e+00    0.3647672      0.17019  25.40  0.002125225    1.656    0.396
        22 -11.7501    243.0675    247.1874   5.1410870419e+01  -6.6185545894e+00    0.5252351    0.2472873 -21.27  0.003278918    2.115    0.527
        23 -11.7360    248.8507    244.1451   5.0038113454e+01  -6.9900985291e+00    0.4167927     0.311576 -18.36  0.003295813    1.518    0.341
        24 -11.7746    223.8437    247.9171   5.4681594573e+01  -4.3943098699e+00    0.4310856    0.2069974   2.79  0.002172228    2.935    0.659
        25 -11.6699    225.5405    240.9585   5.3386353375e+01  -3.8711113973e+00    0.2918511    0.1572353  -7.34  0.001600449    2.039    0.509
        26 -11.9028    218.6652    245.1479   5.5164211318e+01  -3.4569770231e+00    0.3135729    0.1718941   0.10   0.00185732    2.022    0.505
        27 -11.0001     75.4557    249.9122   8.2541734557e+01   1.4986787579e+01    0.4047712     0.120732  40.02   0.00197756    2.292    0.564
        28 -11.6486     66.1560    248.8606   8.4233525152e+01   1.6272289366e+01    0.3866889     0.187823  50.70  0.001781065    1.627    0.385
        29 -11.1536     51.6885    249.6865   8.6999524751e+01   1.7801912246e+01    0.3898574    0.1393115  42.02   0.00215894    1.924    0.480
        30 -10.8641     45.2835    244.6618   8.7913556325e+01   1.9342061732e+01    0.3858982    0.1428268  48.23  0.002143903    1.955    0.489
        31  -9.8306     38.9622    249.9387   8.9356169563e+01   1.9144736320e+01    0.1848533   0.08440956  57.40  0.001131265    1.774    0.436
        32 -10.2544     20.8425    248.7399   9.2567362252e+01   2.1180270652e+01    0.2436277     0.101247  59.40  0.001494426    1.887    0.470
        33  -9.8028     17.4978    250.5213   9.3222869559e+01   2.1207977236e+01    0.1839445   0.05223977  42.50  0.001016401    2.170    0.539
        34 -10.8856     57.9188    247.1747   8.5682404154e+01   1.7507925954e+01    0.1796379    0.1081436  53.41  0.000792567    1.300    0.231
        35 -10.6482     29.1583    243.7376   9.0860315008e+01   2.1194567104e+01    0.2180947     0.102295  68.26  0.001076861    1.961    0.490
        36 -10.4586     21.0168    244.0906   9.2357544501e+01   2.1941584150e+01    0.1771449   0.08018001  56.53 0.0008897489    1.658    0.397
        37 -10.7123      3.8578    242.9805   9.5374184406e+01   2.3718570964e+01    0.2854939     0.117556  58.91  0.001365755    1.771    0.435
        38  -9.7607    110.3399    243.6727   7.5247053645e+01   1.1476923803e+01    0.1212602   0.07218061  55.28 0.0007051555    1.733    0.423
        39 -11.1702     54.0583    239.8823   8.5963521937e+01   1.9172383798e+01    0.3695144    0.1857301  66.78  0.002150849    2.043    0.511
        40 -10.8182     15.3901    240.6639   9.3245582563e+01   2.3062372396e+01    0.2662827    0.0964186  66.86  0.001444395    2.521    0.603
        41 -10.2482     38.3136    240.6712   8.9010978987e+01   2.0769076080e+01    0.2461111    0.1142139  56.68  0.001225587    1.744    0.427
        42  -9.6717     32.5174    241.4968   9.0136755126e+01   2.1233090935e+01    0.1100413   0.07708614  55.52 5.335881e-05    1.046    0.044
        43  -9.5496     20.9285    240.3042   9.2223851576e+01   2.2595501245e+01     0.189318          nan  45.36 0.0007028946    4.408    0.773
        44  -9.9152      9.5037    240.0507   9.4284288687e+01   2.3711679414e+01    0.1391838   0.08478843  86.07 0.0008427371    1.533    0.348
        45 -10.0667    214.3436    239.3253   5.5066752392e+01  -2.2646059248e+00    0.1203982   0.06862575   8.50 0.0007050766    1.738    0.425
        46 -10.5596     90.7133    249.9579   7.9628959488e+01   1.3077814262e+01    0.2379911     0.122061  42.69  0.001435196    1.450    0.310
        47 -11.1802     82.4089    236.6903   8.0152372053e+01   1.6284928096e+01    0.3179206    0.1780181  57.82  0.001697457    1.734    0.423
        48 -10.7182     45.0808    237.0028   8.7521465170e+01   2.0672806860e+01    0.3212545    0.1509818  56.25  0.001894507    1.769    0.435
        49  -9.1202     23.3176    237.6768   9.1675178122e+01   2.2816669324e+01    0.1163202   0.05388124  57.30 0.0007043767    1.669    0.401
        50 -11.7701     63.0218    232.2101   8.3682609698e+01   1.9455173376e+01     0.512392    0.2735126  65.47  0.002939881    1.942    0.485
        51 -10.0516      6.1344    235.6557   9.4749775718e+01   2.4774085443e+01    0.1801607    0.1049051  68.37  0.001180826    1.351    0.260
        52 -11.5150    230.5619    234.8160   5.1621102323e+01  -3.8409289539e+00    0.2298839    0.1362862   8.89  0.001318723    1.472    0.321
        53  -8.9290     15.6840    235.3189   9.2993717646e+01   2.3961001793e+01    0.1152232   0.05264243  57.33 0.0004424571    1.655    0.396
        54 -10.7944     94.9620    236.3518   7.7605071467e+01   1.4706747228e+01    0.2578951    0.1509993  65.35  0.001458504    2.064    0.516
        55  -9.6043     28.0059    232.5004   9.0561088479e+01   2.3261045280e+01    0.1649482   0.04754908  49.37  0.000809194    2.433    0.589
        56 -10.4876     48.1936    229.7774   8.6477042205e+01   2.1603623334e+01    0.3360592    0.1379238  57.40  0.001747861    2.230    0.552
        57 -10.2240     32.1387    229.4194   8.9613562484e+01   2.3392139939e+01    0.2238424   0.08787341  59.12  0.001183611    2.230    0.552
        58  -9.6618      5.9638    229.7428   9.4591617166e+01   2.5831780876e+01    0.1890345   0.09689374  67.74   0.00124959    1.563    0.360
        59 -11.3700    235.4342    227.7253   4.9710832149e+01  -3.6843273560e+00    0.3340922    0.1534253 -18.73   0.00180699    2.378    0.579
        60  -9.8834     40.0053    228.9866   8.8050269906e+01   2.2643413526e+01    0.1953538   0.09308006  55.95  0.001135192    1.725    0.420
        61 -10.1905     95.9833    227.8100   7.6578643409e+01   1.6007648097e+01    0.2114445    0.1030717  52.44   0.00108034    1.996    0.499
        62  -9.8958     82.2065    229.0026   7.9531083124e+01   1.7628079111e+01    0.1952577    0.1121626  66.31  0.001085707    1.991    0.498
        63 -10.8975     10.8465    225.9929   9.3548689872e+01   2.6071039346e+01    0.3092821   0.08597526  63.23  0.001394595    3.354    0.702
        64 -11.5825     74.8731    223.5878   8.0575873569e+01   1.9530478434e+01      0.36574    0.2465787  60.75  0.002305088    1.376    0.273
        65 -11.1516      4.5631    223.2923   9.4640801337e+01   2.7118967501e+01     0.344908     0.115523  72.18  0.001729093    2.846    0.649
        66 -11.7937    240.2531    219.2282   4.7553960872e+01  -3.3580428267e+00    0.3626158    0.1679402 -18.00  0.001932578    2.311    0.567
        67 -10.5041     54.2737    221.8497   8.4714499813e+01   2.2355375801e+01    0.3273475    0.1666287  53.02  0.001876356    1.639    0.390
        68 -10.0979     63.6674    220.8202   8.2686550786e+01   2.1430043931e+01    0.2511469    0.1033693  51.87  0.001238277    2.147    0.534
        69 -10.1475     44.8211    220.3023   8.6553600743e+01   2.3714087159e+01    0.2464925    0.1273111  55.00  0.001441024    1.608    0.378
        70 -11.9270    247.4636    216.8281   4.5986005161e+01  -4.0058358874e+00    0.3944612    0.2000771 -20.18  0.002350576    1.843    0.457
        71 -10.8968    250.1151    211.0751   4.4604567774e+01  -3.7043157850e+00    0.2934927     0.139216 -25.31  0.001691263    1.943    0.485
        72  -9.7472     34.3253    216.9877   8.8500695715e+01   2.5465012824e+01    0.1860345   0.06463829  75.35 0.0007051399    4.355    0.770
        73  -9.4641     24.4112    217.2078   9.0522995830e+01   2.6424082636e+01     0.154849   0.08554228  78.51 0.0009507463    1.680    0.405
        74 -10.2601     13.6473    216.4634   9.2633037235e+01   2.7581518888e+01    0.2633837    0.1053884  53.70  0.001485099    1.904    0.475
        75 -10.0162    232.5492    212.9878   4.7814687724e+01  -1.6334376975e+00    0.1679258    0.1002477 -25.32  0.001036749    1.617    0.381
        76 -10.6757      1.8391    212.2798   9.4794904746e+01   2.9403358852e+01    0.1942024    0.1120103  74.03  0.001307701    1.412    0.292
        77 -10.9966     68.0446    211.3669   8.0962128112e+01   2.2669808544e+01    0.3402811    0.1388589  51.51  0.001599057    2.252    0.556
        78 -10.1886     57.4085    211.7968   8.3297812331e+01   2.3887386692e+01    0.2517125    0.1458982  55.35  0.001327742    1.494    0.331
        79  -9.1062     13.3095    211.6371   9.2495894969e+01   2.8531675232e+01    0.1233543   0.05712103  59.96 0.0007039861    1.747    0.428
        80 -10.7189      6.5689    205.3236   9.3597571391e+01   3.0347597805e+01     0.347289    0.1179891  73.28  0.001624494    2.954    0.661
        81 -10.9323    247.1935    206.1440   4.4238865432e+01  -2.7726214514e+00    0.2475334    0.1451774 -22.52  0.001557133    1.535    0.348
        82  -9.4129     22.4944    210.9951   9.0600060380e+01   2.7799552490e+01    0.1636436   0.06636295  68.91 0.0008093995    2.446    0.591
        83  -9.9015      1.4311    205.2487   9.4632628656e+01   3.0790183522e+01    0.1937484   0.08777505 -79.21  0.001132659    2.064    0.516
        84 -10.1119     13.0393    204.4693   9.2235132939e+01   2.9952442996e+01    0.2243413    0.1196593  72.50  0.001365582    1.623    0.384
        85 -10.5311    249.9501    200.6676   4.2852312025e+01  -2.5010486318e+00    0.2534646    0.1309159 -19.91  0.001399207    1.780    0.438
        86 -10.9057    244.1145    199.3177   4.3558079568e+01  -1.5674478000e+00    0.2116656    0.1320472 -13.96  0.001321105    1.410    0.291
        87 -11.3997      4.1470    197.5264   9.3786718693e+01   3.2095359307e+01    0.3430584    0.1421861  73.61  0.001701698    2.183    0.542
        88  -9.4999     14.4104    197.1674   9.1603223981e+01   3.1291620613e+01    0.1643369   0.08570334  79.09 0.0009488843    1.735    0.424
        89 -11.0143    246.6271    192.0049   4.1855411719e+01  -1.0299740930e+00    0.2607006   0.09752012 -31.36  0.001254783    2.480    0.597
        90 -10.2206     11.4368    191.1876   9.1952677083e+01   3.2775356951e+01    0.1631374   0.08622114  78.43 0.0009434229    1.682    0.406
        91 -11.7582      3.8440    188.5306   9.3480641116e+01   3.3952257727e+01    0.4907053    0.1400951  53.78  0.002260854    2.782    0.641
        92  -9.6661     16.7049    180.3698   9.0192386607e+01   3.4598407366e+01    0.1304005   0.06690305  62.91 0.0007028177    1.728    0.421
        93 -11.5070      2.4028    177.8090   9.3330160550e+01   3.6315968180e+01    0.3390853     0.156711  67.52  0.001854814    1.887    0.470
        94 -11.5265      5.5671    174.1919   9.2434278440e+01   3.6850521116e+01    0.2450432    0.1349861  58.34  0.001342782    1.534    0.348
        95 -11.0872      6.3320    169.6446   9.2022117798e+01   3.7782269065e+01    0.1951173    0.1000821  60.56 0.0008645792    1.694    0.410
        96 -10.7730     10.5015    155.0027   9.0132145246e+01   4.0746154176e+01    0.1867801    0.1027678 -83.83  0.001030692    1.589    0.370
        97 -11.4495      4.0804    154.3299   9.1730482889e+01   4.1370120533e+01    0.2489818    0.1476648  86.21  0.001465564    1.443    0.307
        98  -9.8294    242.3211    153.6476   3.5221827030e+01   4.5710036678e+00    0.1172176   0.09733529 -52.47 0.0007047558    1.750    0.429
        99 -11.3037    249.8117    150.9014   3.3508288125e+01   3.7703308462e+00    0.3249492    0.1500278 -35.93  0.001608305    1.988    0.497
       100 -11.2636    247.8441    144.0991   3.2419236164e+01   4.9986750339e+00    0.3532287    0.1697354 -43.43  0.001650716    2.419    0.587
       101 -11.0529    243.7483    148.3461   3.3918468101e+01   5.0716355495e+00    0.2341323    0.1331489 -37.10 0.0008955407    1.700    0.412
       102 -10.2064      2.4944    142.4909   9.1434346186e+01   4.4200101857e+01     0.121675   0.09786877  80.32 0.0008104256    1.029    0.028
       103 -11.6100    243.4923    139.5181   3.2127737045e+01   6.3367932809e+00    0.3546785     0.160318 -36.08  0.001310713    1.998    0.499
       104 -11.4312    242.0781    133.5263   3.1076077399e+01   7.4143104538e+00    0.3822346    0.1967101 -36.12  0.001501721    1.758    0.431
       105 -11.0915    100.9646    248.2874   7.7509112897e+01   1.2012348114e+01    0.3730839    0.1453914  56.92  0.001525471    3.976    0.749
       106 -10.5908    238.8215    140.0160   3.2954096403e+01   7.0441055674e+00    0.2023817    0.1336112 -48.15 0.0009217777    1.925    0.480
       107 -10.5907      4.5060    135.9860   9.0453949670e+01   4.5593204536e+01    0.1943838    0.1022615 -81.30 0.0008345303    1.612    0.380
       108 -11.6849    231.0720     90.8751   2.3073957264e+01   1.5600679463e+01    0.2546595    0.1771849 -33.99  0.001315761    1.269    0.212
       109 -11.2201    232.6587    132.9905   3.2422789587e+01   9.1169169198e+00    0.4523499    0.2219377 -43.37  0.002054082    2.215    0.548
       110 -12.4149    238.9435    123.5622   2.9394225065e+01   9.3771525445e+00    0.6723402    0.3323417 -36.49  0.002733842    1.810    0.448
       111  -9.6195      2.3400    127.6516   9.0479646426e+01   4.7702949592e+01    0.1343741   0.07303856  62.52 0.0007045753    1.792    0.442
       112 -10.4097    227.0634    124.1738   3.1371938498e+01   1.1435180177e+01    0.3184619    0.1720792 -36.58  0.001531379    1.699    0.411
       113 -10.3859    218.8962    117.2840   3.1129962556e+01   1.4036115760e+01    0.3387901    0.1611582 -41.25  0.001462033    2.059    0.514
       114 -11.8886    231.2191    114.5580   2.8551866780e+01   1.2097150083e+01    0.5501209    0.2442099 -36.73  0.002230117    2.008    0.502
       115 -10.8248     34.1450    248.0735   9.0145452854e+01   1.9957000073e+01    0.2397039    0.1715319  81.18  0.001854282    1.364    0.267
       116 -10.0715     26.3986    249.0982   9.1590158689e+01   2.0574437160e+01    0.2223309   0.07833058  47.28  0.001080115    1.903    0.474
       117  -9.7069      2.5206    249.4661   9.5783780833e+01   2.2755308978e+01    0.1896128   0.08910852  55.51  0.001315127    1.470    0.320
       118  -9.9326      5.5232    248.4988   9.5241826522e+01   2.2648297804e+01    0.1034723   0.06866173  57.30 3.658832e-05    1.041    0.039
       119  -9.6204     13.9616    248.0103   9.3757237421e+01   2.1957015281e+01    0.1260294   0.08794524  56.96 0.0006708466    1.006    0.005
       120 -11.5142     84.8256    244.9859   8.0360487930e+01   1.4612351029e+01    0.3613141    0.1829736  55.69   0.00188886    1.904    0.475
       121 -10.7422    235.8548    107.3387   2.6221377379e+01   1.2286954389e+01    0.2376577     0.163054 -38.29 0.0008909481    1.344    0.256
       122  -9.3503      9.5118    247.5229   9.4520800747e+01   2.2449470427e+01    0.1042169    0.0700497  56.97 0.0002001453    1.035    0.034
       123 -11.2860    211.4676    245.8080   5.6498060781e+01  -2.6145015630e+00    0.2353025    0.1110325  21.33   0.00131133    1.915    0.478
       124  -9.7283    198.1888    245.1898   5.8749213176e+01  -8.1491817840e-01     0.198096    0.1002859   6.52  0.000954388    2.901    0.655
       125 -11.6050     74.0902    240.8386   8.2131355384e+01   1.6633335714e+01     0.490736    0.2542713  66.37  0.002733496    2.243    0.554
