#   1 NUMBER                 Running object number                                     
#   2 MAG_AUTO               Kron-like elliptical aperture magnitude                    [mag]
#   3 X_IMAGE                Object position along x                                    [pixel]
#   4 Y_IMAGE                Object position along y                                    [pixel]
#   5 X_WORLD                Barycenter position along world x axis                     [deg]
#   6 Y_WORLD                Barycenter position along world y axis                     [deg]
#   7 A_WORLD                Profile RMS along major axis (world units)                 [deg]
#   8 B_WORLD                Profile RMS along minor axis (world units)                 [deg]
#   9 THETA_WORLD            Position angle (CCW/world-x)                               [deg]
#  10 FWHM_WORLD             FWHM assuming a gaussian core                              [deg]
#  11 ELONGATION             A_IMAGE/B_IMAGE                                           
#  12 ELLIPTICITY            1 - B_IMAGE/A_IMAGE                                       
         1 -13.2435    214.6650     55.7521   3.5992085518e+02   2.6208304006e+01     1.098016    0.9602706 -18.36   0.00500419    1.385    0.278
         2 -13.5124    228.7971     46.7935   3.5662817980e+02   2.4706178635e+01    0.8640863     0.789373  40.78  0.003847888    1.513    0.339
         3  -8.9744    148.6682      8.6751   3.5392149310e+02   4.6679188050e+01    0.1311104   0.09420688  44.01 0.0007050768    1.707    0.414
         4 -10.3132      2.3379      2.8347   4.7757931084e+01   7.9512785614e+01     0.319086    0.1780927 -40.71  0.001786265    1.631    0.387
         5  -9.6501    187.5949      1.6139   3.4884207842e+02   3.8240529354e+01    0.2213407    0.1308744 -88.57  0.000689225    1.553    0.356
         6  -9.1748    185.0064    236.9610   4.0167447007e+01   2.2534437007e+00    0.1375496    0.1067621 -10.12 0.0007604851    1.126    0.112
         7 -10.0579     75.0837    248.3037   6.4273013473e+01   1.3039883805e+01    0.4118941    0.1854375 -52.04  0.002124743    2.735    0.634
         8 -12.6131     57.8353    159.2452   5.9873956555e+01   3.4706335071e+01     2.257897     1.115102 -17.54   0.00578536    6.625    0.849
         9 -13.8664     55.0940    236.1325   6.7886926473e+01   1.7461637265e+01     2.932711     1.738018 -62.71   0.01701431    1.986    0.496
        10 -15.1011     70.3557    148.0831   5.4303986076e+01   3.5929016995e+01     10.94592     5.331339  79.69  0.007337828    5.173    0.807
        11 -10.2440    148.1401    228.4240   4.6234102438e+01   7.8187803673e+00    0.2170444    0.1853208 -47.65  0.001476167    1.460    0.315
        12  -9.6060     67.0582    221.5175   6.3937126780e+01   1.9051831353e+01    0.2064601    0.1806764  87.60   0.00044095    1.274    0.215
        13  -9.5132     95.7642    211.1939   5.5891594574e+01   1.7655955968e+01     0.210683    0.1683368 -67.59   0.00056926    1.462    0.316
        14 -10.1765    103.9684    203.8755   5.2982783445e+01   1.8069665486e+01    0.2058353    0.1927677 -65.20 0.0005213547    1.219    0.180
        15  -9.3243    211.0128    198.9924   2.9757542717e+01   4.6910113226e+00    0.1788867    0.1392839  -9.67 0.0005230766    1.013    0.013
        16 -12.0454    113.7164    194.2585   4.9267413145e+01   1.8708009703e+01      0.69148    0.4135534 -34.33  0.003281124    2.010    0.502
        17 -11.2243    102.5523    194.0861   5.2029972215e+01   2.0318107476e+01    0.5539515    0.2557954  23.97  0.001964757    2.258    0.557
        18 -11.7852    107.7783    191.6583   5.0370009521e+01   2.0100183379e+01    0.5317419     0.340955 -50.41  0.002696699    1.669    0.401
        19 -10.1870     68.7450    193.7125   6.0817813400e+01   2.4888745970e+01    0.4900352    0.2741197  69.66  0.001805605    2.345    0.573
        20  -9.1997    207.6751    189.9917   2.8818077716e+01   6.4312058065e+00    0.1732496    0.1290794 -23.69  0.001084745    1.136    0.120
        21 -11.5601     96.5425    196.7736   5.3914717050e+01   2.0569877590e+01    0.4660601    0.3457711  55.98  0.002186079    1.457    0.313
        22 -15.2901      7.5731    238.7753   7.8711465999e+01   2.1462998340e+01     2.239672     1.370021  34.33   0.01436998    1.310    0.236
        23 -10.3802    100.8642    183.9378   5.1024823962e+01   2.2776775804e+01    0.3317123    0.2443483 -68.93 0.0007964403    1.558    0.358
        24 -11.3605    116.2703    181.4057   4.6676877405e+01   2.1054890551e+01     0.384205    0.2880239  10.25  0.001505053    1.449    0.310
        25  -9.4616    191.9346    193.2175   3.2173200207e+01   7.9426992068e+00    0.4185162    0.2193982 -60.92  0.001323446    7.029    0.858
        26 -12.7873     57.7986    144.9635   5.7896714681e+01   3.8463976851e+01    0.6926822    0.5182455 -37.41    0.0011363    1.543    0.352
        27 -15.7204     25.1128    180.5217   7.1735131982e+01   3.2825676115e+01     7.872538      3.03418  73.63   0.01592993    3.224    0.690
        28 -10.6051     72.1533    225.8164   6.3089001707e+01   1.7597966681e+01    0.3412771    0.2709884  51.92  0.001304254    1.190    0.160
        29 -10.2827    180.5361    167.9866   2.9833035257e+01   1.3783970180e+01    0.3058988    0.1776464 -49.58  0.001513298    1.895    0.472
        30  -9.7792    177.2102    163.6075   2.9651619383e+01   1.5077759100e+01    0.2731842    0.1616148  49.64  0.001310161    2.179    0.541
        31  -9.0294    110.7683    167.6048   4.5815699775e+01   2.4962096657e+01    0.2248787    0.1904638 -41.85  0.001210641    1.226    0.184
        32  -8.6777    101.8011    167.2027   4.8163253727e+01   2.6460068856e+01    0.1929211    0.1664524  -8.98 0.0003520776    1.287    0.223
        33 -14.5580     36.7144    172.7229   6.7767496673e+01   3.3651715977e+01     5.225186     2.098552  69.74   0.01784009    3.509    0.715
        34 -10.0722    238.2103    158.9662   1.8511475490e+01   7.1655927820e+00    0.1988762    0.1109453 -17.12  0.001084557    1.976    0.494
        35 -10.3087     72.7998    233.6319   6.3607716683e+01   1.5998727668e+01    0.3098243    0.2365088 -89.72  0.001264364    1.570    0.363
        36  -8.7634     88.2099    153.5001   4.9715717933e+01   3.1881325006e+01    0.2257365    0.1904867  72.09 0.0003280794    1.281    0.219
        37  -8.8170    113.0759    151.7085   4.2296976781e+01   2.8247732775e+01    0.3576161    0.1942532 -73.31  0.001239778    3.191    0.687
        38  -9.9434    134.5526    148.6257   3.6101529546e+01   2.5207343678e+01    0.6209576    0.2625263 -56.59  0.002181734    2.913    0.657
        39 -10.2304    238.7238    148.9971   1.6602560866e+01   8.5409260222e+00    0.1743281    0.1246564 -30.59 0.0005054154    1.096    0.088
        40  -9.5952     46.5074    147.2338   6.1959709388e+01   3.9245944515e+01    0.3664598    0.1700822  48.30  0.001434949    2.177    0.541
        41  -8.8908     39.3357    147.5723   6.4389883414e+01   3.9954458634e+01    0.2608964     0.154837 -51.71  0.001172821    1.774    0.436
        42 -10.3101    108.9377    145.5960   4.2239503423e+01   3.0396337969e+01    0.2877133    0.2670459  37.23 0.0006305273    1.062    0.059
        43  -9.6575    110.9924    141.6409   4.0861445672e+01   3.0975997106e+01    0.2624464    0.2158342 -65.88 0.0005922499    1.300    0.231
        44  -8.6193    229.3424    144.6918   1.7105681576e+01   1.0450051956e+01      0.11312   0.08884605 -58.41 0.0004840186    1.692    0.409
        45 -10.2340     36.6582    142.4807   6.4697181606e+01   4.1611288430e+01    0.3359746    0.2402738  83.60 0.0009966831    1.406    0.289
        46 -15.3459      5.8185    215.9238   7.8433534300e+01   2.6289019285e+01     3.623673     1.458001  15.58   0.01630851    2.849    0.649
        47 -10.3774     50.9230    136.9375   5.9027350667e+01   4.1491988616e+01    0.2820334    0.2105539  30.11 0.0003025469    1.350    0.259
        48 -11.4876     43.5379    134.0668   6.1203516116e+01   4.3151997685e+01    0.5624982    0.4264457 -49.98 0.0009322771    1.374    0.272
        49 -10.4973     96.1240    134.2942   4.3675539534e+01   3.5369994032e+01    0.5409724    0.3844109 -11.67  0.002303111    2.039    0.510
        50 -10.2408     35.8899    134.6303   6.4004733803e+01   4.3830656422e+01    0.2963594    0.2387371  32.79 0.0004792982    1.256    0.204
        51  -8.3873    152.4534    134.3702   2.8815368552e+01   2.4968412751e+01    0.1390649    0.1364217 -20.34 2.152116e-05    1.050    0.047
        52 -11.5983     82.7687    132.2575   4.7451842268e+01   3.8138048612e+01    0.3182265    0.2836144 -53.62 0.0004367204    1.133    0.117
        53  -9.2516    107.2419    126.5801   3.8669294436e+01   3.5256102986e+01    0.3135864      0.24059  13.22  0.001015289    1.605    0.377
        54  -9.7651     13.0847    131.0357   7.1838894345e+01   4.6804127010e+01    0.2153776    0.1943261  78.28 0.0004803321    1.017    0.017
        55  -9.3851    135.6225    129.8189   3.1755243988e+01   2.9115046767e+01    0.2101106    0.1393745 -56.15 0.0004783757    1.606    0.377
        56 -11.1275     45.1844    230.1420   6.9795618285e+01   1.9680254482e+01    0.5696881    0.2871986  10.76  0.002274255    2.610    0.617
        57  -8.4798    101.3561    128.0863   4.0754263068e+01   3.5973468776e+01    0.2117461    0.1450789 -68.04 0.0004279944    1.665    0.399
        58  -8.3273    219.2673    126.6631   1.4980241750e+01   1.4729691854e+01    0.1227374    0.0871574 -54.70 0.0004106776    1.593    0.372
        59 -10.3618     36.4329    125.3795   6.2566453082e+01   4.6317052681e+01    0.4100362    0.2053216  49.43  0.001652167    2.094    0.522
        60  -9.4371     17.6350    123.6775   6.9461831154e+01   4.8491212698e+01     0.358768    0.1985566 -40.48  0.001565731    2.073    0.518
        61 -11.4494     97.3210    223.7714   5.6939645913e+01   1.4978430998e+01    0.6144177    0.3546756 -50.51   0.00283211    1.980    0.495
        62 -10.5386     93.9448    121.8295   4.1629356894e+01   3.8862502241e+01    0.3496633    0.2892148  -5.49 0.0006962331    1.487    0.327
        63  -9.2730    114.6641    121.6825   3.5394484454e+01   3.5006265190e+01    0.2438987    0.1869952  -9.64  0.001095252    1.750    0.429
        64  -9.5679     22.6596    120.1790   6.7144438975e+01   4.9056501553e+01    0.4136238    0.2286326  81.43  0.001316612    1.980    0.495
        65 -11.2347     27.8865    118.5879   6.4904894739e+01   4.9037784629e+01    0.4841001    0.2436648  37.10  0.001395769    1.939    0.484
        66  -9.9927    105.5919    130.6660   4.0067938811e+01   3.4575128195e+01    0.3955327    0.3085779 -59.96  0.001137385    1.315    0.239
        67 -14.7687     10.0813    206.7135   7.7079934022e+01   2.7960702086e+01      1.28227     1.009836  30.75  0.007467873    1.236    0.191
        68  -9.6523    104.8593    116.1832   3.6920966394e+01   3.8204986882e+01    0.2478786    0.2386993 -83.34 0.0003202292    1.043    0.041
        69 -12.7451     85.8660    222.3573   5.9495607910e+01   1.6658340931e+01     1.531121    0.4411614  36.13  0.006055885    2.635    0.621
        70 -11.3690    243.8775    114.8296   9.3713991110e+00   1.2785360425e+01    0.3020341     0.179793 -39.05  0.001835349    1.305    0.234
        71  -9.5621    235.0635    112.6127   9.9928107043e+00   1.4427042191e+01    0.2402079    0.1318801 -45.75 0.0007045256    1.602    0.376
        72 -11.0707     52.9007    109.8512   5.3553026815e+01   4.8597944177e+01    0.4774314     0.280454 -66.12  0.002036053    1.674    0.403
        73  -9.1651     20.2957    109.0292   6.6701701286e+01   5.2334871146e+01    0.2225107    0.1809958  64.77 0.0003610199    1.237    0.191
        74 -10.5968     24.1088    105.2610   6.4574482117e+01   5.3061400328e+01    0.3169775    0.2835286 -30.94 0.0007268075    1.201    0.167
        75  -8.8478    134.1951    105.3776   2.6113660778e+01   3.4678462014e+01    0.3542668    0.1745977 -63.04   0.00109784    3.598    0.722
        76 -10.5227     32.1696    111.2207   6.2125227904e+01   5.0665509168e+01     0.379554    0.2429761  59.64  0.001197252    1.709    0.415
        77  -9.3173     13.7416     99.9945   6.8338738459e+01   5.5305981322e+01    0.2023125    0.1698977 -72.03 0.0003319339    1.086    0.079
        78 -11.8786    126.1410    230.2159   5.1159729511e+01   1.0228225579e+01    0.4672779    0.2782015  31.61  0.002647365    1.417    0.294
        79  -9.1289     45.6557     95.3321   5.3430880966e+01   5.3463373609e+01    0.2319825    0.1646735  64.34 0.0005297377    1.647    0.393
        80 -10.0428     56.7154     94.0834   4.8445796610e+01   5.2251557724e+01    0.2212201     0.192632 -57.87 0.0005776501    1.117    0.105
        81 -10.9060     53.6653     87.6310   4.8082522148e+01   5.4379310565e+01    0.3639941     0.271061 -84.57   0.00170157    1.581    0.367
        82  -8.4063    101.5565     88.5244   3.0456014280e+01   4.5329270095e+01    0.1557049    0.1488078 -85.00 0.0002658044    1.046    0.044
        83 -10.4710    164.4860    225.0876   4.2442269799e+01   6.3592677603e+00    0.2991934    0.1137212 -46.25  0.001393919    2.852    0.649
        84 -11.7377     29.6855     85.0333   5.8454116041e+01   5.8055181710e+01    0.2696602     0.254897  38.08 0.0002695668    1.114    0.102
        85 -10.2349     46.7261     79.2668   4.8939061215e+01   5.7519960539e+01    0.3020739    0.2596098  52.89 0.0006078352    1.240    0.194
        86  -8.9839     71.6377     77.1590   3.7499791056e+01   5.3954545207e+01    0.2258786    0.1369696 -42.15 0.0005527347    1.720    0.419
        87  -9.7857     50.8561     70.5199   4.4403416063e+01   5.9090013286e+01    0.3016579    0.2267221  51.20  0.001475536    1.462    0.316
        88 -12.0869    204.7468     62.0235   2.4508682803e+00   2.7291011322e+01    0.5278512    0.3818358 -48.43  0.001271627    1.153    0.133
        89 -10.7667    173.6612    224.1709   4.0505705573e+01   5.3995876839e+00    0.3956623    0.1921147  11.14  0.001103314    2.619    0.618
        90 -12.3930    109.3845    228.6825   5.4708429235e+01   1.2570432245e+01     1.308565    0.2795182  27.55   0.00410513    4.446    0.775
        91 -10.4088     64.0033     63.6406   3.6086443737e+01   5.8463035121e+01    0.2716487    0.2218262 -50.53 0.0003632228    1.233    0.189
        92  -9.1820     85.7656     61.7908   2.6865933490e+01   5.4456658372e+01    0.2093786    0.1775018  88.35 0.0007298198    1.368    0.269
        93 -10.5812     17.8251     51.5104   5.6587405021e+01   6.7737403087e+01    0.3854317    0.2002527  37.28  0.001752687    2.079    0.519
        94  -9.2520     45.3740     50.7935   4.0140799101e+01   6.4499624950e+01    0.2935827    0.1697374  46.81  0.001296217    1.926    0.481
        95 -10.8441      3.4123     41.3940   6.3519114854e+01   7.1168471238e+01    0.4260612    0.2784068 -10.02  0.001723496    1.575    0.365
        96 -10.0460     17.4423     36.7056   5.1768436341e+01   7.1223010290e+01    0.3445019    0.1245642  14.50  0.001215393    3.559    0.719
        97 -10.0218      2.0054     32.2826   6.1986751028e+01   7.3380059703e+01    0.2280463    0.1264607 -65.47  0.001162553    1.690    0.408
        98 -10.7907      2.7619     26.8664   5.9538153868e+01   7.4566132575e+01    0.2934232    0.2564947 -87.23 0.0004080691    1.366    0.268
        99 -10.3985      2.3212     22.6735   5.8329722571e+01   7.5516077343e+01     0.236055    0.1867089  24.65 0.0009541428    1.370    0.270
       100  -9.5769     21.3920     23.1995   4.2580516372e+01   7.3613869048e+01    0.1735959    0.1244366 -59.63 0.0009465053    1.656    0.396
       101  -9.6738     60.7780     21.6088   1.8694487752e+01   6.6900640214e+01    0.2717645    0.2223838  61.85 0.0007872374    1.272    0.214
       102  -8.7681    189.4457     15.4765   3.5228742885e+02   3.6430211593e+01    0.1263437    0.1026387 -62.64 0.0001174293    1.010    0.010
       103  -8.9791     97.0039    240.4649   5.8727825159e+01   1.1945428604e+01    0.3028625    0.1541421 -68.75  0.001551331    2.697    0.629
       104  -9.9613    103.6876    237.9804   5.6992177107e+01   1.1596821367e+01    0.2607791    0.2013794 -29.02  0.000840278    1.518    0.341
