#   1 NUMBER                 Running object number                                     
#   2 MAG_AUTO               Kron-like elliptical aperture magnitude                    [mag]
#   3 X_IMAGE                Object position along x                                    [pixel]
#   4 Y_IMAGE                Object position along y                                    [pixel]
#   5 X_WORLD                Barycenter position along world x axis                     [deg]
#   6 Y_WORLD                Barycenter position along world y axis                     [deg]
#   7 A_WORLD                Profile RMS along major axis (world units)                 [deg]
#   8 B_WORLD                Profile RMS along minor axis (world units)                 [deg]
#   9 THETA_WORLD            Position angle (CCW/world-x)                               [deg]
#  10 FWHM_WORLD             FWHM assuming a gaussian core                              [deg]
#  11 ELONGATION             A_IMAGE/B_IMAGE                                           
#  12 ELLIPTICITY            1 - B_IMAGE/A_IMAGE                                       
         1 -11.8115    225.4119     24.5442   3.3914114691e+01   2.7279553067e+01    0.7357046    0.6369104 -88.82  0.004897252    1.154    0.133
         2 -12.5356    208.3892     39.5172   3.8957035703e+01   2.9095075902e+01      1.41908     1.005979  37.84  0.007739305    1.997    0.499
         3 -11.0768      2.0543     42.2741   1.0109731796e+02   6.7630681521e+01     1.046869          nan -58.91  0.002803972    7.409    0.865
         4 -10.7111      2.2046     20.2233   9.3527637206e+01   7.1665434964e+01    0.5206451    0.1194091 -47.68  0.002273145    3.057    0.673
         5  -9.8124      2.3905      8.1661   8.8196562404e+01   7.3584498402e+01    0.1755888    0.1671505 -25.18  0.001349011    1.636    0.389
         6  -9.7044      2.4797      3.3485   8.5788223907e+01   7.4285394792e+01    0.4254697    0.2133238  -0.10   0.00246309    2.048    0.512
         7 -10.7596    247.5188      4.1323   2.8217685544e+01   2.5112851444e+01    0.5412056    0.3396983 -70.46  0.003639418    1.279    0.218
         8 -13.6916      9.9766    209.1966   1.2088376619e+02   2.8124944098e+01     1.770158     1.205857  87.86  0.005022954    1.221    0.181
         9 -10.7217     83.6599    217.8728   1.0532938322e+02   1.7562432217e+01    0.4824757    0.3017311 -68.66  0.001494496    1.699    0.411
        10 -13.3506    106.8018    229.5854   1.0152710580e+02   1.1719463141e+01     5.589627       1.3442  33.88   0.01796187    3.883    0.742
        11 -11.5167     32.2901    201.3541   1.1544089135e+02   2.7719950210e+01    0.4794281     0.380626 -52.93  0.001292209    1.479    0.324
        12 -14.3407     40.0709    191.2966   1.1269861190e+02   2.9240977795e+01     11.51249     4.378397  83.49   0.03245487    5.945    0.832
        13 -11.0639     75.6498    159.5679   9.9185648701e+01   3.2606910148e+01    0.8143359     0.532335 -71.36  0.001265615    1.569    0.362
        14 -10.9695     83.2989    154.2744   9.6093391358e+01   3.2807891823e+01     1.114725    0.5011929 -51.06   0.00348884    2.140    0.533
        15 -12.3504     68.6226    144.8012   9.8660006863e+01   3.7360123745e+01     1.607746     0.904346  76.26  0.005776283    3.145    0.682
        16 -10.2618     17.2961    183.5408   1.1744672167e+02   3.3363735692e+01    0.2903545    0.1724042  48.98  0.001312271    1.613    0.380
        17  -7.7999     99.9313    180.7745   9.6159524674e+01   2.3627394870e+01    0.1946876    0.1190749  33.84 0.0007950487    1.635    0.388
        18  -8.8822     30.8313    143.2601   1.0965379049e+02   4.2108633934e+01    0.2398479    0.1844496 -23.93    0.0010258    1.595    0.373
        19  -9.0784     98.9397    139.8203   8.8705174049e+01   3.3882770330e+01     0.478242     0.318443 -14.03  0.001895166    2.370    0.578
        20 -10.6199     85.4929    139.5038   9.2603041103e+01   3.6199085266e+01    0.3303545     0.280721 -43.19  0.000569923    1.175    0.149
        21 -14.4006     15.5423    245.7290   1.2182496524e+02   1.9959607192e+01     3.628199     1.440961  34.51   0.01952211    2.296    0.564
        22  -9.7436     74.6907    135.3340   9.5029100284e+01   3.8907240174e+01    0.3134835    0.2667135  78.31 0.0006984769    1.302    0.232
        23  -9.3151    107.4613    130.5384   8.4143574422e+01   3.4632922594e+01     0.487587    0.3028471  35.76  0.002082202    1.665    0.399
        24 -10.2857     60.3854    175.3292   1.0572029040e+02   3.0721093576e+01    0.4417872    0.2952819 -31.07  0.001541241    2.071    0.517
        25 -12.2596     55.3945    240.9111   1.1373394458e+02   1.6465968048e+01    0.9494615    0.6964771  -3.92   0.00169079    2.368    0.578
        26 -11.7933     62.8093    156.6209   1.0234111457e+02   3.5122748940e+01    0.5330333     0.341287 -41.05  0.001377919    1.767    0.434
        27  -7.7889     96.4976    125.9782   8.6325022014e+01   3.7723776093e+01    0.2198631    0.1229019 -32.30 0.0008070547    2.355    0.575
        28  -8.1830    115.6399    124.7015   8.0392200736e+01   3.4474268698e+01    0.1623744    0.1242193  -6.06 0.0007034776    1.712    0.416
        29 -10.0917     65.7327    170.0906   1.0356347939e+02   3.1330332516e+01     0.345259    0.2692853 -28.08 0.0008181941    1.615    0.381
        30  -8.1887    106.1435    119.1385   8.1776808076e+01   3.7615040435e+01    0.2249162    0.2011607  -7.34 0.0003382281    1.210    0.174
        31  -9.5151     53.4325    113.3086   9.7370883277e+01   4.7305003370e+01    0.2825687     0.121145 -55.75 0.0009635609    2.027    0.507
        32  -8.1641    205.9761    110.4845   5.6078732244e+01   1.8251163927e+01    0.2078522    0.1444565  56.43  0.000675225    1.589    0.371
        33 -10.0641      7.1711     85.1620   1.0863099285e+02   5.8115688931e+01    0.3461126    0.2099469  55.34  0.001811232    2.301    0.565
        34 -10.0512     13.4690     60.1366   1.0053539297e+02   6.3324374407e+01      0.26689    0.1688558 -52.97 0.0006452739    1.327    0.246
        35 -10.7866    218.1705     31.4214   3.6080073262e+01   2.7985716649e+01    0.4439118    0.3032859  56.56  0.001025816    1.646    0.393
        36  -8.6226    194.0352    197.0442   7.7001762147e+01   3.9471157737e+00    0.2939257    0.1988098 -65.89  0.001324225    2.578    0.612
        37 -11.3648    199.8818     45.3716   4.1374406509e+01   3.0224486248e+01     0.533027     0.348652 -56.98  0.001811383    1.474    0.322
        38  -9.0980    101.4697    237.8796   1.0369581026e+02   1.0857212819e+01    0.2371611    0.1710584  58.69 0.0005984535    1.373    0.272
        39  -8.7669    115.4569    174.5088   9.1048927605e+01   2.2521843893e+01    0.1468184    0.1455425  32.10 0.0001013395    1.024    0.024
        40  -7.6652     32.6792     51.6686   8.9196749170e+01   6.3426696795e+01    0.1380273   0.08247152 -22.33   0.00070491    1.696    0.410
        41  -8.3549    133.1268     39.8417   5.0908959588e+01   4.6794681252e+01    0.2098401     0.180557 -84.66 0.0006484816    1.287    0.223
        42  -8.5987     42.6801     59.8585   8.7468284657e+01   6.0709471057e+01    0.2354569    0.1768621  30.42 0.0006959302    1.451    0.311
        43  -7.8681    132.8062     31.7901   4.8398394881e+01   4.7885670120e+01    0.1806656    0.1528088 -80.14 0.0003530055    1.317    0.241
        44 -10.1059      2.3404     27.0531   9.6027281650e+01   7.0470465190e+01    0.3750351    0.1361666 -56.13  0.001487282    2.645    0.622
        45 -12.4263      4.8482    184.8831   1.2044231531e+02   3.4094226774e+01     1.954576    0.6461812 -85.93  0.007915765    2.979    0.664
        46  -8.4626    112.0162    205.0327   9.6959578839e+01   1.6092569504e+01    0.2235408    0.1587804  65.80 0.0003827492    1.658    0.397
        47 -10.7871     43.3971    217.9948   1.1437282246e+02   2.2735235800e+01    0.5583929    0.3082925  69.70 0.0003345481    1.839    0.456
