#   1 NUMBER                 Running object number                                     
#   2 MAG_AUTO               Kron-like elliptical aperture magnitude                    [mag]
#   3 X_IMAGE                Object position along x                                    [pixel]
#   4 Y_IMAGE                Object position along y                                    [pixel]
#   5 X_WORLD                Barycenter position along world x axis                     [deg]
#   6 Y_WORLD                Barycenter position along world y axis                     [deg]
#   7 A_WORLD                Profile RMS along major axis (world units)                 [deg]
#   8 B_WORLD                Profile RMS along minor axis (world units)                 [deg]
#   9 THETA_WORLD            Position angle (CCW/world-x)                               [deg]
#  10 FWHM_WORLD             FWHM assuming a gaussian core                              [deg]
#  11 ELONGATION             A_IMAGE/B_IMAGE                                           
#  12 ELLIPTICITY            1 - B_IMAGE/A_IMAGE                                       
         1 -11.5656     69.7825     41.5514   1.0809913447e+02   6.1860125258e+01     0.402919    0.2851154 -75.97  0.001748129    2.376    0.579
         2 -11.0291    103.2833     30.0480   8.9920611790e+01   5.6695680796e+01    0.5469554    0.3788804  88.60  0.002261313    2.304    0.566
         3 -11.8266     42.7714     20.3383   1.1251190495e+02   7.0404086208e+01    0.6121554    0.3295426  32.53  0.002159963    1.924    0.480
         4 -12.1141    216.8764     16.5946   6.5278738314e+01   2.8134476751e+01    0.4246003     0.304729  59.37  0.001475474    1.467    0.318
         5 -11.5686     44.0489      8.4392   1.0486142072e+02   7.2399832504e+01    0.2699162    0.2299192 -20.77 0.0008459545    1.095    0.087
         6 -12.4181    184.9854      2.9895   6.4176441205e+01   3.7546900906e+01    0.3990288    0.2417516 -52.76  0.001897519    1.644    0.392
         7 -11.7747     59.7759      7.4307   9.5241689337e+01   6.9772248419e+01    0.3090954    0.2423887  50.96  0.001123198    1.436    0.304
         8 -11.1446    226.4082    221.2520   1.0972946883e+02   5.9773880743e-01    0.1301234   0.09841657 -24.01 0.0009450493    1.640    0.390
         9 -10.5188     14.7770    250.3760   1.5234546990e+02   2.3261259963e+01    0.1280936   0.07464211  29.39 0.0009495495    1.630    0.387
        10 -10.6494    211.4831    218.4421   1.1188888076e+02   2.9175936375e+00    0.1659649    0.1066533 -41.43  0.001031222    2.338    0.572
        11 -10.6250    116.0095    210.0051   1.2968941435e+02   1.8083634372e+01    0.1961443      0.12408  77.73  0.001019505    2.602    0.616
        12 -11.0764    185.9971    203.5371   1.1433784398e+02   8.4317562142e+00    0.2459551    0.1595021 -41.75  0.001464943    2.011    0.503
        13 -10.5880     48.9992    202.0242   1.4373410598e+02   2.8070707076e+01     0.200713    0.1004294  56.50  0.001139347    1.699    0.411
        14  -9.9272      5.5046    199.5369   1.5295168626e+02   3.2586033197e+01    0.1106263    0.0754598  56.85 0.0002036407    1.064    0.060
        15  -9.9719    133.3025    195.6630   1.2413302691e+02   1.7857954322e+01    0.1271112    0.0895712  58.27 0.0004065986    1.666    0.400
        16 -11.8999    159.1046    191.4108   1.1791463609e+02   1.4417646907e+01    0.5360662    0.3695511 -66.01  0.002831881    2.514    0.602
        17 -10.9940     34.4175    186.7464   1.4613257397e+02   3.2517514496e+01    0.2116194     0.101385 -89.11  0.001142778    2.149    0.535
        18 -10.4118    109.0024    185.9837   1.2840067729e+02   2.3302112655e+01    0.2147931    0.1340277  81.42  0.001016429    2.596    0.615
        19 -10.7080    183.5109    183.2758   1.1152592882e+02   1.1613272466e+01    0.2874251    0.1247572 -35.47  0.001310781    2.627    0.619
        20 -10.3125    210.5604    182.7379   1.0622146576e+02   7.2912608514e+00     0.227639    0.1129691 -26.34  0.001150602    2.152    0.535
        21 -10.0952    100.9944    175.8678   1.2902338021e+02   2.6440486092e+01    0.1702532     0.141397  42.41  0.001031238    1.019    0.019
        22 -12.3431     35.4358    173.6306   1.4512424339e+02   3.5091074135e+01    0.5055372    0.2103353  60.82  0.002439322    2.284    0.562
        23 -11.4587    120.7814    168.2346   1.2305529754e+02   2.4796225299e+01    0.3058682    0.1707846 -62.04  0.001419248    2.311    0.567
        24 -10.0718     88.2528    168.2578   1.3124663931e+02   2.9853675439e+01    0.1960748    0.1108189 -82.68 0.0008943508    2.429    0.588
        25 -11.7012    106.3634    157.7292   1.2506404834e+02   2.9268731035e+01    0.5553774    0.3845281  70.86  0.002762998    1.829    0.453
        26 -10.8789    167.5815    157.3883   1.1014918642e+02   1.8450273908e+01    0.2970414    0.2306515 -71.52  0.001478566    2.103    0.524
        27 -10.2085      6.7764    155.9921   1.5139275358e+02   4.1231361663e+01    0.1503204   0.08132228 -88.14 0.0006831451    1.645    0.392
        28 -10.8422    189.9079    150.3156   1.0400003539e+02   1.5429308365e+01    0.2920092    0.1993314 -49.84  0.001463345    1.989    0.497
        29 -11.3485    108.0592    146.2636   1.2272136155e+02   3.1402426455e+01    0.4473318    0.2251773  62.65  0.001516489    3.618    0.724
        30 -10.7828     55.8093    145.9891   1.3737617794e+02   3.9002013437e+01    0.2300538    0.1277065  68.60 0.0009812076    2.010    0.502
        31 -10.6884    148.5710    144.8135   1.1202915181e+02   2.4288470870e+01     0.193032    0.1424877 -58.45 0.0009517943    1.723    0.420
        32 -10.3553    181.3377    141.6520   1.0394660229e+02   1.8449538201e+01    0.1357027     0.116327  86.20 0.0007047128    1.783    0.439
        33 -11.2539     83.6566    132.3308   1.2729148780e+02   3.8449584568e+01    0.3554819    0.2188173  70.91  0.001550808    2.163    0.538
        34 -11.9910     98.5477    128.0034   1.2207067948e+02   3.7050817868e+01    0.6674966    0.3868438 -89.80  0.002341949    3.499    0.714
        35 -11.5079     43.1142    122.3906   1.3851812193e+02   4.5975453724e+01    0.4885912    0.2152112  84.06  0.001843948    3.156    0.683
        36 -11.4009     28.1039    122.7397   1.4335258582e+02   4.7259341978e+01    0.4417611    0.1627004  84.66  0.001613883    3.480    0.713
        37 -11.2361     13.3540    121.8732   1.4790569373e+02   4.8537056714e+01    0.3532047    0.1424594 -53.69  0.001598132    2.672    0.626
        38 -11.4181    193.5023    118.7726   9.6247983094e+01   1.9699780684e+01    0.4653426    0.3649858 -74.25  0.002260707    2.063    0.515
        39 -11.0521     37.8111    121.1087   1.4008245227e+02   4.6803429103e+01    0.1983238    0.1725046  50.19 0.0003396695    1.129    0.114
        40 -10.8502     70.7074    119.8776   1.2921261723e+02   4.3282222449e+01    0.3131214    0.1704204  81.95  0.001166146    3.017    0.669
        41 -11.3496    140.9179    116.2629   1.0758959287e+02   3.1412798965e+01     0.614553    0.2109469 -43.46  0.002009631    3.089    0.676
        42 -11.0369      2.1101    114.6735   1.5101049823e+02   5.0872539245e+01     0.351417    0.1467535 -89.70  0.001697804    2.076    0.518
        43 -10.8781    108.1258    112.5626   1.1592458786e+02   3.8835158999e+01     0.429779    0.2062384 -63.77  0.001472512    3.056    0.673
        44 -11.0629     78.6109    112.3747   1.2525088302e+02   4.3942895114e+01    0.4512182    0.2491562  88.24  0.001569302    3.413    0.707
        45 -11.1275    122.1925    112.2144   1.1170725214e+02   3.6150092579e+01    0.3919736    0.2524106 -73.74  0.001523226    2.539    0.606
        46 -10.7275    174.4399    111.3038   9.8350086835e+01   2.5041905556e+01    0.3313345    0.2131271 -42.78   0.00142811    1.671    0.402
        47 -11.5134    159.7311    110.4814   1.0147420147e+02   2.8444801547e+01    0.5445544    0.1976076 -46.17  0.001755393    3.229    0.690
        48 -11.0902     59.0205    124.0414   1.3362691844e+02   4.3800343959e+01     0.361458    0.1632456  84.49  0.001145883    4.327    0.769
        49 -11.8174     14.4229    109.8817   1.4673064781e+02   5.1348164077e+01    0.6066011    0.3001648  76.03  0.002968932    1.988    0.497
        50  -9.9682     59.5173    109.5530   1.3119011152e+02   4.7281526094e+01    0.1401997     0.127752  73.52 9.042848e-05    1.054    0.051
        51 -12.5190    140.8252    104.8545   1.0472535908e+02   3.3726219433e+01    0.4297074    0.3761395 -36.48  0.002202908    1.192    0.161
        52 -12.2665     44.3621    100.9021   1.3516618047e+02   5.1157974441e+01    0.7147994    0.3587349  75.67   0.00279769    2.876    0.652
        53 -11.8716    128.0376    101.5418   1.0733074275e+02   3.7201555017e+01     0.478197    0.2549618 -60.12  0.001684232    2.791    0.642
        54 -10.3374    133.3189    109.6648   1.0797326690e+02   3.4374138254e+01    0.1557779    0.1241596  83.45  0.000342785    1.700    0.412
        55 -11.9972    111.9920    101.1848   1.1195860724e+02   4.0629938216e+01    0.3985347     0.243507  60.53 0.0008649742    2.145    0.534
        56 -11.6041    107.5362     98.4758   1.1263665944e+02   4.2125297624e+01    0.5371696     0.291529 -65.58  0.001912922    2.792    0.642
        57 -10.8791     20.1828     99.0103   1.4377025179e+02   5.3651300362e+01    0.4426509    0.1547561  78.62  0.001455056    4.277    0.766
        58 -10.6040     81.4085    100.2200   1.2172551025e+02   4.6434305183e+01    0.2116539    0.1417606 -72.54 0.0009520762    1.726    0.421
        59 -10.9138     62.8298     95.6541   1.2739192528e+02   5.0295189567e+01     0.319998    0.1675977  89.88  0.001093776    3.476    0.712
        60 -12.9171    170.2495     90.9321   9.3851531630e+01   2.9545528469e+01    0.3925649    0.3435575  79.89  0.000960101    1.374    0.272
        61 -10.5286    151.3374     89.6553   9.7851718370e+01   3.4269608626e+01    0.1609755     0.126713 -81.30 0.0007048936    1.774    0.436
        62 -10.7701     42.2258     87.8756   1.3381018347e+02   5.4642485435e+01    0.2860037    0.1511799 -11.30  0.001083704    3.373    0.704
        63 -11.0967     85.9874     86.4990   1.1669432088e+02   4.8933849651e+01    0.3846973    0.2526824 -81.79  0.001557812    2.327    0.570
        64 -11.0966     34.0581     87.6958   1.3703464897e+02   5.5441835334e+01    0.5263414     0.170874 -70.44  0.001966518    2.771    0.639
        65 -11.1405     47.6697     84.3454   1.3095250998e+02   5.4960142778e+01    0.3868037    0.1706287  59.93  0.001263444    4.027    0.752
        66 -11.3982    104.1106     82.8033   1.0936776345e+02   4.6317025850e+01     0.463311    0.2594917 -67.14  0.001578601    3.061    0.673
        67 -11.2161     23.8766     80.0182   1.4003888422e+02   5.8149629294e+01    0.4629839    0.1891747  82.86  0.001645489    3.605    0.723
        68 -10.3671    140.6073     82.8435   9.8561433578e+01   3.8116782961e+01    0.2323682    0.1465503 -49.54 0.0009538033    1.776    0.437
        69 -11.4296     82.2525     73.0310   1.1420203654e+02   5.2734114238e+01    0.4468259    0.2816585 -82.65  0.001630842    3.004    0.667
        70 -11.2035    223.7392     71.0635   7.9105366981e+01   2.0139557842e+01    0.2373057    0.2181988 -65.60 0.0004223374    1.222    0.182
        71 -10.9360     51.7913     69.7222   1.2586393839e+02   5.8114457275e+01      0.31502    0.1836034 -61.47   0.00124636    1.625    0.385
        72 -11.1158     62.3232     70.1814   1.2142387939e+02   5.6611642389e+01    0.3084088    0.1085888 -50.15  0.001090163    2.613    0.617
        73 -13.4202     27.3780     59.3797   1.3482990409e+02   6.3056196095e+01    0.8040065    0.5183771  41.77  0.004272139    1.739    0.425
        74 -10.0669     39.2856     52.9929   1.2724329754e+02   6.3573549034e+01     0.191387    0.1569584 -54.67            0    1.105    0.095
        75 -12.4698     20.8451     50.9010   1.3635915740e+02   6.5580752118e+01     0.531149    0.2582872 -69.15  0.002528534    1.805    0.446
        76 -11.3867      8.5137     56.4534   1.4368702427e+02   6.4815389576e+01    0.5264505    0.2972813  75.07  0.002690175    1.970    0.492
        77 -11.0393     82.1772     44.8261   1.0412072010e+02   5.8843618050e+01    0.3060445    0.2467733 -45.19 0.0008695684    1.280    0.219
        78 -10.0704    156.9068     44.8598   8.2276918522e+01   4.0399042651e+01    0.2105076    0.1809199 -80.49 0.0004750271    1.294    0.227
        79 -10.5397    149.5128     52.4697   8.6473698132e+01   4.1221785293e+01    0.1559279    0.1519025  51.38 0.0003134647    1.020    0.020
        80 -11.4963    223.6562    249.6687   1.1419590442e+02  -1.7685675606e+00    0.2983367   0.07075313  39.31  0.001257602    3.942    0.746
        81 -11.1853     43.1747     39.2244   1.2063437916e+02   6.6354005784e+01    0.2954445    0.2579517  67.37  0.000853302    1.448    0.309
        82 -10.6348    119.6390     33.7165   8.6707144925e+01   5.1986739025e+01    0.3461047    0.2282398 -57.55  0.001448757    1.976    0.494
        83 -11.0096     25.4361    242.2145   1.5023615651e+02   2.3548326154e+01    0.1369534   0.07053076  69.23 0.0009515444    1.713    0.416
        84 -11.2378     29.9356    233.0477   1.4910177545e+02   2.4587763222e+01    0.4131771    0.0914432  53.64  0.001956635    3.101    0.678
        85 -10.1881    239.8637     21.0933   6.4585796789e+01   2.2384810977e+01    0.1636444    0.1477762  10.62   0.00055442    1.287    0.223
        86 -10.9316     12.8255    227.1859   1.5216748506e+02   2.7112944507e+01    0.1605196   0.09475276  54.58   0.00059489    1.183    0.155
        87 -10.8123      5.2526     42.1963   1.4327645413e+02   6.8394559019e+01     0.332259    0.1763056  75.68   0.00163057    2.245    0.555
        88 -11.0922     95.7000    224.9486   1.3546284756e+02   1.8449828338e+01    0.2968443     0.131382  47.92  0.001587496    1.877    0.467
        89 -11.1774    149.6733    222.7795   1.2419885537e+02   1.1270605840e+01    0.2903125    0.2247881 -56.62  0.001980475    1.864    0.463
