#   1 NUMBER                 Running object number                                     
#   2 MAG_AUTO               Kron-like elliptical aperture magnitude                    [mag]
#   3 X_IMAGE                Object position along x                                    [pixel]
#   4 Y_IMAGE                Object position along y                                    [pixel]
#   5 X_WORLD                Barycenter position along world x axis                     [deg]
#   6 Y_WORLD                Barycenter position along world y axis                     [deg]
#   7 A_WORLD                Profile RMS along major axis (world units)                 [deg]
#   8 B_WORLD                Profile RMS along minor axis (world units)                 [deg]
#   9 THETA_WORLD            Position angle (CCW/world-x)                               [deg]
#  10 FWHM_WORLD             FWHM assuming a gaussian core                              [deg]
#  11 ELONGATION             A_IMAGE/B_IMAGE                                           
#  12 ELLIPTICITY            1 - B_IMAGE/A_IMAGE                                       
         1 -14.8816      3.3303    131.0016   1.4763450484e+02   4.6177705319e+01     5.716477    0.8091004 -80.76   0.01634111    6.219    0.839
         2 -13.5455    198.7627     26.1354   6.8259896581e+01   3.2130231836e+01     1.596866     1.304819  -3.60  0.006684879    1.317    0.241
         3 -13.4534    213.4616      7.7304   6.1685298739e+01   3.0495168824e+01    0.8925368    0.8307624  50.52  0.004292172    1.193    0.162
         4 -10.8764      2.7848      4.4126   1.2639142301e+02   7.6151177072e+01    0.3417858    0.1593895 -60.57  0.001750554    1.932    0.483
         5 -10.4567     46.7527    249.0036   1.4431075889e+02   1.9586251044e+01    0.2168201   0.09934949  56.00  0.001407426    1.835    0.455
         6 -12.1703    247.0019    247.8333   1.0890915606e+02  -3.7986449695e+00    0.4297887    0.3878443   3.66  0.003717473    1.987    0.497
         7 -10.9831     29.7653    248.0873   1.4726746900e+02   2.1334633529e+01    0.3259775    0.1824975 -64.91  0.002380809    2.261    0.558
         8 -12.1287     35.1928    244.5938   1.4617214190e+02   2.1370600522e+01    0.4997897    0.3553689 -76.94  0.004078194    1.657    0.397
         9 -11.7122      8.7070    249.7837   1.5092307377e+02   2.2899890557e+01    0.4640169    0.1820979  42.48  0.003197424    1.668    0.400
        10  -9.8106      2.4980    249.5083   1.5195134305e+02   2.3443167905e+01     0.164707     0.114375  55.24  0.001114088    1.026    0.026
        11 -11.0780      2.5284    246.4756   1.5188190585e+02   2.3903803999e+01    0.2526073    0.1898377  -8.23  0.001673786    2.369    0.578
        12 -11.7177    171.9034    247.6788   1.2136400228e+02   5.1340076999e+00    0.2907649    0.2036833  13.17  0.002139722    1.242    0.195
        13 -11.4633    153.1709    249.3853   1.2490896437e+02   7.2779216253e+00     0.285211    0.1341013  36.89  0.001651064    1.612    0.380
        14 -11.4087    107.8392    246.9826   1.3299489603e+02   1.3175928768e+01    0.2698021    0.1223717  30.35  0.001562607    1.802    0.445
        15 -11.2056    139.3148    245.6591   1.2703522767e+02   9.4823341068e+00    0.2014834    0.1264738  43.50 0.0008432602    1.448    0.309
        16 -11.9956     12.7211    240.2476   1.4998373022e+02   2.4045329441e+01    0.2514286    0.2024391  23.35  0.002166345    1.527    0.345
        17  -9.7877     82.1943    243.3968   1.3749343040e+02   1.6683097582e+01    0.1606041   0.06990051  41.17 0.0007383504    1.680    0.405
        18 -11.4649     19.7651    241.7286   1.4879569649e+02   2.3211224837e+01    0.2323643    0.1585858 -78.98  0.001887941    1.670    0.401
        19 -10.1590    183.8030    238.7930   1.1815050550e+02   4.6503382529e+00    0.1931231     0.099159   5.91 0.0009641908    2.891    0.654
        20 -12.8934     47.1434    216.3955   1.4248631751e+02   2.4861136294e+01    0.8340641    0.6982966 -67.12  0.005227078    1.448    0.309
        21 -13.0710     32.0270    234.6298   1.4632466978e+02   2.3246135190e+01    0.2593901    0.2347486  37.88 0.0007740784    1.326    0.246
        22 -14.1045     36.6050    228.4182   1.4519015211e+02   2.3838404985e+01    0.7922544    0.4707871  47.72  0.002407978    1.262    0.208
        23 -11.9330     89.5654    227.1056   1.3478344448e+02   1.8340071451e+01     1.014242   0.02838842  41.88  0.002842759    7.108    0.859
        24  -9.7776     54.1689    229.3941   1.4188645848e+02   2.1930225492e+01    0.2142157    0.1228335  58.45  0.001425744    1.545    0.353
        25 -12.6067    108.7515    231.1455   1.3137373140e+02   1.5361225651e+01    0.9790945   0.08030976  37.66  0.003043364    5.561    0.820
        26  -9.8674    172.9930    222.2414   1.1791613343e+02   8.0998750342e+00    0.1727748    0.1272082  23.15  0.001184364    1.043    0.042
        27  -9.0567     92.1031    214.3017   1.3310165366e+02   2.0132821496e+01    0.1957058    0.1019471  53.13  0.001066046    1.942    0.485
        28 -11.1803     55.9359    211.3054   1.4036298335e+02   2.4848379032e+01    0.7936776    0.1226981  47.52  0.002660334    5.231    0.809
        29  -9.0185    152.5099    213.0072   1.2060281258e+02   1.2212705024e+01    0.1451045    0.1177404 -35.69 0.0003615408    1.465    0.318
        30 -12.2506     10.0549    206.9884   1.4943518563e+02   2.9916761683e+01    0.5957047    0.3310359  19.24  0.002776276    2.153    0.536
        31 -10.3984     59.8170    208.3493   1.3934112047e+02   2.4960421285e+01    0.4031067    0.1104595  47.97   0.00171514    3.139    0.681
        32 -11.8433     59.1093    200.3291   1.3887690976e+02   2.6512177476e+01    0.2274851    0.2180127  89.87  0.000525969    1.223    0.182
        33 -10.7309     39.9143    198.7961   1.4290159603e+02   2.8794662813e+01    0.6534457    0.1617223  58.09  0.002034989    6.442    0.845
        34 -10.5256     12.1008    195.8027   1.4861087398e+02   3.1834132516e+01    0.3944861     0.109893  42.87  0.002009579    2.457    0.593
        35 -12.0720     65.7208    191.7057   1.3668830344e+02   2.7408328218e+01    0.2286942    0.2231676  49.67 0.0004970055    1.188    0.158
        36 -10.8223     27.2639    184.8987   1.4482576638e+02   3.2686559347e+01    0.6223586    0.1770007  67.31  0.001948066    6.384    0.843
        37 -13.1730     62.7446    176.7425   1.3596171005e+02   3.0734696285e+01    0.4663351    0.2623411 -44.45  0.001595215    2.318    0.569
        38 -10.9422     76.3849    178.4626   1.3288540224e+02   2.8743972203e+01    0.2202069     0.200762  49.99 0.0003040629    1.045    0.043
        39 -13.5777      9.8067    156.4989   1.4734422600e+02   4.0033774919e+01     1.864153    0.7331992  76.23  0.008755532    2.586    0.613
        40 -11.8266    124.3698    249.5029   1.3016879233e+02   1.0832100954e+01    0.4383302    0.1549172  37.03   0.00234268    2.040    0.510
        41  -8.8646    134.0000    147.9797   1.1409296906e+02   2.6259174374e+01    0.2240022   0.08015227 -47.80 0.0008052291    2.962    0.662
        42 -10.7030     96.6323    153.4002   1.2447359436e+02   3.1200506709e+01    0.3288051    0.2934398 -30.71 0.0008153042    1.242    0.195
        43 -12.1014     67.4832    143.6136   1.3083176435e+02   3.7366315000e+01     0.665709    0.3964246  56.60  0.003038504    1.824    0.452
        44 -10.2401    108.9017    137.7619   1.1849354986e+02   3.2633786015e+01      0.45857    0.3047358 -12.21  0.001782519    2.356    0.576
        45  -8.3840     79.2857    131.6247   1.2561969196e+02   3.8557286399e+01    0.1445169    0.1026671  73.34 0.0007016722    1.718    0.418
        46 -10.8737     29.5476    130.5563   1.4010021903e+02   4.4418187812e+01    0.3123728    0.1838603  48.12 0.0007764149    1.663    0.399
        47 -11.9748     21.0943    126.0138   1.4215650645e+02   4.6171468711e+01    0.6233337     0.206267  41.80   0.00223779    2.805    0.644
        48 -10.5927     95.8710    135.2107   1.2155810918e+02   3.5284302618e+01    0.2326511    0.2138252 -24.05 0.0002821381    1.169    0.144
        49  -9.0251    106.2205    124.1676   1.1647153616e+02   3.6050689608e+01    0.1956789    0.1839438   2.84 0.0003820807    1.089    0.082
        50  -9.0122     41.3711     96.3061   1.3166077403e+02   5.1698136782e+01    0.2279323    0.1435175  49.19 0.0007235162    1.756    0.430
        51 -12.1479     84.3161    168.9001   1.2981625445e+02   2.9673734381e+01    0.7298217     0.622438  16.69  0.004561077    1.285    0.222
        52 -10.6057    158.0217     76.2305   9.0285336870e+01   3.5032044800e+01    0.2743841    0.2197196 -28.66 0.0006145112    1.210    0.174
        53  -9.6287     97.6354    174.5914   1.2732929544e+02   2.6695941486e+01    0.2537057     0.175802  59.01 0.0006731619    1.569    0.363
        54 -11.5214      5.3774     51.1295   1.3859906762e+02   6.5417771041e+01    0.4658275    0.1872981  27.77  0.002165561    2.818    0.645
        55 -11.3438    198.6855    247.1869   1.1664772231e+02   1.8707170499e+00    0.2096804    0.1913449  -6.47  0.001772362    1.579    0.367
        56  -9.4546     99.8071    148.8945   1.2290931723e+02   3.1685697069e+01    0.2297948    0.1982869 -18.56  0.000377249    1.326    0.246
        57 -11.7261    138.5724    249.4471   1.2756324828e+02   9.0892558348e+00    0.3195108    0.1773151  34.34   0.00210721    1.327    0.246
        58 -12.0904     85.3143    152.2430   1.2725439631e+02   3.3077818723e+01    0.2892678      0.24162 -39.95 0.0008647495    1.337    0.252
