#   1 NUMBER                 Running object number                                     
#   2 MAG_AUTO               Kron-like elliptical aperture magnitude                    [mag]
#   3 X_IMAGE                Object position along x                                    [pixel]
#   4 Y_IMAGE                Object position along y                                    [pixel]
#   5 X_WORLD                Barycenter position along world x axis                     [deg]
#   6 Y_WORLD                Barycenter position along world y axis                     [deg]
#   7 A_WORLD                Profile RMS along major axis (world units)                 [deg]
#   8 B_WORLD                Profile RMS along minor axis (world units)                 [deg]
#   9 THETA_WORLD            Position angle (CCW/world-x)                               [deg]
#  10 FWHM_WORLD             FWHM assuming a gaussian core                              [deg]
#  11 ELONGATION             A_IMAGE/B_IMAGE                                           
#  12 ELLIPTICITY            1 - B_IMAGE/A_IMAGE                                       
         1 -14.0593    183.2357     23.2274   2.8990340719e+02   6.3639884261e+00   0.08959951   0.04776132 -49.85  0.005897415    1.870    0.465
         2 -14.0395    190.5331     16.4406   2.8977521526e+02   6.3953687706e+00   0.08048581   0.05334545 -65.29  0.005902173    1.594    0.373
         3 -14.0395    196.5042      8.6518   2.8965621135e+02   6.4463627768e+00    0.0833283    0.0466369   6.77  0.001269886    2.551    0.608
         4 -12.0394     32.9056      5.7355   2.9155513164e+02   7.4979410520e+00   0.03698092  0.009863488 -63.21  0.002312367    4.271    0.766
         5 -11.4216    146.1762    240.3064   2.9170081708e+02   4.1289201127e+00   0.01970145   0.01140843  44.07 0.0003539724    1.785    0.440
         6 -12.6830    247.5516    241.0795   2.9052251835e+02   3.4892469390e+00   0.03114039    0.0228956  40.89  0.003395202    1.356    0.262
         7  -9.6407    233.1076    216.2319   2.9053508301e+02   3.8614340652e+00  0.009795877  0.008896723 -15.81 0.0007148991    1.140    0.123
         8  -9.9725    225.4444    236.4972   2.9075161484e+02   3.6789916080e+00  0.006631584  0.006412822 -12.77 8.163671e-05    1.033    0.032
         9 -10.0876    151.4946    213.2096   2.9146901859e+02   4.4038860057e+00   0.01978835  0.009324956 -47.15 0.0008564956    2.176    0.540
        10 -10.2341    141.4597    212.8462   2.9158399530e+02   4.4704135071e+00   0.01534793   0.01018377  51.57  0.001294557    1.675    0.403
        11 -10.0512    181.7484    213.5876   2.9111799110e+02   4.2113564836e+00   0.01297348  0.006609633  22.30  0.001132934    2.096    0.523
        12  -9.8435    173.0078    239.0910   2.9137986659e+02   3.9759005839e+00   0.01157987  0.009369975 -60.37 0.0006554386    1.260    0.206
        13 -10.9943    155.4953    232.0593   2.9154034433e+02   4.1647354187e+00   0.01219825   0.01012444  32.20 0.0003706253    1.178    0.151
        14 -11.8180    101.6921    212.1003   2.9204414410e+02   4.7259566804e+00   0.02281141   0.01710885  41.11  0.002117827    1.330    0.248
        15 -11.0211    247.4135    205.3973   2.9030018115e+02   3.8953134599e+00   0.01751731   0.01161887   4.35  0.001585702    1.862    0.463
        16  -9.4070    163.4607    205.4186   2.9128038846e+02   4.4180114989e+00  0.009871315  0.006045745 -47.80 0.0006200449    1.651    0.394
        17 -11.1395     93.4966    204.6849   2.9209357166e+02   4.8611590317e+00   0.02031229    0.0184829 -51.85  0.002462244    1.110    0.099
        18 -10.6591     88.9883    204.5169   2.9214523951e+02   4.8910486873e+00   0.02189157   0.01244161  19.05    0.0020304    1.931    0.482
        19 -10.8180    125.9274    205.3896   2.9171882471e+02   4.6517349835e+00   0.01345941   0.01075804  78.65    0.0011063    1.486    0.327
        20 -10.3065    122.9726    200.9585   2.9172561370e+02   4.7204778072e+00   0.01258768  0.008985666  37.06 0.0008265054    1.371    0.270
        21  -9.6618    148.3990    205.2867   2.9145554649e+02   4.5132042222e+00    0.0116762  0.008264976   9.90 0.0006218532    1.585    0.369
        22 -16.7484     63.1479    215.9539   2.9251892489e+02   4.9212190878e+00    0.4195933    0.2547569  51.10    0.0403357    1.872    0.466
        23  -9.8178    174.9793    205.4492   2.9114602274e+02   4.3459816840e+00  0.009830053  0.006407795  29.21 -4.455447e-06    1.495    0.331
        24 -11.0079    102.9253    203.3241   2.9197480703e+02   4.8181029961e+00   0.01493024   0.01165018 -31.42  0.001113578    1.384    0.278
        25 -10.5311    166.9246    202.6947   2.9122284488e+02   4.4274181537e+00   0.00998016  0.009714942  74.46 0.0004990713    1.071    0.066
        26  -9.2777    169.6686    200.2951   2.9117574058e+02   4.4376151856e+00  0.006897832   0.00658305 -11.55  0.000289318    1.054    0.051
        27 -10.8633    197.1404    200.0229   2.9085316954e+02   4.2696620686e+00   0.01938492   0.01501059  12.54  0.001454634    1.366    0.268
        28  -9.3002    158.8455    199.3348   2.9129617248e+02   4.5158798004e+00  0.009348583  0.006210813  15.19 0.0004517895    1.650    0.394
        29 -10.1221    141.3418    198.3156   2.9149433741e+02   4.6363402441e+00   0.01614518   0.01076047 -18.30  0.001157298    1.949    0.487
        30 -16.7883     25.2672    247.7022   2.9315992774e+02   4.7946086392e+00    0.1291923    0.1150718  73.11   0.01545496    1.229    0.187
        31 -10.0024    150.0995    228.8862   2.9158350246e+02   4.2343528010e+00   0.01047181  0.009052193  56.86 0.0007963891    1.232    0.188
        32 -11.3153    142.6890    228.4132   2.9166711110e+02   4.2857976109e+00    0.0214218    0.0125733 -84.63  0.001665963    2.538    0.606
        33  -8.9789    210.6543    197.2604   2.9067804858e+02   4.2168596459e+00  0.006906257  0.004894847  55.32 0.0003167581    1.598    0.374
        34  -9.8873    250.6579    199.1611   2.9022317192e+02   3.9459010003e+00    0.0102677  0.005636048 -50.08 0.0009536598    1.814    0.449
        35 -12.2175    142.2038    220.9615   2.9162612459e+02   4.3735289484e+00   0.02300972   0.01892716  76.86  0.002604959    1.412    0.292
        36 -10.3413     79.0739    182.0133   2.9212038310e+02   5.2084985104e+00   0.01463244   0.01034984  34.66  0.001032159    1.375    0.273
        37 -12.1591     76.9548    194.2985   2.9222205117e+02   5.0819220654e+00   0.02489817   0.01695186 -36.28  0.002515161    1.614    0.380
        38 -12.0826     81.0308    187.3302   2.9213076909e+02   5.1358885184e+00    0.0186231   0.01448432 -30.40 0.0009011598    1.398    0.285
        39 -10.4442    113.6198    195.8696   2.9180309034e+02   4.8364522156e+00   0.01439698  0.007288657  42.01  0.001282515    2.000    0.500
        40  -9.8319    190.9136    227.9296   2.9110088195e+02   3.9913263961e+00  0.009866003  0.009501413  52.90 0.0003050076    1.065    0.061
        41 -10.4722    164.2696    225.8935   2.9139924601e+02   4.1802524095e+00   0.01097397   0.00896656  40.50  0.000172173    1.218    0.179
        42 -11.3466    159.8069    193.8823   2.9125075157e+02   4.5718755048e+00   0.01838304   0.01449092  41.47 0.0004389494    1.268    0.211
        43  -9.3330    135.5255    195.0125   2.9154162282e+02   4.7100568577e+00  0.009544355  0.006606569 -61.17 0.0004018679    1.475    0.322
        44  -8.8692    217.7227    194.7311   2.9057965684e+02   4.2015452284e+00  0.006557703  0.005017197 -22.92 0.0001889973    1.485    0.326
        45 -15.8895     10.8072    247.9782   2.9333067171e+02   4.8808764796e+00   0.08337549   0.05068356 -72.10  0.007223012    1.910    0.477
        46  -9.6617    179.1984    192.7906   2.9101734274e+02   4.4635811224e+00   0.00924237  0.007611448 -23.96 0.0003313566    1.315    0.240
        47  -9.6072    102.5415    192.1428   2.9190929813e+02   4.9476375097e+00   0.01975083  0.008098707  47.72  0.001278525    2.999    0.667
        48 -10.8623    191.6358    191.2789   2.9086258211e+02   4.4033060095e+00    0.0131445   0.01309895  -8.34 0.0006017631    1.024    0.024
        49  -9.9586    175.0328    190.9892   2.9105470611e+02   4.5099892343e+00  0.009961836  0.009713511  22.94 0.0003819571    1.012    0.012
        50 -10.1478    117.0154    224.4076   2.9194203329e+02   4.4908565258e+00   0.01503127   0.01005999 -86.05  0.001459594    1.963    0.491
        51 -10.3774    250.5016    187.0790   2.9014909141e+02   4.0840749206e+00   0.01553054  0.005566372 -53.83  0.001201745    2.633    0.620
        52 -18.2055      1.5653    130.9110   2.9270807772e+02   6.2697410400e+00    0.9471421   0.03023558 -61.06   0.02743924   19.689    0.949
        53  -8.9025    137.6578    187.7437   2.9147113896e+02   4.7794369880e+00  0.006777954  0.005056394 -16.14 0.0004913479    1.584    0.369
        54  -9.4067    126.4748    187.1060   2.9159788444e+02   4.8562141105e+00   0.01011743  0.006593803 -60.74  0.001022244    1.562    0.360
        55 -11.0198     89.2630    184.7584   2.9201837111e+02   5.1140506455e+00   0.02164221   0.01290207  51.56 0.0005797551    1.935    0.483
        56 -10.9998     67.8976    186.0023   2.9227610379e+02   5.2324515778e+00   0.01263888  0.009432809  25.66 0.0004133247    1.324    0.245
        57  -9.0073    142.6744    184.7085   2.9139346674e+02   4.7827435791e+00   0.00691319  0.005045046 -21.59 0.0003325568    1.617    0.381
        58 -10.8609    249.7209    179.7311   2.9011202277e+02   4.1723823917e+00   0.02193722   0.01124024 -84.57  0.001556132    3.805    0.737
        59 -10.1850    144.9879    181.0068   2.9134321162e+02   4.8104334812e+00   0.01150461  0.007992824  63.64  0.001150395    1.788    0.441
        60  -9.8662    135.1926    180.3938   2.9145388280e+02   4.8783242974e+00   0.01261853  0.008060038  38.15  0.001071685    1.532    0.347
        61 -10.6016    129.1053    179.1907   2.9151751553e+02   4.9298532349e+00   0.01253336   0.01030518 -47.95 0.0002880726    1.225    0.184
        62 -10.9728    181.8559    176.7975   2.9088593211e+02   4.6287811147e+00   0.01880718   0.01250458   4.44   0.00180753    1.851    0.460
        63 -11.8722     88.2066    175.7910   2.9197457762e+02   5.2225872558e+00   0.02576118   0.01632798  -6.90  0.002031792    2.213    0.548
        64 -12.7058     94.2513    166.9112   2.9184823084e+02   5.2860375319e+00   0.03505556    0.0280502 -27.59  0.002100107    1.358    0.263
        65 -11.3842     96.7964    159.0588   2.9176924047e+02   5.3595202836e+00   0.01819699   0.01156919 -36.23 0.0009796959    1.773    0.436
        66  -9.3411    210.4394    176.7105   2.9055152488e+02   4.4516615600e+00   0.01129614  0.008076978  -5.52 0.0009530036    1.714    0.417
        67  -9.1251    144.6457    175.3143   2.9131150962e+02   4.8772725650e+00  0.007168596  0.004953723  59.75 0.0007045384    1.737    0.424
        68  -9.4476     95.9317    175.0849   2.9187977945e+02   5.1826569906e+00   0.01144582  0.007909052 -21.92  0.001139985    1.778    0.438
        69 -11.1427     75.7120    173.8618   2.9210869000e+02   5.3220611725e+00   0.02233528   0.01398329 -39.02  0.001494818    1.751    0.429
        70 -10.0790    177.4055    173.8329   2.9091932087e+02   4.6901894312e+00   0.01648201  0.005967122  41.84  0.001231626    2.833    0.647
        71  -9.8810    149.8232    222.2210   2.9154499245e+02   4.3118397783e+00  0.009249764  0.007446504 -28.81 0.0002215396    1.339    0.253
        72 -11.6070    249.0386    171.6841   2.9006940362e+02   4.2680154918e+00   0.02100695   0.01452231  42.96  0.002209948    1.463    0.316
        73 -10.3047    126.0784    220.9647   2.9181457230e+02   4.4737062547e+00   0.01371812   0.01079561 -24.21  0.001017875    1.411    0.291
        74  -9.6435    112.6571    169.2780   2.9164773858e+02   5.1447930660e+00    0.0148737  0.006748972  40.64  0.001120529    2.190    0.543
        75 -10.2952    107.6871    168.1496   2.9169880394e+02   5.1885037132e+00   0.01436507  0.009677633  16.00 0.0003400303    1.604    0.377
        76 -10.2912    175.1294    165.8687   2.9089591770e+02   4.7948710092e+00   0.01889078  0.007817911  40.51  0.001194312    2.395    0.582
        77 -10.5542    128.9380    165.7279   2.9143505395e+02   5.0839487326e+00   0.01100504  0.009632372 -72.37 0.0003309938    1.208    0.172
        78 -11.0412    115.8800    239.8307   2.9205176787e+02   4.3225367753e+00   0.01410551   0.01243863 -66.36 0.0004521378    1.176    0.149
        79  -8.9820    124.6117    164.7300   2.9147939445e+02   5.1221944205e+00  0.007036852  0.005028478 -16.53 0.0006989427    1.712    0.416
        80 -10.1729     58.7423    167.1642   2.9226535800e+02   5.5034715186e+00   0.01225759   0.01033937  50.49 0.0007161477    1.234    0.190
        81  -9.6486    163.9290    221.3185   2.9137456219e+02   4.2343716457e+00  0.009596705  0.008449928  19.96 0.0006506385    1.127    0.112
        82 -11.9132    244.9367    162.1643   2.9005741595e+02   4.4017113896e+00   0.01750675   0.01351261 -12.78  0.001656967    1.499    0.333
        83 -11.3050    249.4117    160.2551   2.8999319324e+02   4.3954605353e+00   0.01563078   0.01112159 -75.82  0.001300602    1.616    0.381
        84 -11.9590    243.2681    154.8522   2.9003090774e+02   4.4951528424e+00   0.01947102    0.0104056  38.74  0.001810263    1.826    0.452
        85  -9.3210     70.5886    162.7352   2.9209897677e+02   5.4803819088e+00  0.009176542  0.006559949 -77.82 0.0009437064    1.630    0.386
        86 -10.1209     63.9041    163.0403   2.9217912585e+02   5.5183688801e+00  0.009734514  0.009485899   1.93            0    1.013    0.013
        87  -8.9185    146.6937    160.7127   2.9119595464e+02   5.0305052820e+00  0.006803392  0.005040639 -22.47 0.0002249343    1.569    0.363
        88 -10.7686     89.0086    156.8253   2.9184637546e+02   5.4332750389e+00   0.01272501  0.009280279 -50.39 0.0002394636    1.374    0.272
        89  -9.3655    171.4784    159.0934   2.9089604480e+02   4.8946049908e+00  0.009397832  0.006624145 -61.83 0.0003296332    1.455    0.313
        90 -10.7357     82.5856    159.0792   2.9193566798e+02   5.4475188692e+00   0.01175362  0.009445651  23.53 0.0002107612    1.234    0.190
        91 -13.3613     46.4605    151.1729   2.9230903399e+02   5.7614591704e+00   0.04547726   0.03148178  81.77  0.004503165    1.954    0.488
        92 -11.3897     42.9854    156.4498   2.9238275318e+02   5.7229751944e+00   0.01559767   0.01265752  73.55  0.001048863    1.437    0.304
        93  -8.7362    125.2965    158.6584   2.9143330248e+02   5.1869610351e+00   0.00694884  0.005071165  65.12 0.0005766143    1.663    0.399
        94  -9.5047    115.9028    157.5329   2.9153612823e+02   5.2581561142e+00  0.009590364  0.008848644 -57.07 0.0004580867    1.102    0.093
        95 -10.9545     72.6763    156.2708   2.9203405238e+02   5.5409442384e+00   0.02021567   0.01112915  25.21  0.001386665    1.832    0.454
        96  -9.9875    134.7071    155.5340   2.9130363067e+02   5.1639492326e+00   0.01253346   0.01218347 -31.55 0.0007025741    1.034    0.033
        97 -10.2984    177.3188    217.9077   2.9119680297e+02   4.1898291268e+00   0.01084098  0.008482208  81.08   0.00117131    1.546    0.353
        98 -10.3627     62.3102    152.8034   2.9213367792e+02   5.6446713329e+00   0.01782178  0.009527525 -69.58  0.001583263    2.180    0.541
        99 -10.3929    113.7556    152.1281   2.9152734956e+02   5.3329485101e+00   0.01555908   0.01179291  89.84 0.0009728952    1.607    0.378
       100 -11.4158    249.7867    150.0787   2.8992481399e+02   4.5086635930e+00     0.016505   0.01345672  68.16  0.001857489    1.406    0.289
       101  -9.0105    161.6783    152.2820   2.9096782858e+02   5.0330441613e+00  0.006862016  0.004984834  58.54 0.0002484418    1.589    0.371
       102 -11.0458    104.6559    150.5516   2.9162393570e+02   5.4074215540e+00   0.02141559   0.01419715 -18.68  0.001617728    1.965    0.491
       103  -9.9826    107.6490    145.7092   2.9155853867e+02   5.4438752768e+00   0.01356913  0.009846097 -27.41  0.001081026    1.579    0.367
       104 -10.9908    143.1492    148.5474   2.9116104440e+02   5.1908362007e+00   0.02000398   0.01442662  58.69  0.001038304    1.609    0.378
       105 -10.9310     93.2591    150.4767   2.9175683674e+02   5.4790684778e+00   0.01746742   0.01149049  14.77  0.001360391    1.679    0.405
       106 -12.0280     56.3591    149.8770   2.9218502320e+02   5.7148477907e+00   0.02243143     0.020511 -61.74  0.001858181    1.120    0.107
       107 -11.7804     59.2297    145.4055   2.9212340583e+02   5.7478995498e+00   0.03014952   0.01145387  46.77  0.002173437    3.229    0.690
       108  -9.0133    176.9911    150.2491   2.9077606102e+02   4.9607645420e+00   0.00836843  0.005601916  27.95 0.0001864219    1.464    0.317
       109 -13.3723     67.0776    127.2793   2.9191790770e+02   5.9053289920e+00   0.04775408   0.03842213  88.35  0.005347257    1.457    0.313
       110 -13.5638     50.3328    136.6566   2.9217278045e+02   5.9025420981e+00   0.03718732   0.03002824 -30.39  0.004219436    1.324    0.245
       111 -12.1317     58.8253    133.7458   2.9205508603e+02   5.8829900398e+00   0.02530441   0.01815362 -72.20 0.0008780729    1.543    0.352
       112 -13.1076     45.1278    130.6102   2.9219586159e+02   6.0035510081e+00   0.04071266    0.0241361  84.60  0.003385769    2.848    0.649
       113 -12.6599     72.5535    139.3818   2.9192966008e+02   5.7337517646e+00   0.03661554   0.02510885  45.35  0.001756674    1.507    0.336
       114 -11.7911    248.2196    135.9709   2.8985434075e+02   4.6786167687e+00   0.02600645   0.02039605  88.58  0.002854484    1.523    0.343
       115 -11.5996    248.7993    131.8056   2.8982136256e+02   4.7222818586e+00   0.01792699   0.01663445 -47.19  0.001800896    1.087    0.080
       116 -12.1355     35.3024    148.8168   2.9242494238e+02   5.8573724195e+00   0.02446303   0.01061728  44.36  0.001987525    2.484    0.598
       117 -12.3596     32.1916    140.5702   2.9240975508e+02   5.9704204622e+00   0.02059971   0.01458532  79.90  0.002074263    1.867    0.464
       118 -11.2256     33.4852    135.9869   2.9236590786e+02   6.0145316144e+00   0.01278063  0.009999764 -22.42 0.0006845418    1.432    0.302
       119 -11.2371     27.7687    142.3984   2.9247300087e+02   5.9770111900e+00   0.01175155  0.009977051  21.15 0.0007251238    1.171    0.146
       120 -11.8558     46.4159    157.7661   2.9235082769e+02   5.6867508235e+00   0.01995222   0.01499717 -60.52  0.001774813    1.354    0.262
       121 -11.1835    113.9287    136.1408   2.9142501622e+02   5.5136146177e+00   0.01618762    0.0142442  29.01  0.001371413    1.113    0.102
       122  -9.5137    194.0716    140.2868   2.9051384134e+02   4.9674899486e+00  0.009450402  0.008281746  28.68 0.0004783171    1.118    0.105
       123 -11.6765    247.9661    141.1015   2.8988958277e+02   4.6219516705e+00    0.0363292   0.01686415  13.79    0.0027119    3.156    0.683
       124  -9.1836     94.3373    135.8246   2.9165233256e+02   5.6389555774e+00  0.009835486  0.005550518 -48.44 0.0004580107    1.784    0.440
       125 -11.8642    133.6847    142.3203   2.9123265374e+02   5.3205061927e+00   0.03932391   0.01787725 -63.00   0.00333568    2.316    0.568
       126  -9.4405     97.9747    134.3074   2.9160023664e+02   5.6336080391e+00   0.00902951  0.008336013  19.34 0.0002704618    1.068    0.064
       127 -10.1676    188.6163    132.2039   2.9052677898e+02   5.0933243308e+00  0.009233841  0.006001541 -49.62 0.0002499936    1.542    0.351
       128  -9.4455    130.0843    132.0631   2.9121037478e+02   5.4594871747e+00  0.009868598  0.008572503 -21.88  0.001149352    1.216    0.178
       129  -9.4871    107.3269    132.0350   2.9147651164e+02   5.6013245210e+00  0.009486431  0.008745844 -54.08 0.0006380702    1.099    0.090
       130 -10.3861    119.7768    127.6145   2.9130305495e+02   5.5741644676e+00   0.01531649  0.005980334 -36.55 0.0009599256    4.345    0.770
       131 -12.4446     31.9454    126.4168   2.9232401280e+02   6.1328918807e+00   0.02146466   0.01570124  65.55  0.002249837    1.661    0.398
       132 -11.6830     26.5019    126.0000   2.9238517496e+02   6.1713333489e+00   0.01974726  0.007896085  30.61  0.001412846    2.364    0.577
       133 -10.6201    159.9829    126.4429   2.9082532470e+02   5.3372214466e+00   0.01280419   0.00974939 -88.83 0.0008819416    1.587    0.370
       134 -13.2462     67.7761    143.9950   2.9201450561e+02   5.7109358827e+00   0.04165152   0.03052114  65.99  0.003103521    1.661    0.398
       135 -10.4653    209.7569    125.7127   2.9023892288e+02   5.0351915243e+00   0.01202866   0.01082514 -43.48 0.0005038535    1.122    0.109
       136 -10.7265     50.7256    122.8330   2.9208155585e+02   6.0572863708e+00   0.01294348  0.007824384  53.15  0.001024376    1.950    0.487
       137  -9.0353    238.6267    121.7155   2.8987659939e+02   4.9003601775e+00  0.007062064  0.005036815 -18.48 7.266972e-05    1.710    0.415
       138  -9.1745    143.3519    121.6490   2.9098973157e+02   5.4952631100e+00  0.007299338  0.004955192  62.10 0.0007034804    1.835    0.455
       139  -9.3495    135.6771    120.3115   2.9107112206e+02   5.5582364514e+00  0.006986105  0.005018313  61.07 0.0003618156    1.654    0.395
       140  -9.9889    130.8462    119.1842   2.9112056818e+02   5.6011115152e+00   0.00912015  0.007613851 -23.56 0.0002307765    1.289    0.224
       141 -12.1226     32.2220    116.7026   2.9225991493e+02   6.2416305884e+00   0.02263582   0.01333814 -47.52  0.002204759    1.719    0.418
       142 -10.6254    249.5185    117.4897   2.8972285113e+02   4.8802956084e+00   0.01285849   0.01099692  -7.74 0.0007047473    1.257    0.204
       143 -11.9327    248.4781    112.5032   2.8970359552e+02   4.9433941436e+00   0.02448674   0.01809079 -46.41  0.002015437    1.372    0.271
       144  -9.9556     85.4571    117.5645   2.9164173298e+02   5.9016864588e+00   0.01447176  0.008575334  47.04  0.001272116    1.814    0.449
       145 -10.8953     70.5371    117.0901   2.9181348890e+02   5.9997012912e+00   0.01527044    0.0115161 -40.67 0.0005049366    1.376    0.273
       146 -11.4997     70.3985    111.0690   2.9177733772e+02   6.0690055547e+00   0.01956842    0.0158994  81.81  0.001310705    1.446    0.308
       147  -9.0368    111.7264    116.3124   2.9132630845e+02   5.7526801760e+00   0.00668804  0.005085852  65.43 0.0002017026    1.556    0.357
       148 -10.3970    168.3004    113.2407   2.9064505392e+02   5.4353857893e+00   0.01653438   0.01146398  61.25  0.001225713    1.755    0.430
       149 -10.8932     62.9520    112.7129   2.9187487784e+02   6.0965213488e+00   0.01299369   0.01006249 -58.95 0.0003079514    1.308    0.236
       150 -11.5234     59.6330    111.8432   2.9190830284e+02   6.1269951471e+00   0.01915985   0.01294599 -71.46  0.001500685    1.654    0.396
       151  -9.7659    149.7808    111.5748   2.9085120168e+02   5.5696957839e+00   0.01042515  0.008723093 -46.27 0.0005675104    1.207    0.171
       152 -10.6785    114.8126    107.0197   2.9123180925e+02   5.8390938447e+00   0.01188711   0.00963398  16.55   0.00134369    1.259    0.206
       153 -11.2372     62.7691    106.5936   2.9183863175e+02   6.1672156514e+00   0.01710997  0.007993501 -60.79  0.001479726    2.171    0.539
       154 -10.4754    134.2318    104.6639   2.9098970104e+02   5.7450312765e+00   0.01819862   0.01155643 -75.66  0.001761568    1.901    0.474
       155 -11.2579    248.0480    100.3216   2.8963189509e+02   5.0843335473e+00   0.02223407   0.01504826  11.91  0.002254304    1.669    0.401
       156 -10.8172     31.6093    105.1116   2.9219445090e+02   6.3772015048e+00   0.01218362  0.008759024  39.06 0.0006848101    1.374    0.272
       157  -9.7369    130.9811    100.2394   2.9099993391e+02   5.8155358350e+00  0.008999331  0.008470561  23.52  0.001095409    1.042    0.040
       158  -9.2007     76.5135     99.0646   2.9163036385e+02   6.1674915371e+00  0.009312976  0.006583047 -59.94 9.369878e-05    1.436    0.303
       159  -9.2399     80.5631     97.7534   2.9157469189e+02   6.1572484739e+00  0.008475232  0.006567151 -80.37    0.0002736    1.476    0.323
       160  -9.9978     63.6478     98.1143   2.9177512895e+02   6.2581408055e+00   0.01166402  0.008592555  39.83 0.0003261699    1.346    0.257
       161 -10.9752     20.0057     92.7317   2.9225285102e+02   6.5897650892e+00  0.009678075  0.008833335  22.06 0.0002101778    1.078    0.072
       162 -10.9893    123.6858     89.2618   2.9101631788e+02   5.9856539335e+00   0.01179871   0.01113918  37.21 0.0002689711    1.054    0.051
       163  -9.2158    101.9030     87.8557   2.9126255521e+02   6.1371223989e+00  0.008783124  0.007615765  62.93 0.0002923984    1.255    0.203
       164  -9.1749    100.0046     83.5078   2.9125746305e+02   6.1983220365e+00  0.009510768   0.00644454  29.06 0.0009800224    1.440    0.305
       165  -8.7767    156.2472    218.2965   2.9144536267e+02   4.3165028428e+00   0.00658644  0.004931266 -29.61 0.0002479262    1.485    0.326
       166  -9.1107    113.6913     81.2933   2.9108324288e+02   6.1383641627e+00  0.006828667  0.005022014  60.40  0.000286245    1.585    0.369
       167  -8.6399     97.5671     72.4989   2.9121681111e+02   6.3385385591e+00  0.006551837  0.006469958  16.13  0.000114304    1.015    0.014
       168  -9.1630     63.7674     57.4327   2.9151821387e+02   6.7196246533e+00  0.008610494  0.006442674  11.59 0.0002916743    1.440    0.306
       169 -11.1032    119.1027    236.3864   2.9199257310e+02   4.3416874780e+00    0.0174268   0.01131856 -85.77  0.001226413    2.075    0.518
       170 -10.3047    205.0041    249.5147   2.9107169246e+02   3.6583734331e+00   0.01010797  0.006514785  26.22 0.0004111292    1.537    0.349
       171 -11.4376    152.5448    243.0709   2.9164373707e+02   4.0579080375e+00   0.01348699   0.01076173 -83.51  0.001497485    1.435    0.303
       172 -10.0032    150.7678    238.9714   2.9163883312e+02   4.1155549223e+00    0.0127758   0.01073535  52.78 0.0005541855    1.254    0.203
