#   1 NUMBER                 Running object number                                     
#   2 MAG_AUTO               Kron-like elliptical aperture magnitude                    [mag]
#   3 X_IMAGE                Object position along x                                    [pixel]
#   4 Y_IMAGE                Object position along y                                    [pixel]
#   5 X_WORLD                Barycenter position along world x axis                     [deg]
#   6 Y_WORLD                Barycenter position along world y axis                     [deg]
#   7 A_WORLD                Profile RMS along major axis (world units)                 [deg]
#   8 B_WORLD                Profile RMS along minor axis (world units)                 [deg]
#   9 THETA_WORLD            Position angle (CCW/world-x)                               [deg]
#  10 FWHM_WORLD             FWHM assuming a gaussian core                              [deg]
#  11 ELONGATION             A_IMAGE/B_IMAGE                                           
#  12 ELLIPTICITY            1 - B_IMAGE/A_IMAGE                                       
         1 -12.1403     89.6908     59.3183   1.0349883396e+02   5.3603443022e+01    0.9305896    0.8473004 -37.50  0.005382563    1.138    0.121
         2 -12.2724     60.4732     45.7735   1.0922472681e+02   6.0897114254e+01     1.106785    0.5221061 -43.48  0.005138777    1.950    0.487
         3 -11.5436    136.7688     35.0511   8.1365473300e+01   4.6966427274e+01     1.468248    0.9598372 -30.11  0.006945594    1.615    0.381
         4 -12.5041    104.9138     12.9676   8.0574314216e+01   5.7223099164e+01     0.702228    0.4656095 -26.75  0.003699301    1.604    0.377
         5 -11.8620    163.1965     28.8158   7.3980367758e+01   4.0870648806e+01    0.7724615    0.5184629  37.31  0.002121348    1.603    0.376
         6 -12.4904    130.9584     13.7389   7.4832265010e+01   5.0885501697e+01     2.118774    0.7496811  66.79  0.007347726    3.008    0.668
         7 -12.2566    125.3193     27.6879   8.1326396053e+01   5.0743784575e+01    0.9186246    0.6539834  55.11  0.004365768    1.310    0.236
         8 -11.7272    139.4312     22.5542   7.6323480853e+01   4.7806886216e+01      1.81421    0.7006834  47.77  0.006829831    2.338    0.572
         9 -13.6883    118.2803     41.5604   8.8320163392e+01   5.0557685267e+01     1.418725     1.072514  12.47  0.002383066    1.472    0.321
        10 -12.9545    113.0505     24.8938   8.3311564551e+01   5.4012912328e+01     1.085309    0.6120889  51.89   0.00473868    1.618    0.382
        11 -11.8523    181.9453     25.5027   6.9960362296e+01   3.6267570522e+01     0.690324    0.3382071  49.73  0.001166523    2.001    0.500
        12 -11.5851    178.2892     21.1559   6.9182221743e+01   3.7727800695e+01    0.6209316    0.3715522  32.41  0.002721597    2.120    0.528
        13 -10.2309     60.5396     24.7524   1.0061979904e+02   6.4385630589e+01    0.5938367    0.2549674 -36.83  0.002323118    2.209    0.547
        14 -11.9148    145.7132     47.7207   8.3744076545e+01   4.2929494145e+01     1.162699     0.556404 -27.05  0.004457777    2.314    0.568
        15 -11.6051     26.1825     27.7293   1.1732057386e+02   6.8135024686e+01    0.4654179    0.4406331  10.94   0.00285231    1.381    0.276
        16 -10.8062     13.7139      9.1656   1.1592063983e+02   7.2326778069e+01    0.7192438    0.3402416 -15.12  0.003681666    2.610    0.617
        17 -11.4962     16.8862     13.7288   1.1624770295e+02   7.1329494835e+01    0.3161147    0.1937706 -34.95 0.0003265561    1.272    0.214
        18 -11.5486     22.9466     10.7820   1.1164395898e+02   7.1256935495e+01    0.4902931    0.2873459  -3.75  0.002887533    1.815    0.449
        19 -11.5732     19.9130     23.0175   1.1856529956e+02   6.9504991639e+01    0.5291203    0.2410797 -42.68  0.002062325    1.721    0.419
        20 -11.9295     15.0167     21.8595   1.2060901063e+02   7.0088446020e+01     0.660068    0.5263208 -73.06  0.002896011    1.888    0.470
        21 -11.6140    155.0760     23.8529   7.3782658737e+01   4.3592617093e+01    0.8926647    0.5456513  36.64  0.004036212    1.780    0.438
        22  -9.9150     87.1875      7.1224   8.2985473509e+01   6.1679887306e+01    0.6292742    0.3381302  52.08  0.002987944    1.728    0.421
        23 -11.6297     90.7266     20.2537   8.7770990943e+01   5.9492451467e+01    0.6023532    0.4355103 -13.04  0.002361501    1.384    0.278
        24 -11.4763     86.0589     14.3923   8.6647846974e+01   6.1139384379e+01    0.5507408    0.3146583 -10.15  0.002118114    1.959    0.490
        25 -10.5095    206.4309     20.2568   6.5303097444e+01   3.0437747922e+01    0.5648023    0.2806645 -31.01  0.001503814    2.041    0.510
        26  -9.5132     32.0152     12.0641   1.0757632730e+02   7.0110847897e+01    0.3443967    0.1980579  48.61  0.001729361    3.299    0.697
        27 -10.7061     47.3119     18.7700   1.0352548549e+02   6.7206338148e+01    0.3859462    0.2847036  27.64  0.001912279    1.383    0.277
        28 -12.2232     49.2826     13.0695   9.9916724007e+01   6.7740588109e+01    0.7006703    0.3423191  37.14  0.003653767    2.053    0.513
        29 -11.3697     38.6361     18.8172   1.0754152902e+02   6.8311893578e+01     0.531105    0.1550395 -42.99  0.001686304    3.208    0.688
        30 -11.5203     35.5615     18.7241   1.0896727301e+02   6.8686955633e+01    0.4751318    0.2028447 -37.79  0.001675145    2.019    0.505
        31 -10.7784     66.1871     10.5109   9.1720385398e+01   6.5355813713e+01    0.5263639     0.238874  38.50  0.002418361    2.047    0.511
        32 -10.3213     62.9216      6.4461   9.0950347871e+01   6.6393679682e+01    0.3380545    0.2118894  -3.21   0.00118982    1.613    0.380
        33 -11.1103     77.2551      4.7797   8.5011071864e+01   6.3920992810e+01    0.5095592    0.3063147 -15.72   0.00275959    1.668    0.400
        34 -10.8195     71.7524      3.6352   8.6311463700e+01   6.5094203379e+01    0.4272591    0.2892345  -9.04   0.00249759    1.423    0.297
        35 -11.9006     68.7469     17.7436   9.4200940753e+01   6.4008657038e+01    0.7699069    0.4292052  52.90  0.003767938    2.263    0.558
        36 -12.4511    239.2039     15.9301   6.0949464221e+01   2.2823755209e+01     1.019802    0.5359265  66.13  0.004794413    1.836    0.455
        37 -11.6459    245.8356      8.0552   5.8602117775e+01   2.2136160216e+01    0.4617062    0.3657809 -29.87  0.001710223    1.383    0.277
        38 -10.9748    241.8090      4.0128   5.7990979526e+01   2.3485411174e+01    0.4248605    0.2280098 -89.92  0.002149641    1.831    0.454
        39 -11.1237    165.2154     17.3653   6.9962026808e+01   4.1610225979e+01    0.4456003    0.2572956  41.61 0.0009577329    1.824    0.452
        40 -11.4450    238.9679      7.2494   5.8948950831e+01   2.3812958853e+01    0.4884061    0.2880869 -68.50  0.001459157    1.640    0.390
        41 -11.1080     41.7159     14.3389   1.0397924309e+02   6.8599391332e+01    0.4569433    0.1989076  34.31  0.002293418    2.355    0.575
        42  -9.3602    185.4118      7.9048   6.4320225794e+01   3.7198354656e+01    0.3163214    0.1790916 -52.37  0.001463591    1.906    0.475
        43 -10.3618    198.2729      5.6107   6.2237595327e+01   3.4060271187e+01     0.339187    0.1137322  68.88 0.0008856194    2.541    0.606
        44 -10.6461    186.3353     15.3211   6.6355866562e+01   3.6216355766e+01    0.3654177    0.2597405  50.63 0.0006195457    1.399    0.285
        45 -11.5197    192.1799      7.7889   6.3501732596e+01   3.5434856202e+01    0.5485038    0.3721905  20.61  0.001899368    2.016    0.504
        46  -9.7820    194.0278      1.4514   6.1542884219e+01   3.5546720166e+01    0.1972958    0.1616575  79.70 0.0004988417    1.069    0.065
        47  -9.6310    218.4490     12.9320   6.2121068452e+01   2.8185598375e+01    0.3645768    0.1897863  54.13  0.001696579    1.984    0.496
        48 -11.6576    211.3884      9.9599   6.2053668707e+01   3.0270619871e+01    0.4718815    0.3532944  27.88   0.00151032    1.757    0.431
        49  -9.4964    157.4427     10.3549   6.8897347877e+01   4.4362146093e+01    0.4447572   0.09319488 -29.53  0.001392038    4.183    0.761
        50  -6.3109      4.1881      9.7753   1.2159719433e+02   7.2897899066e+01    0.4616333    0.1339187 -39.94  0.001633813    2.520    0.603
        51 -10.4344    169.3121      9.6527   6.6922690667e+01   4.1288898502e+01    0.3889957     0.192094  51.77  0.001697358    1.857    0.461
        52  -9.3203    162.8404     10.1718   6.8017296798e+01   4.2953768848e+01    0.2692586    0.1924549  29.78  0.001118949    1.588    0.370
        53  -9.6913    157.9552      2.5053   6.6248633140e+01   4.4925915697e+01    0.3943646    0.2220587  60.67  0.001886254    1.503    0.335
        54 -10.1839    162.6666      5.5822   6.6571528207e+01   4.3419872104e+01    0.4020306    0.2867309   2.57  0.001820732    1.738    0.425
        55  -9.7431    162.6868      1.3076   6.5206177217e+01   4.3781809785e+01    0.2580657     0.119328  81.92 0.0005526808    2.371    0.578
        56 -10.4639    151.1847      7.2246   6.8839689051e+01   4.6293017557e+01    0.5025389    0.2854094  68.35  0.001221161    1.584    0.369
        57 -10.3496      1.3141      7.2512   1.2219205911e+02   7.3490886269e+01    0.1765953   0.07518324 -48.64 0.0002396424    1.811    0.448
        58 -11.3926    225.2914      2.5564   5.8942629195e+01   2.7559019331e+01    0.7111609    0.3266014 -87.80  0.003072904    2.375    0.579
        59 -10.7576    218.5597      3.3428   5.9705814121e+01   2.9135428830e+01    0.2873585    0.2406859 -58.33 0.0009132689    1.135    0.119
        60 -10.7567    174.2245      4.5055   6.4690011714e+01   4.0462687363e+01    0.6780518    0.2803602  77.52  0.002611825    2.459    0.593
        61 -10.3703     42.7012      3.4345   9.7954935007e+01   6.9929056151e+01    0.4297572    0.2402281   1.84  0.002261079    2.098    0.523
        62 -10.4828    141.7621      3.6958   6.9164886803e+01   4.9045572188e+01    0.4207455    0.2531796  66.50  0.001623366    1.475    0.322
        63 -12.0726    133.7784      2.7221   7.0203778552e+01   5.1167404415e+01    0.4105589    0.2694983  60.12 0.0007586687    1.310    0.237
        64  -8.7031    126.6228      4.7491   7.2311540434e+01   5.2796879766e+01    0.1506478   0.08461315  41.42 0.0004091571    1.647    0.393
        65 -10.3566    122.1303      1.3721   7.1900328116e+01   5.4186885478e+01     0.850585    0.1030463  57.46  0.002518883    4.087    0.755
        66 -10.4601    113.3198      1.8766   7.3946087469e+01   5.6281488981e+01    0.4742231    0.2813866  82.83  0.001542037    2.332    0.571
        67 -10.9653    106.0247      1.7529   7.5558200399e+01   5.8008243226e+01    0.7417795    0.2623187  65.01   0.00247184    3.022    0.669
        68 -10.1306     23.0469      2.6702   1.0750006425e+02   7.2445521743e+01    0.2758446     0.172429 -17.21  0.001572522    1.351    0.260
        69 -10.6164    205.9644      2.4315   6.0621543795e+01   3.2388299443e+01    0.4672811    0.2298864  86.85  0.002061032    2.068    0.516
        70 -10.9604      2.7136      1.8561   1.1891316067e+02   7.4283843802e+01    0.3333376    0.1659917   2.01  0.002008086    2.201    0.546
        71  -8.9556     51.2052      6.6793   9.5852622974e+01   6.8280066620e+01    0.1636012   0.09501007  28.98 0.0004505993    1.614    0.381
        72  -9.0612    150.8173      1.3682   6.6919135842e+01   4.6888611942e+01    0.2189817    0.1014433  57.46 0.0009506338    1.780    0.438
        73  -8.7200     15.9519      1.0000   1.1059940425e+02   7.3379828437e+01    0.1579353    0.0574898  26.85 0.0007931973    2.879    0.653
        74 -10.2528     87.6412    134.6176   1.2393239996e+02   3.7515968837e+01    0.3642075    0.2525756   2.22   0.00161233    2.483    0.597
        75 -10.6767     47.5481    134.8410   1.3483726493e+02   4.2883040694e+01    0.3630697    0.1844885 -55.17  0.001254737    1.844    0.458
        76 -11.1937     92.8592    129.1158   1.2142140449e+02   3.7934483485e+01    0.4098148    0.3201764 -72.37  0.001587922    1.315    0.239
        77 -10.4001     79.6909    126.5365   1.2457475498e+02   4.0624840989e+01    0.5858901    0.3563823 -39.11  0.001148471    1.981    0.495
        78  -9.5349     62.5546    131.6685   1.3027273762e+02   4.1821544479e+01    0.3848043   0.09219216 -56.70  0.001300231    3.439    0.709
        79 -10.9090     55.3434    123.0275   1.3084696977e+02   4.4734332569e+01    0.6884631    0.3776512  26.27  0.002620027    2.207    0.547
        80 -10.3837     45.7756    120.4470   1.3316162758e+02   4.6420383966e+01    0.3339163    0.2389732 -87.69     0.001218    1.400    0.286
        81  -9.6878     18.6014    124.5706   1.4129349988e+02   4.7959011531e+01    0.2773454    0.1079859 -66.29  0.001153805    2.005    0.501
        82 -10.9285      2.8144    123.2946   1.4533159068e+02   4.9334511093e+01    0.3996831    0.2722447 -61.21  0.002702273    1.332    0.250
        83 -11.7043    104.8902    120.9440   1.1631804841e+02   3.7696340016e+01    0.5473213    0.5236793  89.60  0.002209662    1.032    0.031
        84 -10.8137     72.2881    133.4507   1.2790477657e+02   4.0093532237e+01    0.4676028    0.3139692  -8.16  0.002074252    2.767    0.639
        85 -11.1929     34.1568    119.6527   1.3635999792e+02   4.7766912014e+01    0.3952321    0.3032956 -49.04 0.0003798058    1.340    0.254
        86 -10.6549     44.7054     85.0318   1.2674901524e+02   5.4684394603e+01    0.3354846    0.2881459 -16.81  0.001846599    1.283    0.221
        87 -12.0034     10.0674     97.9216   1.4043474661e+02   5.4574004070e+01     1.043816    0.4710435  38.76  0.005571592    2.543    0.607
        88 -12.0954      7.3787     88.7017   1.3999452410e+02   5.6789959131e+01    0.5444627    0.3888507 -64.78  0.001037305    1.095    0.087
        89 -11.8620     34.3067     91.4178   1.3160957445e+02   5.4246641613e+01     1.670342    0.9299008 -87.30  0.007812485    2.464    0.594
        90 -11.4519     37.5539     85.9032   1.2940055656e+02   5.5196597673e+01    0.6353634    0.3955603  79.67   0.00149188    2.447    0.591
        91 -11.9183     25.7504    113.5111   1.3790163401e+02   4.9916435558e+01     0.839447    0.4085552   8.21  0.003856644    3.438    0.709
        92 -12.6374     25.8911    107.2698   1.3696158865e+02   5.1336336247e+01     1.211215    0.6287999 -30.71  0.005766908    2.828    0.646
        93 -12.2413     20.8239     95.3283   1.3668843502e+02   5.4446427965e+01    0.6042926    0.5301372  -4.30  0.003993972    1.403    0.287
        94 -12.3601     18.3955     90.5219   1.3669582311e+02   5.5702631425e+01    0.6344688    0.3258195 -42.89 0.0006351652    1.929    0.481
        95  -9.2959    221.4447    120.5188   8.9270973346e+01   1.1959653625e+01    0.1459328    0.1373491  -6.48 9.488602e-05    1.006    0.006
        96  -9.2621    148.4004    119.7787   1.0457128085e+02   2.8954158406e+01    0.2245069    0.1494781 -31.00 0.0006314651    1.721    0.419
        97  -9.1736     72.0748    120.0163   1.2547613307e+02   4.3257618785e+01    0.2130059    0.1617712 -27.53 0.0007428175    1.660    0.398
        98  -9.0693     81.3936    117.7510   1.2230725356e+02   4.2407809845e+01     0.195768    0.1235436 -48.58 0.0003890218    1.547    0.354
        99 -10.2803    113.9198    115.9822   1.1264271654e+02   3.7096880217e+01    0.2424092    0.2144109  42.42 0.0003584289    1.135    0.119
       100 -10.5941     67.1064    112.1155   1.2536227034e+02   4.5786478554e+01    0.4957172    0.3000065 -68.79  0.002392468    1.691    0.409
       101 -11.5792      2.4263    112.2681   1.4435610617e+02   5.1809333209e+01    0.4372267    0.2791423  52.13 0.0009085746    1.723    0.420
       102 -10.7977      5.8332    108.7093   1.4301767290e+02   5.2406391347e+01    0.2738698    0.1729941 -52.44 0.0009074984    1.489    0.328
       103 -11.7234      3.3905    104.9166   1.4328867967e+02   5.3394081884e+01    0.3478979    0.3077609 -40.78  0.001228725    1.326    0.246
       104  -9.2954    126.9876    114.2484   1.0866253872e+02   3.4815896134e+01    0.2183353    0.1971616  43.49 0.0006428416    1.095    0.086
       105 -10.5174    107.8906    112.7414   1.1353438175e+02   3.8985959439e+01    0.5256276    0.3460511 -70.47  0.001881935    1.974    0.493
       106 -10.9347    103.5913    108.4825   1.1370860690e+02   4.0749400876e+01    0.6382805    0.5020039  -9.52   0.00309888    1.663    0.399
       107  -9.3647     87.6970    114.4697   1.1975456180e+02   4.2165782877e+01    0.2573174    0.1339928  44.03  0.001097897    1.992    0.498
       108  -9.8835     49.0708    112.3548   1.3083044809e+02   4.7946157651e+01    0.2521111    0.1945623 -55.15 0.0009800711    1.189    0.159
       109 -11.1880    171.4202    109.6864   9.6535918082e+01   2.5596912358e+01    0.7294976    0.4525867  32.17  0.002775709    1.898    0.473
       110  -9.6489     93.8789    111.2882   1.1721436152e+02   4.1856995426e+01    0.3340957    0.2300738 -86.33  0.001472552    2.084    0.520
       111  -9.2330     82.1630    102.8406   1.1871187430e+02   4.5720300160e+01    0.2173221    0.1912986 -21.15 0.0005096749    1.253    0.202
       112  -9.5061     83.5120    111.4534   1.2031014287e+02   4.3533348796e+01    0.2594596    0.2152777  40.61 0.0008602905    1.265    0.209
       113 -10.8736     78.9550    108.1549   1.2093179872e+02   4.5000866110e+01    0.4842584    0.3873396  23.03  0.001593855    1.432    0.302
       114 -11.1271     86.1854    105.3047   1.1807788131e+02   4.4512752603e+01    0.4797781    0.3795123  11.88  0.001762968    1.558    0.358
       115  -9.4155     60.5987    110.8626   1.2707455940e+02   4.6928823868e+01    0.2084544    0.1721286  68.20 0.0006257159    1.320    0.242
       116  -9.8131     14.5606    109.0026   1.4054528000e+02   5.1784635229e+01     0.252183    0.1447233  51.14  0.001446886    1.978    0.494
       117 -10.4977    157.7591    105.6491   9.8604544210e+01   2.9654943255e+01    0.3499213    0.3019065  -0.45  0.001003963    1.317    0.241
       118 -10.0999    143.4867    105.7026   1.0212078060e+02   3.2984401034e+01    0.3596596    0.3286623  67.15  0.001354929    1.149    0.130
       119 -10.9297    145.8605    100.1211   9.9990020952e+01   3.3570124456e+01    0.5144323    0.4090245   0.43  0.002366199    1.579    0.367
       120  -9.7961    248.3313    104.6708   8.1104054036e+01   8.6738799209e+00    0.1420375    0.1040676 -62.03 0.0007051733    1.716    0.417
       121 -10.1158     51.3399     89.4500   1.2549227953e+02   5.2964975097e+01     0.510961    0.1647465 -47.02  0.001925296    2.855    0.650
       122  -9.3540     57.6128    102.7674   1.2635337082e+02   4.9177676318e+01    0.2402052    0.1563928 -78.53 0.0009865051    1.760    0.432
       123 -10.3926     57.6654     97.5473   1.2521884116e+02   5.0372480201e+01     0.393787    0.2988864 -72.13  0.001555396    1.328    0.247
       124 -10.6443     48.5555    102.6701   1.2918602164e+02   5.0250007902e+01    0.3539822    0.2439743 -29.22 0.0004748302    1.768    0.434
       125 -10.0031     52.7481     96.2333   1.2652641035e+02   5.1259428285e+01    0.4821129    0.1531113 -52.49  0.001861883    2.610    0.617
       126 -10.9481    120.1186     85.1003   1.0249533025e+02   4.2434165916e+01     0.529444    0.2752886  47.98  0.001668168    1.945    0.486
       127 -10.0071    117.2851     93.0264   1.0562365613e+02   4.1403187592e+01    0.6154689    0.2443345  40.47  0.002114635    2.635    0.621
       128 -10.8712    122.0692     89.3121   1.0319759924e+02   4.1154050652e+01     0.449934    0.2960299  18.24   0.00181049    2.199    0.545
       129 -11.2958    122.6563     96.7103   1.0515880150e+02   3.9490933291e+01    0.4616918    0.3029229 -37.15 0.0002433877    1.585    0.369
       130 -10.3940    126.3429     93.1448   1.0312857564e+02   3.9433082528e+01     0.470771    0.3188367  37.76  0.001531934    1.519    0.342
       131 -11.1905     67.5539     97.1501   1.2194579836e+02   4.9177136948e+01    0.6051677    0.3447959 -51.25  0.001364867    1.586    0.370
       132  -9.3819    136.8802    100.1016   1.0228089028e+02   3.5644299116e+01    0.3037944    0.1978767  24.32  0.001213521    2.046    0.511
       133  -9.9485    142.9316    249.5014   1.2854446325e+02   5.9860430876e+00    0.1940026   0.09156178  41.66  0.001037418    1.604    0.377
       134 -10.2160     98.2438     62.2946   1.0173943543e+02   5.1414481512e+01    0.3239552    0.2506536  37.76  0.001677303    1.294    0.227
       135 -10.2946     77.9934     97.0108   1.1858602666e+02   4.7691659367e+01    0.3859105    0.1890298 -56.66            0    1.997    0.499
       136 -11.2956     82.1023     93.1950   1.1631081610e+02   4.7903766243e+01    0.6798795    0.4877359  50.67  0.002359654    1.566    0.361
       137 -11.2053     89.8505     89.4617   1.1285172018e+02   4.7434664255e+01    0.6796468    0.4013143 -31.34  0.002774068    2.050    0.512
       138 -10.5920     94.0699     75.9806   1.0754910528e+02   4.9531455685e+01    0.5376576    0.3847584  19.00  0.001438954    1.660    0.398
       139 -12.4455     74.9614     50.1430   1.0534901286e+02   5.7872070055e+01     1.011441     0.742711 -47.14  0.003909457    1.449    0.310
       140 -11.7301     85.4139     73.5480   1.0961863588e+02   5.1573544694e+01    0.7677102    0.6690709  47.67  0.004318913    1.269    0.212
       141 -11.4497     78.6635     67.1824   1.0989729922e+02   5.4000628485e+01    0.6684937    0.5523788 -78.29  0.003602602    1.641    0.391
       142 -11.5101     79.9857     82.6900   1.1413749837e+02   5.0547835357e+01     1.514772    0.9541495  72.46  0.005862098    3.260    0.693
       143 -11.3891     65.7822     81.5741   1.1861541783e+02   5.2906227453e+01    0.4301017    0.3338331  33.89  0.001854863    1.404    0.288
       144 -11.8558     71.5085     79.8987   1.1619561624e+02   5.2454336040e+01    0.6212541    0.4073705 -34.56 0.0006425327    1.565    0.361
       145 -10.1336    210.7965     97.9338   8.5537044748e+01   1.8185716369e+01    0.3598148    0.3153174   5.80  0.001404593    1.236    0.191
       146  -8.8453    190.5041     96.5026   8.8973171544e+01   2.3370210049e+01    0.1530116    0.1520696  41.68 0.0004916549    1.019    0.018
       147  -9.2741    140.4359     96.4744   1.0034127992e+02   3.5568337530e+01    0.2625553    0.2074265  35.70  0.001061594    1.293    0.227
       148  -9.7781    138.2596     93.4103   1.0002709188e+02   3.6688682901e+01    0.3994788    0.2629187  27.15  0.001201378    1.891    0.471
       149 -10.9740    102.5067     90.1626   1.0914096432e+02   4.4975629285e+01     0.666129     0.543893  10.07  0.003379526    1.430    0.300
       150  -9.1657    160.5074     93.4914   9.4583454393e+01   3.1351384231e+01    0.2907018    0.1544838  62.58  0.001032461    2.357    0.576
       151 -10.0886    152.5574     91.9453   9.6022990748e+01   3.3586669304e+01       0.3374    0.2888542 -86.79  0.001390902    1.393    0.282
       152 -10.2915    212.2531     87.0993   8.2465770822e+01   1.9622258294e+01    0.2668293    0.2348459  21.09 0.0003997203    1.239    0.193
       153 -10.1243    183.8554     86.4698   8.7544205931e+01   2.6793308489e+01    0.5278126      0.20914 -41.91  0.001794268    2.563    0.610
       154  -9.9755    104.5649     76.0042   1.0427123436e+02   4.7507662626e+01    0.4026566    0.3442289 -36.98  0.001433124    1.147    0.128
       155 -11.0430    113.5833     83.3917   1.0385735373e+02   4.4171319052e+01    0.5488444    0.3516959 -38.27  0.001863585    1.572    0.364
       156 -11.2236    108.8189     80.7745   1.0446686501e+02   4.5687117018e+01    0.4063686    0.3470942 -19.43  0.001313118    1.224    0.183
       157  -9.2992     67.5249     88.0608   1.1972803884e+02   5.1231449993e+01    0.2143241    0.1227665 -50.65  0.001015898    1.575    0.365
       158 -10.6024    165.7014     82.9745   9.0368889252e+01   3.2003226236e+01    0.4420327    0.3958131 -71.12  0.001635026    1.237    0.191
       159 -11.4435    143.4621     83.3587   9.5733034808e+01   3.7426994418e+01    0.4796137    0.3797304 -19.57  0.001480753    1.410    0.291
       160 -10.3191    127.7488     83.2555   9.9817510525e+01   4.1114737220e+01    0.3763148     0.283808  38.19  0.001244079    1.333    0.250
       161 -11.0190     57.8548     78.1632   1.2045900853e+02   5.4696472485e+01    0.3980543    0.3105532  63.70  0.001444415    1.678    0.404
       162 -11.4830     52.7423     76.1643   1.2174729110e+02   5.5755415657e+01    0.8366644    0.5388984 -63.55  0.004391863    1.595    0.373
       163 -10.6331    120.3848     79.8085   1.0080490753e+02   4.3432750156e+01    0.4569049    0.2759877  48.88  0.001960232    1.674    0.403
       164 -10.2120     58.4487     62.4141   1.1568767068e+02   5.7950525764e+01    0.7435198    0.4701212 -60.15  0.003764602    1.795    0.443
       165 -11.3824     25.5297     47.2376   1.2430468679e+02   6.4499647735e+01    0.7199495    0.2945004  16.27  0.003042654    3.082    0.676
       166 -11.7078     25.7865     56.1148   1.2671764690e+02   6.2670733796e+01     1.727898    0.6197274  21.16  0.007771751    3.306    0.698
       167 -10.1011     51.7728     46.9551   1.1314123146e+02   6.1847118661e+01    0.5576215    0.3985876 -72.43  0.002881452    2.315    0.568
       168 -11.7368     13.9022     74.5711   1.3544816014e+02   5.9537416006e+01    0.5316389    0.4358852 -69.38  0.003730909    1.115    0.103
       169  -9.0756    213.3415    248.3168   1.1565812849e+02  -5.1216704634e+00    0.1229125   0.07275189  17.63 0.0007048671    1.711    0.415
       170 -10.5743     60.7588     36.3697   1.0546859559e+02   6.2506664671e+01    0.3722769    0.1763626 -43.53  0.001188308    2.075    0.518
       171 -11.4209     51.7969     61.6629   1.1798297808e+02   5.8941218315e+01    0.5273027     0.329534 -63.48  0.001873871    1.887    0.470
       172 -11.4626     46.2745     58.5246   1.1917115979e+02   6.0225101459e+01    0.5705506    0.3406522 -55.63  0.003023349    1.605    0.377
       173 -11.4373     40.1421     55.9088   1.2082016893e+02   6.1415394036e+01    0.5285233    0.4137766  66.17  0.003124443    1.913    0.477
       174 -12.0693      2.1212     71.2894   1.3909355287e+02   6.0876354546e+01    0.6458949    0.1948041 -64.07  0.002681129    2.280    0.561
       175 -11.5737     13.6539     66.1085   1.3387636580e+02   6.1390129476e+01    0.2789379    0.2454288  45.90 0.0009047209    1.426    0.299
       176 -12.3909     10.1824     62.2635   1.3440996991e+02   6.2412421763e+01    0.6124164    0.3427326   9.88  0.003626626    2.219    0.549
       177 -11.7559     46.3770     48.8992   1.1602579081e+02   6.2128899611e+01    0.4674008    0.3228785  -9.34  0.001139384    1.605    0.377
       178 -12.4799     41.8270     45.4556   1.1674420102e+02   6.3304297440e+01    0.3335946    0.2828475  -4.36 0.0003290994    1.168    0.144
       179  -9.4270      5.0097     78.0023   1.3916625129e+02   5.9276857934e+01    0.1809459    0.1397283 -65.73 0.0005553657    1.027    0.026
       180  -8.9393    134.9443     77.4643   9.6110071616e+01   4.0569550656e+01    0.2230559    0.1403766  74.72 0.0008092601    2.614    0.617
       181 -11.9747     18.8194    106.1553   1.3891536773e+02   5.2131857162e+01    0.2654587    0.1896536 -59.41 0.0002560937    1.204    0.169
       182  -9.5280    192.1665     65.6657   8.0084996018e+01   2.8097691879e+01    0.2962382    0.2180548 -72.58  0.001083868    1.651    0.394
       183 -12.0079    186.3468     70.4589   8.2511764402e+01   2.8844919229e+01    0.9208089    0.6952083 -29.59  0.003650009    1.376    0.274
       184  -9.5630    184.4798     61.0179   8.0113467112e+01   3.0815002565e+01    0.2847554    0.2272689  -7.48   0.00137501    1.479    0.324
       185 -11.1511     32.9035     71.8082   1.2790605577e+02   5.8740971388e+01    0.4766401    0.2746517  23.75  0.002327314    2.019    0.505
       186 -10.9926     38.9871     73.9966   1.2618778990e+02   5.7703592485e+01       0.3132    0.2112974 -30.16  0.001190668    1.553    0.356
       187 -11.1658     40.1640     70.0859   1.2477155800e+02   5.8437503698e+01    0.3812854    0.2824501  43.44  0.001336491    1.639    0.390
       188  -9.5801     46.5160     73.0066   1.2317593114e+02   5.7146826669e+01    0.2854891    0.1220107 -62.81  0.001182375    2.530    0.605
       189 -11.5920     32.6012     42.5400   1.1972654939e+02   6.4803495622e+01    0.6695126      0.53292  49.48  0.001858312    1.774    0.436
       190  -9.2590     61.4715     72.9918   1.1774417905e+02   5.5344316949e+01    0.2139463    0.1380406  42.12 0.0006568887    1.772    0.436
       191 -11.6665    122.4623     68.3047   9.6544785062e+01   4.5159178964e+01    0.7223361    0.4924076  40.97  0.002454944    1.449    0.310
       192 -10.2697    129.4462     65.1926   9.3617106530e+01   4.4104570020e+01    0.5385657    0.3222685 -62.74  0.001975712    2.800    0.643
       193 -10.1891    162.0844     70.4879   8.7427975903e+01   3.5106902588e+01    0.4048142    0.2957446  74.95  0.001803146    1.617    0.382
       194 -11.5836    219.6999     66.2280   7.5809739593e+01   2.1045610652e+01    0.6899149    0.4131647  57.39  0.002292907    1.672    0.402
       195 -10.5157    172.1813     67.8011   8.4486800361e+01   3.2949468208e+01    0.4385999    0.3319682 -52.13  0.001520496    1.435    0.303
       196  -9.3338    111.2814     67.0197   9.9331630067e+01   4.7857374888e+01    0.2120901    0.1992498 -83.75 0.0002740583    1.249    0.200
       197  -9.9562    207.9068     68.1557   7.8133781276e+01   2.3690218337e+01     0.427995    0.1803293  49.58    0.0015761    2.405    0.584
       198  -9.3071     24.2486     73.1998   1.3141693841e+02   5.9138575723e+01    0.2888836    0.1780934 -80.99  0.001115691    1.892    0.471
       199 -10.3365     21.0680     65.0870   1.3081749483e+02   6.1127306909e+01    0.1795283    0.1705954 -32.04 0.0006344303    1.188    0.158
       200  -9.3691    205.0640     63.1875   7.7233762830e+01   2.5161791858e+01    0.3266617    0.2042129  25.04  0.001309198    2.392    0.582
       201 -10.5275    106.1677     62.7111   9.9413433152e+01   4.9732021810e+01    0.4020148    0.2946043  88.18  0.001743728    2.358    0.576
       202  -9.6311    198.0905     62.6424   7.8217246489e+01   2.7030658282e+01     0.264576    0.1998485 -47.43 0.0007551085    1.344    0.256
       203  -9.6873    167.7504     63.0214   8.3939502024e+01   3.4874081522e+01    0.2643327    0.2137188  59.55  0.000956788    1.203    0.169
       204 -10.6527    159.5845     61.6484   8.5229143392e+01   3.7212178744e+01    0.5073475     0.279851  43.48  0.002030984    1.846    0.458
       205  -9.2554    175.2108    246.3855   1.2223998495e+02   1.1896099734e+00    0.1777958   0.08894053  46.48 0.0005778855    1.679    0.404
       206  -9.6357    199.0092    244.5010   1.1765372408e+02  -2.4220355916e+00    0.1929952   0.09281807  39.66  0.001036587    1.603    0.376
       207 -10.8832    127.6596    242.5857   1.3058043169e+02   9.4511432287e+00    0.3144141    0.1984468 -69.28  0.001888969    2.121    0.528
       208 -10.0891    150.4951    237.9471   1.2573954258e+02   6.4428850351e+00    0.1558764    0.1251952 -51.62  0.001036944    1.602    0.376
       209  -9.4124     15.2928    233.4298   1.4988327719e+02   2.5916021490e+01    0.1694274    0.1018134 -75.54  0.001239115    1.680    0.405
       210 -10.6364    197.8468    231.7068   1.1596519297e+02  -6.2335279614e-01    0.2111778    0.1283069  26.95  0.001192931    1.476    0.323
       211 -11.7040    120.6583     57.7635   9.3486108316e+01   4.7434550934e+01      1.26218    0.6284061  54.59   0.00496115    2.122    0.529
       212 -10.1744    247.5603    231.2272   1.0705701279e+02  -8.4217114353e+00    0.1542686   0.09533356  -8.54 0.0008848608    1.629    0.386
       213  -9.1805     23.4691    231.5410   1.4843249945e+02   2.5407813851e+01    0.1073618   0.07334505  67.88 0.0003987497    1.030    0.029
       214  -9.3854    228.6627     59.2667   7.2760328241e+01   1.9873706724e+01    0.2573968     0.173534  81.12 0.0009817109    1.679    0.404
       215 -10.6823    157.4682     56.5364   8.4062305721e+01   3.8568657590e+01     0.485155    0.2546355  51.70 0.0007306073    1.782    0.439
       216 -11.3467    156.6733     53.3229   8.3199213465e+01   3.9268640955e+01    0.7753711    0.4416643 -43.74  0.003222241    1.892    0.471
       217  -9.7216      2.0927     56.0209   1.3631176295e+02   6.4131099554e+01    0.1751188    0.1278308 -51.10 0.0004881327    1.072    0.067
       218  -9.3645    187.8030     55.0146   7.7772113235e+01   3.0843826479e+01    0.2895072    0.1753891  48.10  0.001251689    1.653    0.395
       219 -11.2911    136.6627     56.0312   8.8693414284e+01   4.3915264462e+01     0.693343    0.5260142 -14.76   0.00256312    1.479    0.324
       220 -10.0141     67.2292     54.8627   1.0989294591e+02   5.8211041992e+01    0.2364274    0.2059093  -6.67  0.000620085    1.092    0.084
       221  -9.3733    212.6837     54.0449   7.3600408965e+01   2.4557304510e+01    0.2102003    0.1843809 -43.63  0.001145219    1.124    0.110
       222 -10.1407    249.1867     52.9127   6.8699589682e+01   1.5963834447e+01    0.2986578     0.230539 -76.83  0.001097093    1.352    0.260
       223 -11.9057    240.8728     50.3426   6.9025470962e+01   1.8210434173e+01    0.7086889     0.403836  68.58  0.002783865    1.828    0.453
       224 -10.9401    202.4136     47.2824   7.3243551411e+01   2.8125017004e+01    0.6427909    0.3754883 -19.00  0.002741921    2.087    0.521
       225 -11.2674    173.7697     48.1649   7.8200574802e+01   3.5534838591e+01    0.6694607    0.3784645  63.69  0.001652354    1.726    0.421
       226 -10.2130    176.7625     43.3187   7.6182533981e+01   3.5414111770e+01     0.400361    0.3221739  88.35  0.002014578    1.327    0.247
       227 -10.0855    203.8785     52.1078   7.4364232720e+01   2.7076739063e+01    0.2812184    0.2182036  67.73 0.0004787793    1.262    0.207
       228  -9.9975     90.5641     48.1214   9.9153549661e+01   5.5436169399e+01    0.2541648    0.2298039  39.77 0.0006727345    1.193    0.162
       229  -9.0878      3.7132     48.9521   1.3412418637e+02   6.5524169746e+01    0.1847814    0.1572266  12.60  0.001394397    1.454    0.312
       230  -8.5078    222.3115     48.2707   7.0768749700e+01   2.2947015561e+01    0.1378689    0.1072187  34.27 0.0001836101    1.549    0.354
       231  -9.7080     14.0000     46.8230   1.2918351519e+02   6.5403072602e+01    0.3741986    0.1051157 -43.90  0.001625159    2.750    0.636
       232  -9.1939     17.8273     42.0021   1.2612585861e+02   6.6115647807e+01       0.2934    0.1815716 -26.02  0.001795788    1.559    0.359
       233  -9.2924    193.1273     45.8769   7.4252343715e+01   3.0739035832e+01    0.2333751    0.1927941 -79.33 0.0007940333    1.270    0.212
       234  -9.6026    132.3596     44.9858   8.5935595690e+01   4.6681139618e+01    0.2714647    0.2148856  19.54 0.0009016165    1.365    0.267
       235 -10.3508    100.4874     43.5959   9.4244901144e+01   5.4186588592e+01    0.4537702    0.3328575 -81.84  0.002022777    2.512    0.602
       236 -11.2451     93.9247     41.4142   9.5481107591e+01   5.5875066421e+01    0.5518354    0.3096666  42.23  0.001785366    1.731    0.422
       237  -9.7752      4.1222     44.1689   1.3281196542e+02   6.6478999496e+01    0.3862375    0.1853247 -22.08 0.0009108243    2.366    0.577
       238  -9.8025    161.9706     43.7269   7.9024945067e+01   3.9275509412e+01    0.4147868    0.2342901  62.10  0.001747781    1.699    0.411
       239 -11.7015    156.2309     41.7711   7.9522041383e+01   4.1052819688e+01    0.4318128    0.3785158  40.65 0.0007905671    1.115    0.103
       240 -11.3615    153.7354     36.3454   7.8219757668e+01   4.2430416954e+01    0.3613742    0.3397259 -85.99 0.0008754854    1.128    0.113
       241  -8.8534    188.7729     42.0103   7.3811787423e+01   3.2407124381e+01    0.2016078    0.1455765 -12.22 0.0004139083    1.676    0.403
       242  -9.6081    189.4726     37.9973   7.2532036830e+01   3.2747554078e+01    0.2837674    0.1855135 -17.29  0.000927979    1.822    0.451
       243 -10.3619    190.1134     32.7125   7.0898935091e+01   3.3243634266e+01    0.3741957    0.3094956 -70.75  0.001105588    1.240    0.193
       244 -10.2753    189.4876     27.5197   6.9479964892e+01   3.4033503871e+01    0.4066053    0.3270823   0.58  0.001479176    1.529    0.346
       245 -11.7554     70.1017     32.5951   1.0026054143e+02   6.1645052728e+01    0.5103073    0.2835669  34.92 0.0006265805    1.797    0.444
       246 -11.1966     81.7722     39.4341   9.8798258695e+01   5.8519780453e+01    0.4847374    0.3257556  41.57  0.001550588    1.509    0.337
       247 -10.9916     78.0959     34.6870   9.8179290059e+01   5.9934539114e+01    0.3999136    0.2834292  39.78  0.001282564    1.424    0.298
       248 -11.1282     82.3539     31.5610   9.5376169220e+01   5.9624565246e+01    0.4201547    0.3449379  40.02  0.001800982    1.262    0.207
       249 -10.7629    231.2614     38.7913   6.7277653644e+01   2.2001296415e+01    0.4388513    0.2287641 -47.82  0.001438017    1.842    0.457
       250  -9.4272    218.3113     38.9974   6.8858894395e+01   2.5165123397e+01    0.2001649    0.1809537 -50.08  0.001152791    1.091    0.083
       251 -10.7264    176.9313     37.1581   7.4270149488e+01   3.6183683556e+01    0.4164453    0.3035305 -20.09  0.001657109    1.544    0.352
       252 -11.0580    172.4705     33.4472   7.3867617232e+01   3.7840641955e+01    0.4977007    0.3211147  62.78  0.001847949    1.430    0.300
       253  -9.2110    189.8737    229.8845   1.1717226768e+02   9.5680642197e-01    0.1891671    0.1400536  23.76 0.0004734564    1.212    0.175
       254  -9.8974    241.9509    230.9951   1.0797415286e+02  -7.5624034877e+00    0.1607543    0.1437579  47.38 0.0008802406    1.715    0.417
       255 -10.3785    206.9146     37.0887   6.9805765940e+01   2.8306965241e+01    0.3294491      0.25026 -65.16 0.0007882796    1.351    0.260
       256 -10.3036    175.8928     29.6322   7.2130789417e+01   3.7394499116e+01     0.403796    0.2990538 -22.59 0.0009889633    1.498    0.332
       257 -10.8097     22.6362     36.4370   1.2216130011e+02   6.6835638332e+01     0.350496    0.2437121  42.80  0.002179582    2.016    0.504
       258 -10.6721      4.8856     35.8590   1.3027470135e+02   6.8093570344e+01    0.3581802    0.2619824 -24.84  0.001840193    1.285    0.222
       259  99.0000      6.3116     30.7232   1.2807429440e+02   6.9010304651e+01    0.3646145    0.1950334  13.54  0.002105455    2.152    0.535
       260  -8.9738     94.0320     36.0422   9.3321888141e+01   5.6675619136e+01    0.2025897    0.1747165 -75.41  0.001027999    1.665    0.399
       261 -11.5558    105.7164     32.9673   8.8535829393e+01   5.4633394455e+01    0.5878699    0.3416003   6.79  0.001433364    2.635    0.620
       262  -9.7330    248.5325     33.0097   6.4091531235e+01   1.8666763088e+01     0.315818   0.09462183 -36.74  0.001217084    2.727    0.633
       263 -10.9027    240.8959     31.3135   6.4434146723e+01   2.0638261574e+01    0.4286522    0.3551364 -12.39  0.002357854    1.465    0.318
       264  -9.8723    203.4756     27.4976   6.7624500426e+01   3.0371414805e+01    0.2754795    0.2052528 -48.46  0.001120428    1.336    0.252
       265 -11.0280    198.0580     28.8222   6.8688769884e+01   3.1625161016e+01    0.5137821    0.4289465  75.57  0.002834921    1.115    0.103
       266 -10.4101    199.7153     24.9573   6.7395530799e+01   3.1645218337e+01    0.3033913     0.259403 -42.40 0.0006765969    1.206    0.171
       267  -9.5142      9.0553    227.3161   1.5063885208e+02   2.7606885702e+01    0.1422295   0.09677007  61.61 0.0003488579    1.125    0.111
       268 -11.7544     47.5660     30.5809   1.0861821159e+02   6.5304282714e+01    0.6717944    0.3040298  28.15  0.002975756    2.409    0.585
       269  -9.3411    182.6751     32.0312   7.1804302101e+01   3.5298969649e+01    0.1971136    0.1881482 -50.94 0.0004209448    1.103    0.094
       270 -10.7582     56.8758     30.7343   1.0472208874e+02   6.4006644918e+01      0.39405    0.2325524  32.45    0.0016136    1.731    0.422
       271  -9.5527    230.5539     30.5130   6.5296826026e+01   2.3201165481e+01      0.25782    0.2176636 -81.57 0.0005686316    1.102    0.093
       272  -9.7282    230.2598     26.9754   6.4452355286e+01   2.3696391488e+01    0.2637737    0.1374877 -27.12  0.001066216    2.027    0.507
       273  -9.6562    210.9529     29.9484   6.7367404794e+01   2.8154731814e+01    0.2702315     0.192839 -34.47 0.0009122392    1.425    0.298
       274  -8.5830    209.3426    223.3085   1.1251302917e+02  -1.4523225567e+00    0.1313793   0.08232363  16.17 0.0007043951    1.693    0.409
       275  -9.7585    100.3228     30.2627   8.9038047655e+01   5.6179132961e+01    0.2842762     0.197588  23.56  0.001192461    1.483    0.326
       276  -9.6940    234.5384    222.5257   1.0784418250e+02  -5.4577273657e+00    0.1236938   0.09461947  18.31 5.588803e-05    1.005    0.005
       277 -10.0876     10.0267    217.6133   1.5003535949e+02   2.9268820769e+01    0.1870343    0.1217083 -86.48 0.0006349394    1.331    0.249
       278  -9.5182    166.4471    213.0934   1.1913030441e+02   7.5200534778e+00    0.2754704    0.1745691  81.78  0.001000073    4.046    0.753
       279  -9.4924    152.9320    207.9489   1.2107249816e+02   1.0799333277e+01    0.2098422    0.1509243  66.69  0.001002431    1.677    0.404
       280 -10.1515      4.4141    204.6507   1.5040303739e+02   3.2209911717e+01    0.2052152    0.1259168 -75.12  0.001467764    1.541    0.351
       281  -9.6812    238.5168    204.0286   1.0388640080e+02  -3.8359555103e+00    0.1802816     0.115181 -25.12  0.001034996    1.598    0.374
       282 -10.0693    250.3340     25.3974   6.2170800911e+01   1.9171244475e+01    0.2328814    0.1629556 -35.34 0.0006350716    1.376    0.273
       283  -8.9920     98.0116     26.5053   8.8189909270e+01   5.7173309389e+01    0.2054299    0.1294939  49.83  0.001011688    1.533    0.348
       284 -11.2905    214.8067     23.4712   6.5210289363e+01   2.7937263799e+01     0.427357    0.3719711 -16.51  0.001552396    1.340    0.254
       285 -10.0485    245.3071    200.9734   1.0213776535e+02  -4.5598880356e+00    0.1747493    0.1403156  -0.89  0.000551998    1.108    0.097
       286 -12.4422      5.3858    186.2278   1.4927433532e+02   3.5727155964e+01    0.9036023    0.4280869  89.80  0.005449217    1.741    0.425
       287 -10.0056    234.2594    196.8943   1.0332263999e+02  -2.1996518293e+00    0.3524718     0.224537  10.63  0.001464177    1.658    0.397
       288  -9.8003    169.9430    191.2629   1.1479664164e+02   1.0493561200e+01    0.3725816    0.1653596  34.17  0.001304762    2.346    0.574
       289  -9.8607    223.2102     22.3998   6.4035883645e+01   2.5957400370e+01    0.2620426    0.2106566 -84.18 0.0008179802    1.157    0.135
       290 -10.3401    220.8014     19.1353   6.3457842198e+01   2.6924206191e+01     0.235826    0.2126757  64.67 0.0004630782    1.177    0.150
       291 -11.1070     17.1687    192.6272   1.4737583174e+02   3.3388426690e+01    0.2078005     0.157476  66.14 0.0004230784    1.117    0.105
       292  -8.8501     57.2993    175.0395   1.3746232712e+02   3.2673510155e+01    0.1721601    0.1396919  88.70  0.000472753    1.079    0.073
       293  -9.7886     51.8696    174.0023   1.3857297956e+02   3.3566014133e+01    0.3029659     0.137587  84.40  0.001250171    3.083    0.676
       294  -9.9960     39.4582    173.3107   1.4126952808e+02   3.5139416077e+01    0.2094957    0.1330954 -75.13 0.0009506134    1.401    0.286
       295 -10.8531     35.0506    170.5937   1.4199185266e+02   3.6195944622e+01    0.2773178    0.1719795  87.65  0.001075512    1.435    0.303
       296  -9.7964      9.0005    156.0093   1.4657105185e+02   4.1727861111e+01    0.2222334    0.1615927 -76.14   0.00112631    1.199    0.166
       297 -11.3019      9.1945    166.6611   1.4729354628e+02   3.9440123064e+01    0.4409758    0.3150311  88.20  0.002268307    1.082    0.076
       298 -11.4454     13.6897    158.5586   1.4571992709e+02   4.0800626594e+01    0.5051193    0.2139776 -74.62  0.002300394    1.920    0.479
       299  -9.2582    198.0010    167.7560   1.0447359923e+02   8.9653866906e+00    0.2011993    0.1759703  29.04 0.0006008719    1.038    0.036
       300  -9.1085    149.1952    168.4114   1.1511305078e+02   1.8794820093e+01    0.2173828    0.1269052  52.14 0.0009509686    1.707    0.414
       301 -10.1156     66.3868     22.2078   9.7154637669e+01   6.3808227226e+01      0.22671    0.2037246  -7.49 0.0004189707    1.166    0.142
       302  -9.1668    248.1387    173.3550   9.6289060672e+01  -1.4105722049e+00    0.2625006    0.1022072  36.51  0.001088485    2.561    0.610
       303  -9.9330     18.5022    165.2197   1.4517970804e+02   3.8953562685e+01    0.2283274     0.181393  83.88  0.001497976    1.032    0.031
       304  -9.8544    205.2460    163.1568   1.0206218188e+02   8.2650315450e+00    0.2687436    0.2125394  22.60 0.0005776257    1.215    0.177
       305  -9.6322    188.9318    164.0710   1.0556511243e+02   1.1458552944e+01    0.2344092    0.1709168  10.15  0.001124898    1.648    0.393
       306  -9.2317      1.7409     20.4473   1.2703387113e+02   7.1162020555e+01    0.1470307   0.08564341 -15.80 0.0009437271    1.706    0.414
       307 -10.1725     28.1450    163.2097   1.4286472799e+02   3.8493348209e+01    0.2639461    0.1520903 -76.42  0.001414305    1.477    0.323
       308  -9.7182     79.4941    160.0185   1.3030301991e+02   3.2964642827e+01    0.3222945    0.2119833  89.57  0.001636125    1.704    0.413
       309  -9.8395    225.2865     16.9958   6.2477107547e+01   2.6052877270e+01    0.2631974    0.1813124 -89.45 0.0008396363    1.394    0.282
       310  -9.8504    191.5921     16.9523   6.6161625527e+01   3.4659881456e+01      0.27808    0.2182865  53.85  0.001023885    1.265    0.209
       311  -9.0405    170.8546     17.6406   6.9191096526e+01   4.0082631189e+01    0.1994019    0.1268355  80.83 0.0003917181    1.609    0.379
       312  -9.4985     82.5130    159.5366   1.2948975496e+02   3.2622580300e+01    0.2734043    0.1794913  52.77 0.0007762508    1.463    0.316
       313  -9.0299    215.4481    158.4995   9.9083378688e+01   6.9623569857e+00    0.1436984    0.1273744  11.42 0.0001496772    1.023    0.022
       314 -10.6279    104.4910    152.8505   1.2290952378e+02   3.0549564961e+01    0.5540721    0.3236163 -68.62  0.002464025    1.986    0.496
       315 -10.1217     31.5419    154.5253   1.4124868980e+02   4.0074731948e+01    0.3089683     0.188473  50.56  0.001837944    1.593    0.372
       316 -10.8006     30.5995    149.2188   1.4092861612e+02   4.1350725036e+01    0.3556885    0.2339319  88.98 0.0006248879    1.349    0.259
       317  -9.6760     22.7690    155.1291   1.4336403358e+02   4.0764541799e+01    0.2027196    0.1728935   4.81  0.001416184    1.694    0.410
       318 -10.0596     14.2702    133.2405   1.4334820559e+02   4.6333798999e+01    0.2710463    0.2013259  49.24  0.001083479    1.436    0.304
       319 -10.7084     10.5330    127.3438   1.4371944659e+02   4.7926001805e+01    0.5463749     0.164669 -60.80  0.001663854    2.560    0.609
       320 -11.3702     12.7692    139.1231   1.4428494749e+02   4.5134890801e+01    0.6674871    0.3023832  72.23  0.003264127    2.510    0.602
       321 -10.4544     81.4388     19.2284   9.0340820762e+01   6.1479592296e+01    0.3779324    0.2005081  38.22 0.0007718767    1.759    0.432
       322 -11.8889     22.5817    149.5157   1.4288668824e+02   4.2021438362e+01    0.5472636    0.3207945 -34.13  0.002872449    2.808    0.644
       323 -10.7406     15.8650    147.9342   1.4433530401e+02   4.2940853317e+01     0.362227     0.223801  58.44  0.001292841    1.558    0.358
       324  -9.4379    140.7815    154.0734   1.1423998371e+02   2.3399353052e+01    0.2813228    0.1905553  18.95 0.0009776654    2.064    0.515
       325 -11.2934      3.4269    141.1813   1.4671049606e+02   4.5354287629e+01    0.4110977    0.2801563  44.91  0.001447322    1.568    0.362
       326 -11.8952      3.8094    136.3797   1.4623027946e+02   4.6380265437e+01    0.2297948     0.185789 -83.43 0.0003867088    1.075    0.070
       327 -11.9650      5.3355    147.5862   1.4676318456e+02   4.3825440471e+01    0.5335181    0.3624536 -71.55  0.002581991    1.272    0.214
       328  -9.7779    148.0675     60.5551   8.7457070681e+01   4.0334471330e+01    0.4765465    0.1527668  56.58  0.001443224    3.161    0.684
       329  -9.6657      7.9748    144.2504   1.4588364353e+02   4.4361070607e+01     0.141549    0.1159447  42.68 0.0002386757    1.414    0.293
       330 -10.9880     62.5518    149.8489   1.3305695632e+02   3.7618851418e+01    0.4725599    0.3825127  65.19   0.00198999    1.174    0.148
       331 -10.1947     56.5125    149.2688   1.3450480461e+02   3.8513346173e+01    0.2316629    0.1997305 -74.98 0.0006878264    1.104    0.094
       332  -9.8443     42.7589    148.5704   1.3786599863e+02   4.0259054086e+01    0.3898276    0.1879752  36.46  0.001978744    2.140    0.533
       333  -9.6121     48.0829    151.7148   1.3692709863e+02   3.8955008576e+01    0.3497544    0.2459049  59.13  0.001381555    1.375    0.273
       334  -9.9910     48.3142    147.6844   1.3636530571e+02   3.9844739390e+01    0.2425703    0.1647456  53.20  0.001003405    1.455    0.313
       335  -9.8636     46.3203    144.7098   1.3649010205e+02   4.0748289856e+01    0.2476764    0.2186048 -59.04  0.000780124    1.240    0.194
       336  -9.6311    214.5005    151.5399   9.7744701011e+01   8.2927975641e+00    0.1439731    0.1317503  12.82  9.44205e-05    1.019    0.019
       337 -10.0692     71.4404    151.2352   1.3100583821e+02   3.6107398711e+01    0.2559543    0.1846204  40.05  0.001423146    1.430    0.300
       338  -9.0217    239.5492    146.5461   9.2094118268e+01   4.0521154773e+00    0.1380395    0.1228432  -1.16 0.0002697825    1.012    0.012
       339 -10.8107     33.2355    144.3909   1.3975482028e+02   4.2183766038e+01    0.2887417    0.2227225 -84.87 0.0007071419    1.084    0.078
       340 -10.4772    249.5814    141.9876   8.9410770684e+01   2.8092036273e+00    0.5089964    0.2111862 -29.80  0.002094673    2.334    0.572
       341  -9.9888    133.4393    140.2749   1.1312027902e+02   2.7822054381e+01    0.2972517    0.2778668 -17.22  0.001166814    1.189    0.159
       342  -9.4208     69.5056    140.5061   1.2984004826e+02   3.8842134127e+01     0.133125    0.1220224 -75.64 0.0008094815    1.076    0.071
       343 -12.0594     23.1710    136.2962   1.4140111807e+02   4.4932659635e+01    0.8379828    0.4492726  47.09  0.004727825    1.921    0.480
       344 -11.7369     29.8480    132.7667   1.3926754462e+02   4.5147434723e+01     0.496847    0.3085211 -84.16 0.0004487961    1.454    0.312
       345 -10.6689     81.4255    135.4444   1.2577176749e+02   3.8292577227e+01    0.5725587    0.4094889 -10.68   0.00253465    2.327    0.570
