#   1 NUMBER                 Running object number                                     
#   2 MAG_AUTO               Kron-like elliptical aperture magnitude                    [mag]
#   3 X_IMAGE                Object position along x                                    [pixel]
#   4 Y_IMAGE                Object position along y                                    [pixel]
#   5 X_WORLD                Barycenter position along world x axis                     [deg]
#   6 Y_WORLD                Barycenter position along world y axis                     [deg]
#   7 A_WORLD                Profile RMS along major axis (world units)                 [deg]
#   8 B_WORLD                Profile RMS along minor axis (world units)                 [deg]
#   9 THETA_WORLD            Position angle (CCW/world-x)                               [deg]
#  10 FWHM_WORLD             FWHM assuming a gaussian core                              [deg]
#  11 ELONGATION             A_IMAGE/B_IMAGE                                           
#  12 ELLIPTICITY            1 - B_IMAGE/A_IMAGE                                       
         1 -11.9397    211.2590     24.8989   4.0624273028e+01   2.9759896502e+01    0.9426782    0.7067214  35.07  0.005251124    1.771    0.435
         2 -11.9360    199.6632     37.9760   4.5341647428e+01   3.0898625277e+01     1.037864    0.8540665  58.16  0.005949175    1.255    0.203
         3  -8.7199    212.0496      7.7207   3.6366195116e+01   3.1475837600e+01    0.1785998    0.1469804 -89.44 0.0005471081    1.073    0.068
         4  -7.4421    247.1817      6.8925   3.3440576452e+01   2.3807311529e+01     0.138819    0.1328874 -72.31 0.0004356516    1.299    0.230
         5  -9.9013    235.6400      2.2366   3.3258771098e+01   2.6752410864e+01    0.6076514    0.2395843  77.42    0.0028864    2.406    0.584
         6  -9.6847     81.3880    234.8129   1.1365832750e+02   1.5392683158e+01    0.3034587    0.2377076 -64.90 0.0009427833    1.453    0.312
         7 -14.7463      3.2030    203.5966   1.2654386980e+02   3.0628186712e+01     1.103281     0.370453 -67.68  0.005562919    2.593    0.614
         8 -18.1921     11.5503    237.3065   1.2674086973e+02   2.3169279177e+01     2.785938     1.910582  88.02   0.02090679    1.232    0.188
         9  -9.4299    157.3091    230.5839   9.7819675883e+01   4.5457376432e+00      0.23692    0.1943224   0.40  0.000947204    1.375    0.273
        10  -9.1615    149.7435    230.5501   9.9348133146e+01   5.7725071924e+00    0.2631041    0.1117147  34.69  0.001153978    2.148    0.534
        11  -9.9587    113.8195    231.5788   1.0680903028e+02   1.1265665525e+01    0.3373178    0.2130382  21.30  0.001732502    2.086    0.521
        12  -8.5355     73.8392    227.0685   1.1441490130e+02   1.7917690255e+01      0.18549    0.1319171  66.91 0.0004759935    1.253    0.202
        13  -9.9171    112.2529    224.2785   1.0623901545e+02   1.2872732484e+01     0.442281    0.2335095  35.81  0.001045199    1.756    0.431
        14  -9.3389     92.2839    225.3741   1.1049969915e+02   1.5662982005e+01    0.3673231    0.1140353  43.31  0.001497982    2.642    0.622
        15  -9.4905     73.5155    220.4444   1.1383551993e+02   1.9283122661e+01    0.4210294    0.3136732  89.41   0.00264774    1.301    0.232
        16  -7.4408    214.0273    218.2258   8.4634282967e+01  -2.5997347846e+00     0.160638   0.09285046  33.36 0.0003518035    1.560    0.359
        17 -15.1855     41.0696    247.5591   1.2218163702e+02   1.8118305670e+01     1.025343    0.3920165  40.46   0.00558953    2.141    0.533
        18 -15.0757     39.3770    239.6224   1.2197938534e+02   1.9782562008e+01     1.169494    0.4628881  25.72  0.004818267    4.593    0.782
        19  -8.4328     99.0428    213.7532   1.0772517835e+02   1.6973113828e+01    0.2604336    0.1964907 -25.30  0.000386218    2.012    0.503
        20  -9.3244     74.4526    213.2766   1.1290761651e+02   2.0625962304e+01     0.421902    0.2078365  34.59  0.002070641    2.037    0.509
        21  -7.6418     74.4019    209.7245   1.1254017900e+02   2.1376825442e+01    0.1742726    0.1448114 -78.47 0.0006603252    1.206    0.171
        22  -9.8812    233.1258    210.6746   7.9751058249e+01  -4.4143910445e+00    0.2368177    0.1978947   0.22 0.0005909914    1.074    0.068
        23  -8.0351     95.5554    212.1504   1.0827789593e+02   1.7826922231e+01    0.1610779     0.119236 -49.97 0.0009148896    1.582    0.368
        24  -7.8957     69.5059    209.0220   1.1350979623e+02   2.2189232395e+01    0.1876547    0.1508737  52.93 0.0006918763    1.137    0.120
        25  -9.6444    123.7715    206.0425   1.0128918146e+02   1.4602247600e+01    0.3097579    0.2343016  84.61            0    1.629    0.386
        26  -8.6953    202.8924    207.0381   8.4783498169e+01   9.0618884433e-01    0.1991398    0.1739984  12.13 0.0004811741    1.049    0.047
        27  -8.2987     80.9351    205.9966   1.1071336702e+02   2.1254383860e+01    0.1906554    0.1649243  69.69 0.0003567369    1.009    0.009
        28  -8.5568    192.8016    196.7522   8.4901019122e+01   4.3353499022e+00    0.2345914    0.1934266 -28.17  0.001087218    1.229    0.187
        29  -8.5498    171.0212    197.7923   8.9624653143e+01   7.9940941235e+00     0.240516    0.2006964 -28.75 0.0006032996    1.258    0.205
        30  -8.0066     90.1561    196.8145   1.0752706308e+02   2.1889940506e+01    0.1719033    0.1558426 -45.36 0.0005280421    1.314    0.239
        31  -7.5671     68.6962    197.3053   1.1241529660e+02   2.4832807863e+01     0.135758   0.08589638  67.97 0.0003268298    1.599    0.375
        32  -9.8951    152.0197    194.9678   9.3245185247e+01   1.1928803100e+01     0.228828    0.2173856   7.18            0    1.071    0.066
        33  -7.2030    122.9520    195.7818   9.9908872801e+01   1.6849244004e+01    0.1727749    0.1067042  38.22 0.0002705654    1.522    0.343
        34  -7.8038    115.0213    192.3196   1.0118393746e+02   1.8919784685e+01     0.191207    0.1653805  51.37 0.0002609206    1.074    0.069
        35  -8.5114     63.2896    197.6568   1.1365274792e+02   2.5468678387e+01    0.2904952     0.192442 -74.47  0.001086158    1.441    0.306
        36  -8.4227     74.8291    190.2281   1.1018860358e+02   2.5573753271e+01    0.2379405    0.1850177  84.96 0.0009054973    1.229    0.186
        37  -8.1935    118.0212    183.8282   9.9120830548e+01   2.0259264414e+01    0.3239338    0.1927755  29.54   0.00145216    1.873    0.466
        38  -9.1467     62.2304    181.1317   1.1200878781e+02   2.9347167222e+01    0.2947096    0.2072379  28.86  0.001035317    1.651    0.394
        39 -10.2383     68.4367    179.0111   1.1026954812e+02   2.9022351805e+01    0.4906376    0.3064932 -42.12  0.001716713    2.074    0.518
        40  -9.8352     73.0053    173.5945   1.0843712953e+02   2.9667985160e+01    0.4039389     0.252388 -42.07 0.0006081699    2.011    0.503
        41  -7.8520     84.8566    180.4440   1.0652251413e+02   2.6362860861e+01    0.2484374    0.1699577 -29.23 0.0009691791    2.228    0.551
        42  -9.1136     49.6475    180.7361   1.1490866722e+02   3.0991280060e+01    0.3607489    0.1492065  37.92  0.001647418    2.327    0.570
        43  -9.4106     38.9815    180.1805   1.1730878180e+02   3.2324996185e+01    0.4142627    0.1771516  66.20  0.001698914    2.985    0.665
        44  -6.9985    109.3539    178.7385   1.0034706290e+02   2.2867128052e+01    0.1475744    0.1033316  65.26 0.0003556117    1.617    0.382
        45  -7.5266    141.9726    176.7041   9.2213002600e+01   1.7514388190e+01    0.2334846    0.1175712  20.51 0.0005091414    4.088    0.755
        46 -15.0542     35.3829    233.9683   1.2234009531e+02   2.1310006329e+01    0.6265854    0.5362653  21.63  0.003481149    1.703    0.413
        47  -7.8460    100.8415    174.7985   1.0177205250e+02   2.5176209322e+01    0.1933973    0.1586673  81.28 0.0008654572    1.274    0.215
        48  -7.4138     49.6931    175.2966   1.1429290571e+02   3.2252751305e+01    0.1351847   0.08594892  69.15  0.000171604    1.588    0.370
        49  -8.0228    147.7769    180.3026   9.1545250332e+01   1.5676322218e+01     0.230263    0.1734754  52.86 0.0008010221    1.385    0.278
        50  -9.6834    175.4435    172.6432   8.3828164537e+01   1.1983933729e+01    0.3545413    0.3367294  19.82 0.0008689805    1.046    0.044
        51 -10.6795     84.9500    231.7665   1.1265474741e+02   1.5476356967e+01    0.4952706    0.3678847  66.98  0.002158382    1.220    0.180
        52  -9.6475    128.5248    236.0656   1.0438398957e+02   8.1884737014e+00    0.3893544    0.1408645  39.00  0.001673902    2.314    0.568
        53  -8.4449     37.3901    170.5324   1.1669771119e+02   3.4740642556e+01    0.2318408    0.1612992 -75.11 0.0006681129    1.246    0.197
        54  -8.3115     31.8539    167.4896   1.1770205163e+02   3.6023182677e+01    0.2214138    0.1837193 -65.88 0.0006280307    1.228    0.185
        55  -7.4223     99.4810    166.5963   1.0074018546e+02   2.7310884199e+01     0.141215    0.1348081  74.90 0.0008022077    1.030    0.030
        56  -8.5821     88.8968    165.1916   1.0318858966e+02   2.9330476737e+01    0.2117897    0.1795223  76.51 0.0002539978    1.174    0.148
        57  -8.1935     85.4186    165.1891   1.0407376591e+02   2.9863537074e+01    0.2048811    0.1561755  67.46 0.0002894304    1.368    0.269
        58  -8.9067     81.8317    164.2520   1.0483943650e+02   3.0625138419e+01    0.2331765    0.1804782 -80.34 0.0004802129    1.279    0.218
        59  -9.5974    106.9129    234.9111   1.0859348688e+02   1.1699362617e+01    0.3579766    0.2427928 -14.97  0.001728335    3.077    0.675
        60  -9.1147    105.3812    230.6601   1.0841794572e+02   1.2715584266e+01     0.215007    0.1464222  81.81   0.00120266    1.775    0.437
        61  -9.3148     68.8490    160.2057   1.0755443912e+02   3.3443042044e+01    0.3717158    0.2190869 -63.34  0.001804072    1.567    0.362
        62  -7.5790    171.9572    159.1013   8.1736989489e+01   1.5387623008e+01    0.1797847    0.1653212 -31.56 0.0004713851    1.083    0.076
        63 -10.3009     88.4013    157.0341   1.0194213545e+02   3.1365297710e+01    0.6278569    0.3691743 -41.50  0.002280462    2.003    0.501
        64  -8.1469     50.1081    157.6819   1.1203508242e+02   3.6409988395e+01    0.1729261    0.1612924  78.18 0.0004234446    1.121    0.108
        65  -7.1414     31.3364    155.9933   1.1660634268e+02   3.8807697775e+01    0.1753636    0.1369988 -85.86 0.0002767959    1.077    0.071
        66  -8.4300     53.9902    153.9683   1.1052167952e+02   3.6857208746e+01    0.2908936    0.2287624 -20.96 0.0003279318    1.745    0.427
        67  -8.7330     51.0174    152.0120   1.1103075136e+02   3.7685538687e+01    0.7186521    0.2239597  25.60  0.002425263    4.387    0.772
        68  -7.1622     34.3300    154.2520   1.1565015680e+02   3.8934193418e+01    0.1200912   0.09196482 -42.16 0.0003471432    1.553    0.356
        69  -8.3070    214.8312    235.0845   8.7336603988e+01  -5.1084962298e+00     0.167865    0.1447595  19.11 0.0003784864    1.204    0.170
        70  -7.8426     98.8307    153.1790   9.8498801110e+01   3.0613446217e+01    0.2149617    0.1906544  83.10 0.0003622955    1.147    0.128
        71  -8.2801     69.0009    152.5963   1.0634005528e+02   3.5277325660e+01    0.2756475    0.1854747 -85.37  0.001353402    1.606    0.377
        72 -11.2200     68.6313    144.5854   1.0512437749e+02   3.7298027965e+01    0.8135588     0.488236  63.25  0.003651872    2.077    0.518
        73  -7.6256     30.2645    151.0135   1.1631559999e+02   4.0108130189e+01    0.1739471     0.141953 -83.38 0.0003778597    1.016    0.016
        74  -8.1630    126.8435    147.3835   9.0004911080e+01   2.6940911813e+01    0.2415764    0.1999136 -61.81 0.0002879031    1.249    0.199
        75  -7.2125      7.3077    147.3210   1.2173941974e+02   4.2881985124e+01     0.121788   0.07630738 -52.55 0.0007033626    1.641    0.391
        76  -8.4872    133.8883    145.3263   8.7758137804e+01   2.6040033755e+01    0.2780794    0.2096855 -58.42  0.001031086    1.393    0.282
        77  -8.3287     82.0636    142.0753   1.0095356693e+02   3.5989503230e+01    0.2443319    0.2037174 -80.80 0.0005365591    1.199    0.166
        78  -8.2433     85.4877    146.0040   1.0074331580e+02   3.4501719923e+01    0.2444971    0.1901036  56.17 -5.626871e-05    1.348    0.258
        79  -9.6928     89.5612    142.3671   9.8932020911e+01   3.4751804161e+01    0.3363662    0.3115767  13.49 0.0001272865    1.228    0.186
        80  -9.2989    136.0072    233.3031   1.0251557009e+02   7.4948957133e+00    0.1898338    0.1472741  40.72  0.001166268    1.092    0.085
        81  -7.9004     31.0259    145.8608   1.1550918585e+02   4.1283905101e+01    0.1943785    0.1482228  78.16 0.0004597062    1.257    0.204
        82  -9.2512     15.9838    145.4790   1.1937726153e+02   4.2670110343e+01    0.2296236    0.1448669  77.22 0.0008742056    1.545    0.353
        83  -9.0031     17.3206    142.3360   1.1870323134e+02   4.3317250991e+01    0.2642619    0.1483033 -55.74 0.0009679461    1.649    0.394
        84  -7.7993    113.0624    145.1930   9.3134927242e+01   3.0039306209e+01    0.2032527    0.1724765  84.14  0.001021595    1.320    0.242
        85  -9.4858    100.2822    142.8342   9.6083317883e+01   3.2864836115e+01    0.5535641    0.3854579  18.54  0.002510831    1.867    0.464
        86  -9.2708      7.9761    143.9293   1.2126183934e+02   4.3635140090e+01    0.2003304     0.116931  69.49 0.0008146124    1.733    0.423
        87  -7.3638    143.4868    142.4448   8.4702936829e+01   2.4761400099e+01    0.1529815    0.1504469  83.04 0.0001128289    1.053    0.050
        88  -8.5566    246.5470    144.0000   6.3987239530e+01   3.8056114207e+00    0.2719657   0.07790331  46.93 0.0009378704    3.960    0.747
        89  -8.3317     82.2672    137.3479   9.9991452239e+01   3.7121746175e+01    0.4495226    0.2383872  67.50  0.001509051    3.613    0.723
        90  -8.8846     19.0558    137.5579   1.1771608119e+02   4.4329827575e+01    0.2547611    0.1519994  88.10   0.00136738    1.617    0.382
        91  -8.3663     14.3108    135.3094   1.1873749704e+02   4.5233905148e+01    0.2585477    0.1444528 -62.03  0.001423945    1.485    0.327
        92  -8.7417      5.0870    137.9500   1.2143758681e+02   4.5246882869e+01    0.1937421    0.1165161 -50.36 0.0005746025    1.699    0.411
        93  -8.0690     34.8130    136.3700   1.1325745518e+02   4.3242050499e+01    0.2716486    0.1804771 -32.60  0.001432901    1.931    0.482
        94  -9.0161     11.5337    137.5056   1.1971091667e+02   4.4909668735e+01    0.2018663    0.1539331  35.06 0.0008688631    1.550    0.355
        95  -8.7432     67.7106    134.6717   1.0363795689e+02   3.9875205228e+01    0.2980989     0.144543  52.95  0.001172597    2.610    0.617
        96  -8.7238    105.0833    133.7887   9.2840189817e+01   3.4207961609e+01    0.2359274    0.2092354 -63.16  0.000355019    1.105    0.095
        97  -8.7190    116.5166    133.0256   8.9530021151e+01   3.2279884806e+01    0.2391151     0.149555 -53.78  0.001022915    1.586    0.369
        98  -8.4811    111.3649    132.5305   9.0822912029e+01   3.3364899084e+01    0.3131882    0.2454826 -65.14  0.001515331    1.337    0.252
        99  -8.3754     21.6181    133.2898   1.1651406027e+02   4.5157532800e+01    0.1324116   0.08317462  66.42 0.0007016046    1.745    0.427
       100  -8.3595     72.8688    131.8955   1.0162528402e+02   3.9849018802e+01    0.3605915    0.1983092  73.06  0.001246407    3.536    0.717
       101  -8.1498     10.5036    132.0690   1.1941022999e+02   4.6282294192e+01    0.2001379    0.1592579 -33.96 0.0006064028    1.531    0.347
       102  -8.5792     66.3964    130.1608   1.0318197316e+02   4.1169040985e+01    0.2023972    0.1279409 -72.77 0.0009415903    1.629    0.386
       103  -8.3894    139.9775    129.0931   8.2417790249e+01   2.8484219651e+01    0.2240923     0.219676 -26.95  0.001183438    1.008    0.008
       104  -8.8861    125.5777    127.4287   8.5765735016e+01   3.1818087166e+01    0.3477615    0.2523212 -85.90  0.001463854    2.011    0.503
       105  -8.7187    120.1988    128.1639   8.7390698066e+01   3.2711896613e+01    0.2083174    0.1817241  87.87 0.0003719588    1.309    0.236
       106  -7.9181     89.5806    124.5684   9.5212636639e+01   3.9098054905e+01    0.2954626    0.2068762  81.29 0.0007966281    2.027    0.507
       107  -7.4462    164.1454    124.4067   7.5377059860e+01   2.4287643559e+01    0.2007174    0.1508601  59.43 0.0002106823    1.507    0.336
       108  -7.1308    131.7292    121.3439   8.2621948064e+01   3.1954198139e+01    0.1571543    0.1248968 -82.24 0.0004428007    1.614    0.380
       109  -7.8477     65.0362    121.1712   1.0183548879e+02   4.3571323941e+01    0.2487835    0.1800083  53.47 0.0007835483    1.568    0.362
       110  -7.7013     13.5748    121.2582   1.1729612213e+02   4.8666738290e+01    0.1726635   0.09204902 -61.89 0.0003050586    1.491    0.329
       111  -8.2259    104.2755    120.2616   8.9935512919e+01   3.7589094800e+01    0.2280701    0.2075749  53.04 0.0002862616    1.158    0.136
       112  -7.4004      6.3391    119.7414   1.1919450265e+02   4.9498227170e+01    0.1828041   0.08441025 -65.00 0.0006685095    1.644    0.392
       113  -7.6068     66.4252    116.5279   1.0044867550e+02   4.4526528604e+01    0.1433066    0.1283986 -61.90 0.0001138377    1.025    0.024
       114  -7.5816    168.4916    113.9932   7.1711808385e+01   2.5475378993e+01    0.2158037    0.1332688 -62.90 0.0008060699    2.304    0.566
       115  -9.7239    109.8739    111.8487   8.6210458661e+01   3.8514152028e+01    0.3820686    0.2914661  72.90  0.001742824    1.729    0.422
       116 -10.4732    121.7365    231.9973   1.0524839169e+02   9.9677422550e+00     0.432526    0.2365714  28.47  0.002121829    2.022    0.505
       117  -7.9571     42.9471    110.3238   1.0660664755e+02   4.8833396157e+01    0.2582903    0.1391693 -50.60 0.0007438666    1.621    0.383
       118  -6.9644    196.2912    107.3060   6.4200686161e+01   2.0469329071e+01    0.1501052    0.1187609   4.27 0.0002929121    1.576    0.365
       119  -8.4188    249.5174    106.5147   5.5231334748e+01   9.4226584413e+00    0.1373593    0.1179108 -36.36 3.677376e-05    1.003    0.003
       120  -8.0355    135.6732    106.2787   7.7605771713e+01   3.4453930394e+01    0.2889127    0.1397125  43.17  0.001062186    2.120    0.528
       121  -8.2525     69.0551    103.7217   9.6721533363e+01   4.7265328638e+01    0.1947508     0.188235 -10.65 0.0006328726    1.107    0.097
       122  -7.5831     21.6607    100.6617   1.1178537167e+02   5.3043014396e+01    0.1394912   0.07726555 -41.84 0.0007050687    1.761    0.432
       123  -8.5746     35.2246     97.6165   1.0667161225e+02   5.2650415821e+01    0.3717357    0.1726158  52.86   0.00115037    3.427    0.708
       124  -7.6512     88.6870     97.0258   8.8664769031e+01   4.5779261923e+01    0.2056093    0.1767517 -42.46  0.000247029    1.086    0.079
       125  -7.5919     91.1156     93.1590   8.6816019114e+01   4.6234730913e+01    0.1967758    0.1777611  88.62 0.0003808449    1.320    0.243
       126  -7.4998     93.5149     89.4266   8.4979767093e+01   4.6636993335e+01     0.148097    0.1402333 -27.28    6.542e-05    1.016    0.016
       127  -7.1442    112.6976     88.2950   7.8792950222e+01   4.3181542465e+01    0.1485214    0.1235991 -86.79 0.0004806339    1.576    0.366
       128  -7.2123     75.7400     88.3521   9.0496347598e+01   4.9852809846e+01    0.1398598     0.113228 -82.40 0.0002355189    1.611    0.379
       129  -7.1919     38.6784     83.2711   1.0228869720e+02   5.5686153022e+01    0.1220933    0.1005682  73.68 0.0002159537    1.569    0.363
       130  -7.5504    199.0311     81.9876   5.7120675351e+01   2.4381498623e+01     0.231015    0.1793541   2.52   0.00110142    1.709    0.415
       131  -7.7242    103.7163     81.5858   7.9427800455e+01   4.6387111526e+01    0.2853507    0.1447008  37.28 0.0009697127    2.100    0.524
       132  -7.9688     80.6657     78.0505   8.5781612277e+01   5.1319482739e+01    0.3112245    0.1869944   4.53  0.001183468    2.911    0.656
       133  -8.4039     85.8576     70.3267   8.1553196067e+01   5.2023986322e+01       0.2199    0.1887264 -46.90 0.0003279101    1.214    0.176
       134  -7.3198     52.7723     69.0471   9.3107833477e+01   5.7284642351e+01     0.174527    0.1011582 -50.37 0.0002005021    1.554    0.356
       135  -7.8592    119.0855     65.8652   6.9844357858e+01   4.6212337185e+01    0.2113488    0.1974202 -68.24  0.000305039    1.225    0.184
       136  -7.4896     58.0805     65.2174   8.9875768729e+01   5.7399943959e+01     0.164362     0.109729  25.44 0.0004951332    1.614    0.380
       137  -7.0338     67.0535     61.0000   8.5079176151e+01   5.6964764322e+01    0.1988515   0.07762533  35.72            0    2.712    0.631
       138  -9.2422     44.8288     57.7004   9.2675202942e+01   6.0586784516e+01    0.2245063     0.188637 -32.82 0.0002805217    1.041    0.039
       139 -10.3986    188.0120     51.4521   5.0666641456e+01   3.1886294689e+01    0.4536585    0.3564084  31.20  0.002342959    1.542    0.351
       140  -7.3724     25.6786     53.2725   9.9370265699e+01   6.3389745824e+01     0.107647   0.09711847  73.73 0.0002072557    1.571    0.364
       141  -8.9950    243.8347    245.2348   8.3808732526e+01  -1.0393409830e+01    0.1697617    0.1364106 -13.98 0.0003054827    1.311    0.237
       142 -10.9709    190.3544     44.2296   4.8315869779e+01   3.2329721168e+01    0.5014582    0.3773007  58.88  0.001389827    1.315    0.240
       143  -8.2137     74.5433    236.8120   1.1517830371e+02   1.5945896984e+01    0.2570416    0.1079461 -64.50  0.001285901    2.534    0.605
       144  -7.6840    235.1895     12.8239   3.5592026536e+01   2.5717548770e+01    0.1542266     0.132184  65.35 0.0002335733    1.338    0.253
       145  -8.4877     77.5864    234.8205   1.1440418803e+02   1.5911795974e+01     0.260028    0.1348907  49.52 0.0008641083    1.606    0.377
       146 -10.1716     89.6968    233.4385   1.1187843797e+02   1.4487936569e+01    0.4114768    0.3153906  -5.55   0.00236172    2.260    0.558
