#   1 NUMBER                 Running object number                                     
#   2 MAG_AUTO               Kron-like elliptical aperture magnitude                    [mag]
#   3 X_IMAGE                Object position along x                                    [pixel]
#   4 Y_IMAGE                Object position along y                                    [pixel]
#   5 X_WORLD                Barycenter position along world x axis                     [deg]
#   6 Y_WORLD                Barycenter position along world y axis                     [deg]
#   7 A_WORLD                Profile RMS along major axis (world units)                 [deg]
#   8 B_WORLD                Profile RMS along minor axis (world units)                 [deg]
#   9 THETA_WORLD            Position angle (CCW/world-x)                               [deg]
#  10 FWHM_WORLD             FWHM assuming a gaussian core                              [deg]
#  11 ELONGATION             A_IMAGE/B_IMAGE                                           
#  12 ELLIPTICITY            1 - B_IMAGE/A_IMAGE                                       
         1 -13.5678      3.2116    138.0753   1.2188515056e+02   4.5297451239e+01     7.266267     0.770658 -75.90   0.01569373   10.072    0.901
         2 -11.4245    212.5948     32.3305   4.2142323532e+01   2.8522901413e+01    0.8171477    0.4460522 -33.53  0.004012308    1.813    0.448
         3 -11.6948    220.0535     27.2503   4.0104937739e+01   2.7420130441e+01    0.8361328    0.5514401  -7.05  0.002759088    2.340    0.573
         4 -11.6314    234.8691     12.1157   3.5310274541e+01   2.5851736232e+01    0.6733645    0.5122715 -61.61  0.002671484    1.117    0.105
         5  -9.6531      1.9498      7.6943   9.4585109512e+01   7.3346922189e+01     0.555321    0.1191632 -50.58  0.002166872    4.289    0.767
         6  -9.9149     72.0462    248.4792   1.1651743125e+02   1.4213115961e+01     0.322728    0.1882053  52.64  0.001501359    1.381    0.276
         7  -9.1457     83.4625    249.9931   1.1450808824e+02   1.2426042002e+01     0.189822      0.13002  46.99  0.001170492    1.180    0.153
         8  -9.5760     65.1081    250.3032   1.1794404888e+02   1.4779529231e+01    0.4236855    0.1630505  28.35  0.001743305    3.945    0.746
         9  -8.7189     29.0415    245.9849   1.2410301559e+02   1.9799440993e+01    0.2690508    0.1028582  67.49  0.001348973    2.643    0.622
        10  -9.8045     32.6657    249.0002   1.2364409167e+02   1.8857138713e+01    0.2368857    0.1738566 -71.21  0.001126521    1.556    0.357
        11 -11.3035     12.5503    242.0869   1.2673173583e+02   2.2213593042e+01    0.6624553    0.3652476 -81.89  0.004509611    1.636    0.389
        12 -12.7789      4.6697    240.8899   1.2800224215e+02   2.3190045312e+01     1.866038    0.7231767 -77.35   0.01095839    2.301    0.565
        13 -11.1146     17.3438    217.7265   1.2460228966e+02   2.6444782847e+01    0.3406133    0.3069657  77.29  0.002050373    1.291    0.225
        14 -12.7222      9.7602    207.8853   1.2547108370e+02   2.9168713733e+01     0.865949    0.7196707  73.67  0.003949426    1.152    0.132
        15  -8.3438    104.6757    245.6969   1.1002521116e+02   1.0202715307e+01    0.1109557   0.09197625   7.68 0.0004228163    1.638    0.390
        16  -8.9385     83.3764    245.1912   1.1409287416e+02   1.3291947424e+01    0.1530266    0.1024044 -89.98 0.0009406009    1.648    0.393
        17  -9.0331     21.6012    240.1661   1.2508129798e+02   2.1658659728e+01    0.2386246    0.1085678  75.53  0.001354262    2.042    0.510
        18 -10.0052     41.0776    235.6180   1.2130929483e+02   2.0402380045e+01    0.2296643     0.156651  81.63 0.0003897639    1.274    0.215
        19  -8.0235     61.9218    235.5199   1.1736994885e+02   1.7911701981e+01    0.1672193     0.100383  40.44 0.0006352942    1.499    0.333
        20 -11.4694    128.1318    230.3761   1.0351338786e+02   9.3713287548e+00     0.501571    0.3750101 -72.32   0.00298093    1.655    0.396
        21  -9.6280     88.5214    227.7200   1.1135784896e+02   1.5838165797e+01     0.290396     0.200284 -89.15 0.0005740845    1.600    0.375
        22 -10.5189    119.9412    230.8279   1.0525906044e+02   1.0568027772e+01    0.2445398    0.2234616 -47.61  0.001083788    1.301    0.232
        23 -10.7104    122.0797    225.3953   1.0412154535e+02   1.1234227943e+01    0.4441788    0.3182778  24.72  0.002512376    1.517    0.341
        24  -9.8592    113.9271    230.2723   1.0642901279e+02   1.1595497936e+01     0.246944    0.1713367  23.74  0.001379814    1.655    0.396
        25  -8.7355     26.8382    230.0841   1.2357634967e+02   2.3032775482e+01    0.1799605    0.1109406  63.39 0.0005007604    1.289    0.224
        26  -9.8991     83.7752    226.7756   1.1222887794e+02   1.6691346525e+01    0.3975871     0.199418 -61.91  0.001902854    2.143    0.533
        27  -8.8724     91.1377    232.8945   1.1137010534e+02   1.4476586424e+01    0.2217186     0.164992  83.76 0.0007109781    1.414    0.293
        28  -9.0850    163.6235    227.2428   9.5766501423e+01   4.2084693454e+00    0.1692446    0.1186229 -30.36 0.0009445593    1.668    0.400
        29  -9.1658     37.8408    230.6136   1.2157323989e+02   2.1734252393e+01    0.1900162    0.1472354  84.09 0.0003634761    1.141    0.123
        30  -8.5045    101.4618    227.5282   1.0867630308e+02   1.3991920014e+01    0.1254603    0.1086683  51.70 4.156772e-05    1.044    0.042
        31  -9.4904     30.4039    218.7918   1.2218559520e+02   2.4898409735e+01    0.2819359    0.1217686  76.49  0.001350201    2.538    0.606
        32 -12.3286     18.5940    170.4160   1.2100191315e+02   3.6583346178e+01     2.961017    0.9901949  75.64  0.008017745    7.406    0.865
        33  -9.7916    128.1927    248.5525   1.0574770348e+02   6.2372370083e+00     0.268282    0.1465117 -55.57  0.001476173    2.235    0.553
        34 -11.3767      7.6972    187.2080   1.2462920721e+02   3.3746862318e+01    0.5098875    0.2792076  82.68  0.001818557    1.559    0.359
        35 -11.2739     27.2064    209.7579   1.2219025956e+02   2.7093038070e+01    0.3834837    0.3038294 -56.09 0.0008830102    1.592    0.372
        36 -12.9498     37.4451    199.7269   1.1932789623e+02   2.8146247535e+01     1.762506     1.093859  57.12  0.009636649    1.432    0.302
        37  -8.0800    101.6796    171.3455   1.0079716904e+02   2.5911740990e+01    0.1520668    0.1068752  73.52 0.0007049547    1.730    0.422
        38  -9.4575     12.4119    170.8245   1.2244308921e+02   3.7014471787e+01    0.1946417    0.1375279  56.37  0.000530868    1.359    0.264
        39  -9.6375     73.0696    165.2532   1.0707422393e+02   3.1690210957e+01    0.2816365    0.2357149 -54.77 0.0004566236    1.233    0.189
        40 -10.9167     80.8948    158.7864   1.0403751378e+02   3.2127287071e+01    0.6398991    0.5212647 -54.93   0.00163717    1.222    0.182
        41 -11.5466     59.7831    161.6968   1.0996943096e+02   3.4298019026e+01    0.5028141    0.2897735 -44.47  0.001413602    2.039    0.510
        42  -8.6049     32.7584    155.2213   1.1607308022e+02   3.8855751167e+01    0.2160538   0.07207537 -59.72 0.0008881752    2.487    0.598
        43 -11.1989     68.3724    144.2802   1.0500070193e+02   3.7431685720e+01    0.6881161    0.4770963  80.58  0.002473249    1.713    0.416
        44 -10.3410     83.6514    142.6436   1.0045033377e+02   3.5641964062e+01    0.3310379    0.2369887 -56.04 0.0004556988    1.319    0.242
        45  -9.0544     96.3584    143.4016   9.7077150785e+01   3.3433860300e+01    0.4248332    0.3222905  -0.67  0.002004918    1.827    0.453
        46 -10.1214     59.5969    136.4463   1.0614619497e+02   4.0498895593e+01    0.5228144     0.271506 -82.04  0.002071687    2.605    0.616
        47  -7.5750    127.6884    132.3395   8.6142367645e+01   3.0312878536e+01    0.1589786    0.1245982  86.88 0.0005369248    1.693    0.409
        48  -8.6971    106.9154    131.9966   9.1722930030e+01   3.4346811096e+01    0.3368917    0.2164803  44.57  0.001224443    1.609    0.378
        49  -8.9002     94.9862    128.3350   9.4294315380e+01   3.7309688697e+01    0.2802962    0.2099869 -40.62  0.001138166    1.359    0.264
        50  -7.8826    105.5604    120.2478   8.9359257038e+01   3.7380636727e+01    0.2048963    0.1401188 -39.84 0.0003412413    1.484    0.326
        51 -11.3355      1.8100    182.1704   1.2553452774e+02   3.5324325627e+01    0.8506702    0.1370577 -77.31  0.002807976    5.029    0.801
        52  -7.8446    205.2040    110.0698   6.2930598684e+01   1.8048042066e+01    0.2051069    0.1132582 -36.21 0.0008288518    1.715    0.417
        53  -8.5417     33.0000    110.0130   1.0964561529e+02   4.9827262626e+01    0.2257173   0.06483938 -65.22 0.0008011375    2.933    0.659
        54  -8.8282    134.5872    102.9398   7.6730716682e+01   3.5426696959e+01    0.4563586    0.1508905 -42.81  0.001403609    2.984    0.665
        55  -8.6261    163.5977     81.2109   6.3503120023e+01   3.3010680214e+01    0.2215556    0.1479777 -24.44 0.0008948669    1.699    0.411
        56  -8.2356    134.5172     73.5005   6.8018385080e+01   4.1303784536e+01    0.1528384    0.1462452  11.44 0.0008102867    1.028    0.027
        57  -8.6509    134.5210     60.4752   6.3846056503e+01   4.3572381120e+01     0.150844    0.1407145  21.92  9.31286e-05    1.056    0.053
        58  -9.8570     56.8902    181.0779   1.1313439582e+02   3.0078003931e+01    0.3980788    0.2541514 -39.26  0.002010551    2.176    0.540
        59  -8.5069    128.0000     54.0008   6.3321134648e+01   4.6146113330e+01    0.2357059    0.0838799 -33.82 0.0007947425    2.889    0.654
        60  -8.0085     32.1943     54.3882   9.6882908447e+01   6.2502969060e+01     0.160725    0.1135572  32.99  0.000739133    1.693    0.409
        61  -9.9275     62.6906    175.3327   1.1104829076e+02   3.0685420251e+01     0.304174    0.2489888 -32.70 0.0008399139    1.589    0.371
        62 -11.4054    206.6889     37.5215   4.4144377258e+01   2.9255337781e+01    0.5051792    0.4526586  88.05  0.002174286    1.059    0.056
        63 -10.0301    114.3770    245.5884   1.0811566029e+02   8.7995281589e+00     0.401998    0.1724155 -56.80  0.001976982    2.753    0.637
        64  -8.8511     99.0156    249.0089   1.1145777611e+02   1.0439045750e+01    0.1983059    0.1177969  61.53  0.001127892    1.711    0.416
        65  -8.9185    132.5385     39.5673   5.7313003675e+01   4.7188810836e+01    0.2636892     0.241269  87.18 0.0007474051    1.220    0.180
        66  -9.1820      2.0377     22.0438   1.0046549971e+02   7.0915376558e+01    0.2328913    0.1252051 -58.08  0.001249076    1.900    0.474
        67  -8.8133     92.7975    249.8219   1.1272523553e+02   1.1172824360e+01    0.2647645   0.08487266  32.56  0.001020931    3.556    0.719
