#   1 NUMBER                 Running object number                                     
#   2 MAG_AUTO               Kron-like elliptical aperture magnitude                    [mag]
#   3 X_IMAGE                Object position along x                                    [pixel]
#   4 Y_IMAGE                Object position along y                                    [pixel]
#   5 X_WORLD                Barycenter position along world x axis                     [deg]
#   6 Y_WORLD                Barycenter position along world y axis                     [deg]
#   7 A_WORLD                Profile RMS along major axis (world units)                 [deg]
#   8 B_WORLD                Profile RMS along minor axis (world units)                 [deg]
#   9 THETA_WORLD            Position angle (CCW/world-x)                               [deg]
#  10 FWHM_WORLD             FWHM assuming a gaussian core                              [deg]
#  11 ELONGATION             A_IMAGE/B_IMAGE                                           
#  12 ELLIPTICITY            1 - B_IMAGE/A_IMAGE                                       
         1 -13.5866    168.0386     56.8492   6.4596573199e+01   3.5565467333e+01     2.470018     1.421977  21.17  0.007168251    2.649    0.622
         2 -13.0103    182.4559     41.5321   5.7356220197e+01   3.4024589545e+01    0.8893079    0.7039231 -42.20  0.002501145    1.247    0.198
         3 -12.8285    187.4811     34.8795   5.4559385513e+01   3.3561451413e+01     0.671268    0.5905331  -5.53  0.001472566    1.150    0.130
         4 -11.4833    190.5108     15.0563   4.7964933792e+01   3.4886338241e+01    0.5385866    0.3001939  67.73  0.002490533    1.806    0.446
         5 -12.3706    198.6573     23.2092   4.9622830963e+01   3.2047815104e+01    0.4959979    0.4195093   9.62  0.002098216    1.277    0.217
         6 -13.8613    204.3170     10.0581   4.5139940299e+01   3.1914041406e+01     1.126635    0.9900034  -9.45  0.003659187    1.168    0.144
         7 -12.6605    230.0510      2.7623   4.1213053155e+01   2.6498789703e+01     1.195123    0.4662461  75.07  0.005220856    2.714    0.631
         8 -11.5010    150.2981    188.6160   9.9084685756e+01   1.7360189628e+01    0.3065442    0.2538331  74.33  0.001971476    1.659    0.397
         9 -13.4067    246.2068    240.3401   9.0359226460e+01  -1.8503118479e+00     1.265147    0.5778078 -18.62  0.008392589    2.288    0.563
        10 -17.9876     44.5418    239.0299   1.2417403921e+02   2.3245660536e+01     5.978579     4.977315  42.35   0.04982081    1.285    0.222
        11 -19.1065     30.8277    100.9540   1.1598459540e+02   5.2015344597e+01     16.66608    0.9246465 -69.70   0.02812052   15.196    0.934
        12 -10.1698    239.0000    186.9494   8.3174200615e+01   3.9640760841e+00    0.1763486   0.05760384 -28.87 0.0002097102    3.026    0.670
        13 -10.0660    153.5577    184.2720   9.7778476038e+01   1.7503142355e+01     0.207948    0.1225229 -50.76  0.001128027    2.127    0.530
        14 -12.2497    145.4831    181.7222   9.8996430049e+01   1.9183191656e+01    0.4009722    0.3071513 -69.55  0.001876961    1.850    0.459
        15 -12.4344    142.2931    174.9574   9.8586511533e+01   2.0783310314e+01    0.4929335    0.4431815  -0.50  0.003283817    1.187    0.157
        16 -11.0264    188.8302    176.6760   8.9796870848e+01   1.2883649374e+01    0.5773476    0.3376879 -50.78  0.002289745    2.638    0.621
        17  -9.2683     69.2489    173.1339   1.1440087409e+02   3.1827664099e+01     0.186146    0.1362557  64.14  0.000577962    1.264    0.209
        18  -9.5093     65.9066    171.1969   1.1496117027e+02   3.2621457937e+01    0.3231693    0.1199444  41.81  0.001515619    2.252    0.556
        19  -9.9097    240.4680    169.4886   7.9812688003e+01   5.6029020333e+00    0.1194822   0.09235597   6.23 -5.229397e-06    1.012    0.012
        20 -11.8460     71.6931    209.1046   1.1722404881e+02   2.5012189237e+01    0.4464045     0.265873  20.11  0.002605517    2.259    0.557
        21  -9.4225    116.6000    161.8983   1.0206740558e+02   2.7220950390e+01    0.2860127    0.1655444  41.45  0.001472734    1.554    0.357
        22 -11.1824     95.5948    156.8772   1.0618026075e+02   3.1436135350e+01    0.2500931    0.2376163  32.93 0.0003884849    1.133    0.117
        23 -12.1280    100.6994    150.5528   1.0397615895e+02   3.1921820950e+01    0.5424795    0.4504136 -21.10  0.003201403    1.532    0.347
        24 -11.0124    133.7722    145.7140   9.5325192812e+01   2.7335476358e+01     1.038177    0.2661615 -53.26  0.002774201    6.399    0.844
        25  -9.8699    113.6204    151.8029   1.0109729901e+02   2.9616463577e+01     0.324072    0.2142409  76.31  0.001266253    2.298    0.565
        26  -9.9403    174.7694    148.8854   8.7234152941e+01   1.9358051427e+01    0.2304023    0.1874768 -54.82 0.0008430996    1.594    0.373
        27  -9.6381    160.5197    205.4844   9.9570171389e+01   1.3393772455e+01    0.1177071   0.09391555  28.28 8.742806e-05    1.014    0.014
        28 -12.8085     12.0094    205.9872   1.2864520039e+02   3.1669188985e+01      0.42878     0.151928  37.93   0.00255369    2.105    0.525
        29 -11.2113    110.3301    137.2587   9.9294441400e+01   3.3044160470e+01      0.47548    0.2865339 -33.08  0.002174849    2.227    0.551
        30 -11.8271     99.2905    136.5499   1.0194457369e+02   3.5009079512e+01     0.275533    0.2659803  -9.92  0.001724542    1.157    0.136
        31 -11.0744    105.9565    130.8565   9.9172380309e+01   3.5096006311e+01    0.3567627     0.306284 -71.09  0.001156315    1.234    0.190
        32 -11.0067    192.5621    194.4509   9.2109509039e+01   9.9944061855e+00    0.7448732     0.431223 -59.57  0.002974565    5.610    0.822
        33 -10.3929    116.5639    128.6412   9.6039671901e+01   3.3709086205e+01    0.2892824    0.2412115 -19.50  0.000809873    1.411    0.292
        34 -10.4842    104.7433    124.0907   9.8134363059e+01   3.6717650804e+01    0.2669955    0.2269445 -25.73 0.0006866057    1.359    0.264
        35  -9.9940    160.3824    127.3843   8.5587042195e+01   2.5631066010e+01    0.3180886    0.2434353 -55.39  0.001554051    1.591    0.371
        36  -9.5310    135.0000    119.9831   8.9622588502e+01   3.1977952181e+01    0.2322536   0.08109459 -44.37 0.0008015629    2.936    0.659
        37  -9.4668    111.5317    118.0047   9.5053495568e+01   3.6796897592e+01    0.2084743    0.1828519  41.55 0.0008400371    1.125    0.111
        38  -9.8898    231.2337    113.8215   6.9635685670e+01   1.3768104545e+01    0.2298456    0.1911146  15.51 0.0008040206    1.131    0.116
        39 -10.0671    168.0998    112.9904   8.0555251034e+01   2.6526559326e+01     0.338141    0.2721287 -69.10  0.001351824    1.708    0.415
        40 -11.0740    118.6053    110.0529   9.1366266286e+01   3.7122894759e+01    0.5732804    0.2992062  58.24  0.002193496    2.651    0.623
        41  -9.7208    205.5959    110.1196   7.2822423212e+01   1.9235273323e+01    0.2550192    0.1895032  35.46 0.0006674706    1.336    0.251
        42 -10.3548    134.5211    104.5188   8.5964276685e+01   3.5059973167e+01    0.4740489    0.1431954 -42.48  0.001506212    3.324    0.699
        43  -9.5348     75.6150    104.1547   1.0220776350e+02   4.5830536335e+01    0.1998241    0.1183733 -47.65 0.0006258414    1.696    0.410
        44  -9.8741     63.9932     99.1862   1.0480558978e+02   4.8647667921e+01    0.2527565    0.1816469  58.30 0.0009673205    1.525    0.344
        45  -9.7202    128.5195     95.4909   8.5064164058e+01   3.8061353237e+01    0.2943386    0.1453646  46.55 0.0008768393    2.040    0.510
        46  -9.2555    167.5488    228.9364   1.0139051870e+02   9.4278493001e+00    0.1317242    0.1065745 -30.63 0.0005679295    1.543    0.352
        47 -11.5270    150.8900    195.9859   1.0004900962e+02   1.6175559386e+01    0.3163921     0.237918  40.68  0.002078977    1.168    0.144
        48 -10.3118     81.7498    195.8159   1.1399863645e+02   2.6048314922e+01    0.2862316    0.2451811 -25.15  0.001254492    1.629    0.386
        49  -9.6813     13.6938     59.9587   1.1565908396e+02   6.3202038898e+01    0.1845404    0.1765374 -58.61 0.0004552278    1.159    0.137
        50 -10.7442     18.3555    219.2871   1.2796399310e+02   2.8863309273e+01   0.08113895   0.07624754 -15.34 0.0007023478    1.674    0.403
        51 -11.8014     68.2984    194.1604   1.1664519970e+02   2.8007314489e+01     0.316929    0.2344336 -42.33  0.001271632    1.881    0.468
        52  -9.9804    156.7770    189.8994   9.8013945972e+01   1.6156775833e+01    0.1764573    0.1440672  15.85 0.0003384011    1.177    0.151
