#   1 NUMBER                 Running object number                                     
#   2 MAG_AUTO               Kron-like elliptical aperture magnitude                    [mag]
#   3 X_IMAGE                Object position along x                                    [pixel]
#   4 Y_IMAGE                Object position along y                                    [pixel]
#   5 X_WORLD                Barycenter position along world x axis                     [deg]
#   6 Y_WORLD                Barycenter position along world y axis                     [deg]
#   7 A_WORLD                Profile RMS along major axis (world units)                 [deg]
#   8 B_WORLD                Profile RMS along minor axis (world units)                 [deg]
#   9 THETA_WORLD            Position angle (CCW/world-x)                               [deg]
#  10 FWHM_WORLD             FWHM assuming a gaussian core                              [deg]
#  11 ELONGATION             A_IMAGE/B_IMAGE                                           
#  12 ELLIPTICITY            1 - B_IMAGE/A_IMAGE                                       
         1 -12.6577    229.1129     49.2093   1.0920318348e+01   2.2814005581e+01     1.165424    0.7116874 -25.91  0.005839156    2.231    0.552
         2 -13.0345    237.8134     45.7098   9.2878921134e+00   2.1464501383e+01      1.41343    0.8494288  45.42  0.001629552    2.547    0.607
         3 -13.5355     67.7280    144.5384   6.9949071205e+01   3.7903897813e+01     3.212433     1.586064 -87.96  0.007449975    4.288    0.767
         4 -10.8493      2.4045      4.9438   5.6792014677e+01   7.3896083529e+01     0.545146    0.1609774 -42.68   0.00271515    2.905    0.656
         5  -9.8890    127.4773    230.9783   6.8577642148e+01   8.0286319416e+00    0.4012788    0.1402492 -59.24  0.001485109    3.601    0.722
         6  -8.7195     72.2906    250.0036   8.2258532729e+01   1.2736596810e+01    0.2198928    0.1057622 -77.85  0.001078422    2.431    0.589
         7  -8.0776     49.0000    250.0202   8.6814505887e+01   1.5847909346e+01    0.1760124   0.06238166 -72.44 0.0007970863    2.905    0.656
         8 -11.6700     29.3303    248.4934   9.0429389042e+01   1.8549268959e+01     1.347451    0.4223365  39.86 0.0005851891    2.522    0.603
         9 -12.1041     42.1058    165.8187   8.0277332372e+01   3.5838392211e+01    0.7734648    0.6368065 -12.98   0.00151388    1.698    0.411
        10 -11.0403     49.4752    161.0586   7.7687106135e+01   3.6150956194e+01    0.3384159     0.279511 -35.50 0.0007179559    1.493    0.330
        11 -14.8219      5.9606    221.5492   9.3288814829e+01   2.6624188449e+01     4.432261     2.658722  23.80   0.02209485    2.283    0.562
        12 -13.6470      9.9082    206.7819   9.1610355415e+01   2.9471511492e+01     2.796945     1.368758  15.13   0.01269048    3.826    0.739
        13 -12.7948      7.0809    187.7967   9.0922985335e+01   3.4069392192e+01    0.6741771    0.4840537 -55.99 0.0008015791    1.599    0.374
        14 -15.3575     18.1634    180.6645   8.7816947829e+01   3.4729729427e+01     7.620001     2.237872 -82.86   0.02574621    3.995    0.750
        15 -10.7358     72.0225    198.3945   7.6872562161e+01   2.3920763357e+01    0.4282944    0.2731521  85.46  0.001200037    1.707    0.414
        16  -8.8703     79.3230    198.3140   7.5122072238e+01   2.2855272127e+01    0.1322194    0.1103516 -27.15 0.0007040882    1.660    0.397
        17 -10.2623    103.3300    194.4606   6.8796611681e+01   1.9909425057e+01    0.3682911    0.2373974 -82.15  0.001673039    1.897    0.473
        18  -8.7603     83.2916    195.6582   7.3814587106e+01   2.2873503776e+01    0.1495658   0.09858855  71.69 0.0004315971    1.652    0.395
        19  -9.2951     99.0059    188.7069   6.8963961257e+01   2.1986795235e+01    0.2239833    0.2061243 -84.64 0.0005394346    1.073    0.068
        20  -9.4274     97.5953    184.7066   6.8685852099e+01   2.3176672046e+01     0.366631    0.2265626 -76.69 0.0009164585    1.878    0.468
        21  -8.9002     98.8420    181.3585   6.7835415310e+01   2.3771355550e+01    0.2523473    0.2162067 -64.55  0.001258404    1.175    0.149
        22  -7.8407    120.3379    180.2968   6.2287145544e+01   2.0226720169e+01    0.1476693    0.1204144  -8.16  0.000361367    1.655    0.396
        23  -9.3750     65.1852    177.2416   7.5790339739e+01   3.0022375177e+01    0.3456848     0.216698  89.19  0.001354248    1.753    0.430
        24  -9.5900     75.5319    173.3365   7.2550157553e+01   2.9484233066e+01    0.2957909    0.2252177  87.88 0.0005430751    1.320    0.242
        25  -8.4438     63.4688    171.4476   7.5423908063e+01   3.1703735910e+01    0.2388076    0.1291471 -80.28 0.0007302666    2.048    0.512
        26  -9.6899     98.1009    170.8334   6.6254073836e+01   2.6460341722e+01    0.2413664    0.1937988  73.65 0.0009518151    1.289    0.224
        27  -8.7751    110.3376    167.5357   6.2485613596e+01   2.5102487506e+01    0.2508759    0.1786901 -71.94 0.0005592682    1.524    0.344
        28 -12.1685    235.2209    160.3680   3.3879646973e+01   2.6812041123e+00    0.8716604    0.5472031 -23.63  0.004339826    1.760    0.432
        29 -12.5042     47.3976    148.4619   7.6445677031e+01   3.9587460481e+01    0.5991065    0.4141898  -0.63  0.001262701    2.191    0.543
        30  -8.0675    174.5184    149.4950   4.3200829939e+01   1.6432869242e+01    0.1506117    0.1470376 -46.93 -4.449912e-05    1.003    0.003
        31  -9.8805     88.9587    136.9801   6.2299499771e+01   3.6468959783e+01    0.3138471    0.2781225 -14.09 0.0009390343    1.350    0.259
        32  -8.7500     92.4894    134.5077   6.0747804524e+01   3.6474054999e+01    0.2566031    0.2009068   2.82 0.0006927909    1.736    0.424
        33 -11.4334     75.6072    134.3481   6.5689420234e+01   3.9301765545e+01    0.4113977    0.3821307 -64.07 0.0006495576    1.036    0.035
        34 -10.1321    109.2915    229.2250   7.2285039527e+01   1.1332311102e+01    0.2504073    0.1815677  45.46  0.001401466    1.199    0.166
        35  -9.6946    104.3207    129.0475   5.6115785195e+01   3.5656920086e+01    0.4497178    0.3567224 -75.69   0.00195357    1.383    0.277
        36 -10.0206     89.4986    123.2645   5.9118530234e+01   3.9764591809e+01    0.2885455    0.2672815  20.14 0.0005607216    1.184    0.155
        37  -8.7906    102.3546    117.0177   5.3799725236e+01   3.8915042928e+01      0.21222    0.1846582 -56.44 0.0007315527    1.122    0.109
        38 -11.9335     18.7335    112.7776   7.9660724485e+01   5.1308527806e+01    0.5437948    0.4033812  80.98  0.002422082    1.475    0.322
        39  -9.0063    204.9366    110.6918   2.8288351265e+01   1.7797490445e+01    0.3013529    0.2302087  44.07  0.001451753    1.478    0.323
        40  -9.7636     24.4911    110.9896   7.7469959738e+01   5.1270496702e+01    0.2182956    0.1708509  54.49 0.0003752617    1.467    0.318
        41 -10.0796     40.0261    107.9153   7.1672493197e+01   5.0522312865e+01    0.3304084    0.2348412 -83.55 0.0007181119    1.584    0.369
        42 -10.6733     62.2092    153.3326   7.3020228197e+01   3.6447378222e+01    0.3514581     0.313451  77.20 0.0004174204    1.079    0.073
        43  -8.2926    143.9671     84.7143   3.3908019683e+01   3.6879446190e+01    0.2769381    0.1579314 -72.07 0.0008938558    3.473    0.712
        44 -11.6210    211.7219     61.6806   1.5779027005e+01   2.4794830540e+01     1.448062     0.785467  43.88   0.00631769    2.622    0.619
        45  -9.5350     41.5485    227.4485   8.6566804587e+01   2.1433197734e+01    0.3635816    0.1494117 -89.62  0.001534165    2.952    0.661
        46  -9.9286    142.3712    237.7068   6.6342492404e+01   4.3229398563e+00    0.3568284    0.1330051 -60.77  0.001265784    4.302    0.768
        47  -9.9087     13.3295     60.2233   7.0957616412e+01   6.3532602650e+01    0.2077868    0.1810967 -49.78 0.0004663646    1.152    0.132
        48  -9.8152     99.8865    227.9222   7.4171195910e+01   1.3092546290e+01    0.2665462    0.1633231  45.84 0.0009494411    1.414    0.293
        49 -11.0215     74.6411    220.1180   7.8809537521e+01   1.8590604058e+01     0.630425    0.2238534  51.60  0.002433613    2.783    0.641
        50 -10.6756      8.4814     23.4737   6.1428514017e+01   7.0633593160e+01     0.197341    0.1810698 -12.60 0.0006695906    1.340    0.254
        51 -10.2830      2.4320     21.3530   6.3898292244e+01   7.1420452237e+01     0.214888    0.1208547 -31.69  0.001150932    1.426    0.299
        52  -8.9379    103.6666    201.3299   6.9745730641e+01   1.8273557160e+01    0.1532561    0.1017029  68.87 0.0007052041    1.723    0.420
