#   1 NUMBER                 Running object number                                     
#   2 MAG_AUTO               Kron-like elliptical aperture magnitude                    [mag]
#   3 X_IMAGE                Object position along x                                    [pixel]
#   4 Y_IMAGE                Object position along y                                    [pixel]
#   5 X_WORLD                Barycenter position along world x axis                     [deg]
#   6 Y_WORLD                Barycenter position along world y axis                     [deg]
#   7 A_WORLD                Profile RMS along major axis (world units)                 [deg]
#   8 B_WORLD                Profile RMS along minor axis (world units)                 [deg]
#   9 THETA_WORLD            Position angle (CCW/world-x)                               [deg]
#  10 FWHM_WORLD             FWHM assuming a gaussian core                              [deg]
#  11 ELONGATION             A_IMAGE/B_IMAGE                                           
#  12 ELLIPTICITY            1 - B_IMAGE/A_IMAGE                                       
         1 -10.0795     24.4117     16.7258   1.0358658018e+02   6.8618156616e+01    0.2727129    0.2134435  22.30 0.0007181051    1.427    0.299
         2  -9.7489     63.9438     14.3772   8.7269374312e+01   6.3506717775e+01    0.3520147    0.2024907  25.61 0.0008526301    1.647    0.393
         3  -8.6915     80.2547     13.0593   8.1705889847e+01   6.0783547113e+01    0.2511179    0.2201621  51.44   0.00109033    1.308    0.235
         4  -9.2129     74.5153     13.7109   8.3651399813e+01   6.1761775727e+01    0.3235109    0.2167864  13.32  0.001715639    1.475    0.322
         5  -8.4247    146.7511     14.0806   6.7567039172e+01   4.6486317649e+01    0.2116766    0.1605721  64.85 0.0003853154    1.131    0.116
         6  -9.9364     31.5332     10.9992   9.8019267032e+01   6.8512986567e+01    0.3068885    0.1735564 -11.15   0.00120009    1.723    0.420
         7  -8.7500    134.3676     13.6280   6.9545443267e+01   4.9391657147e+01    0.2614542    0.1441529  36.28  0.001289138    2.021    0.505
         8  -8.8833     97.1836     11.9242   7.6788011171e+01   5.7607049308e+01    0.2643593    0.1547773  51.97 0.0007618247    1.472    0.321
         9  -8.1854    157.7648     11.2023   6.5063546290e+01   4.4176733883e+01    0.2242675      0.11722 -69.69 0.0009446287    2.822    0.646
        10  -8.3887    105.9214     10.8276   7.4346130508e+01   5.5902673868e+01    0.1970183    0.1414602  35.51  0.000477195    1.260    0.207
        11 -10.6897     20.0137      8.8513   1.0212032909e+02   7.0060280184e+01    0.2911908    0.1676134  16.87 0.0004685402    1.586    0.369
        12  -8.3690    128.1595      7.8422   6.8867385715e+01   5.1314513481e+01    0.1740103    0.1297478  37.87 0.0006750616    1.310    0.237
        13  -8.1251     39.5560      8.0499   9.3414771606e+01   6.7815646496e+01    0.1964647    0.1170361  16.51 0.0007098677    1.537    0.349
        14  -8.4356     76.9988      7.0209   8.0262590423e+01   6.1931987480e+01    0.2603682    0.1125778  44.97 0.0009010184    1.899    0.473
        15  -8.9150     56.5550      4.7293   8.5686241030e+01   6.5638853640e+01    0.3239389    0.1755873  13.98   0.00180682    2.026    0.506
        16  -7.7542     84.3232      6.3356   7.7978153232e+01   6.0621905759e+01    0.1290738   0.07393614  27.45 0.0007050794    1.712    0.416
        17  -9.8534     49.0844      4.6937   8.8296478282e+01   6.6796859704e+01    0.2383506    0.1553133  12.85 0.0003772907    1.353    0.261
        18  -8.2410      2.2277      8.0454   1.1027686676e+02   7.1767246912e+01    0.1751969    0.1347631 -17.78  0.001430347    1.189    0.159
        19  -8.9661    110.9147      3.9610   7.0911319624e+01   5.5415598981e+01    0.3125177    0.1763826 -31.84  0.001256749    2.040    0.510
        20  -7.3849     92.3243      5.3076   7.5549119247e+01   5.9148429629e+01    0.1284394   0.07419005  31.41 0.0002874385    1.648    0.393
        21  -8.4388     68.6409      4.1895   8.1574382293e+01   6.3667975824e+01    0.2253024    0.1278177   0.16  0.001170582    1.977    0.494
        22  -8.3774    125.0522      3.8030   6.8153853941e+01   5.2341770100e+01    0.1960366    0.1358823  44.64 0.0007597434    1.292    0.226
        23  -8.5272    104.1381      3.9835   7.2345747620e+01   5.6845732783e+01    0.2180822    0.1488609 -15.05  0.001335553    1.661    0.398
        24  -7.9812    153.7995      3.3793   6.3474059102e+01   4.5809490797e+01    0.1774167   0.09399331  59.19 0.0002327955    1.557    0.358
        25  -8.5565    143.0891      2.0424   6.4651134574e+01   4.8398313025e+01    0.2360112    0.1609684  47.07 0.0003381566    1.379    0.275
        26  -8.0602    182.3384      2.0792   5.9600718225e+01   3.9255651529e+01    0.2042844     0.138353  66.51 0.0003117743    1.273    0.214
        27  -7.0748    115.3577      1.2852   6.9136142314e+01   5.4665325474e+01    0.1317862   0.07318348  39.91 0.0003955556    1.675    0.403
        28  -7.7219      3.0822      1.1916   1.0676409463e+02   7.2563267324e+01    0.1208428   0.06565315  17.67 0.0004384029    1.708    0.415
        29  -8.2121    195.1756    229.1074   1.1007135657e+02  -3.2898815836e+00     0.210261     0.163867   8.13  0.000791517    1.355    0.262
        30  -7.9883    249.0451    250.4443   1.0367281629e+02  -1.4656573949e+01    0.1732038   0.09842498  30.95 0.0005264296    1.592    0.372
        31  -8.3861    212.9637    250.4810   1.1022606035e+02  -9.4866893398e+00    0.2741228    0.1057314  37.96  0.001245038    2.288    0.563
        32  -9.4184    210.5789    246.3198   1.0999353136e+02  -8.5143323524e+00    0.2914547    0.2130634 -48.94  0.001409022    1.758    0.431
        33 -10.6069    201.8556    248.7885   1.1204968454e+02  -7.5119639832e+00     0.677516    0.3104829  28.46  0.002876028    2.317    0.568
        34  -8.0140    123.7598    250.4077   1.2753832462e+02   5.1636475971e+00    0.1816859    0.1104195  34.54  0.000949119    1.669    0.401
        35  -7.7232    157.9950    229.2353   1.1762437019e+02   3.1951703465e+00    0.1888748    0.1497117 -15.06 0.0006587234    1.629    0.386
        36  -8.3593    162.0813    234.1978   1.1756962272e+02   1.5645327459e+00     0.203465    0.1686537  20.79 0.0004961744    1.267    0.211
        37  -8.6930    237.2716    226.7181   1.0163707289e+02  -9.6934664394e+00    0.2863664    0.2105813 -42.98  0.001726359    1.581    0.367
        38  -7.4236    175.2920    228.2901   1.1392443821e+02   3.0288950046e-01    0.1310318    0.1011497   5.92  0.000230478    1.547    0.354
        39  -8.9003    247.3159    225.6520   9.9641367785e+01  -1.1017196073e+01    0.3816593    0.2514884  25.16  0.002273829    1.444    0.308
        40  -8.0032    229.9107    226.8217   1.0300582803e+02  -8.5868630606e+00    0.2007346    0.1524822   1.47 0.0009047912    1.259    0.206
        41  -8.4390    186.7464    226.7782   1.1135165733e+02  -1.4389367820e+00    0.2712086    0.1693899  18.59    0.0012836    1.998    0.499
        42  -7.4125     70.1849    225.8847   1.3531503240e+02   1.8490571035e+01     0.159391    0.1483089 -78.78 0.0008418007    1.314    0.239
        43  -7.6667      3.2177    226.5946   1.4792116092e+02   2.6456165643e+01    0.1286356    0.1062508  35.09 0.0009564157    1.726    0.420
        44  -7.8059    223.5760    225.1951   1.0389429778e+02  -7.3418429492e+00    0.1765687    0.1122916 -23.91  0.000940195    1.638    0.389
        45  -8.0233    200.1472    223.3167   1.0807564038e+02  -3.1600914935e+00     0.217361    0.1526164  20.04 0.0008795158    1.481    0.325
        46  -7.4347    206.4792    222.4521   1.0667752667e+02  -4.0916939285e+00    0.1335279    0.1166258  10.92 0.0001641829    1.038    0.037
        47  -8.0304     51.7748    221.6585   1.3854653567e+02   2.1944911732e+01    0.1687773    0.1365995 -88.85 0.0005491169    1.119    0.107
        48  -8.2686    216.6237    220.3407   1.0433323225e+02  -5.4371452178e+00    0.2629062    0.1700018  -2.69   0.00129167    2.013    0.503
        49  -8.5032    182.5241    219.8923   1.1101321914e+02   5.3188995265e-01    0.2708006    0.1769457  25.09  0.001179081    1.660    0.398
        50  -7.7598    130.5186    220.5007   1.2203388353e+02   9.8083535384e+00    0.1369509    0.1267546  49.11 0.0008088528    1.089    0.082
        51  -7.6723     40.0087    220.4989   1.4073724314e+02   2.3691964805e+01    0.1472193    0.1123472  -2.58 0.0008103424    2.709    0.631
        52  -8.5553    240.2728    218.6729   9.9624044222e+01  -8.9285490004e+00    0.2719119    0.1478402  31.32  0.001400835    1.826    0.452
        53  -7.8595    173.5123    219.4448   1.1278965770e+02   2.2369844226e+00    0.2441907    0.1233985  30.93 0.0008762479    2.201    0.546
        54  -8.3192    227.5506    218.0267   1.0184153371e+02  -6.8401740881e+00    0.2316359    0.1647692  14.13 0.0007401423    1.431    0.301
        55  -8.4628    203.0551    217.0116   1.0636608132e+02  -2.5794875783e+00    0.3407559    0.2054822   7.16  0.001440255    2.670    0.625
        56  -9.8147    159.4969    216.1192   1.1515615017e+02   5.4335390800e+00    0.2399916    0.2205156  37.66 0.0002973953    1.032    0.031
        57  -8.4906    193.5752    215.3443   1.0795594220e+02  -6.2020722358e-01    0.2978331    0.1890792  23.85 0.0009163624    1.752    0.429
        58  -7.6862    179.5032    214.9873   1.1076736539e+02   1.9814708160e+00    0.1827651    0.1177631 -18.03 0.0004467122    2.269    0.559
        59  -8.1410    122.1086    213.1762   1.2273039183e+02   1.2836472732e+01    0.2052781    0.1890126  26.14 0.0005205313    1.262    0.208
        60  -8.9372    248.7580    211.9317   9.6853766758e+01  -9.1736100445e+00    0.2734389    0.1637358  26.71  0.001479321    1.718    0.418
        61  -7.7835    169.6763    211.8262   1.1225797546e+02   4.3916175412e+00    0.1981433    0.1708914  25.44 0.0006143084    1.156    0.135
        62  -8.0640    233.0185    211.4855   9.9605665244e+01  -6.6639509416e+00    0.1863104     0.121345  35.24 0.0004923217    1.525    0.344
        63  -8.0315    186.5840    210.2048   1.0844090801e+02   1.5820965139e+00    0.1863405    0.1295488 -29.92 0.0004575129    1.594    0.373
        64  -7.8563     54.6801    210.6730   1.3684820514e+02   2.3985086548e+01    0.1188545   0.09691987 -45.38 0.0003943915    1.683    0.406
        65  -7.5496    133.2021    209.5829   1.1973981984e+02   1.1608528441e+01     0.196116    0.1320253  31.38  0.000825929    1.638    0.390
        66  -7.8357    162.9320    208.0184   1.1301505974e+02   6.4027259389e+00     0.219222    0.1713253   4.25 0.0005174523    1.649    0.394
        67  -8.0966    215.9943    205.3639   1.0165388278e+02  -2.7982652075e+00    0.2277028    0.1754426 -17.50  0.001264512    1.315    0.240
        68  -7.9495    247.0263    204.7704   9.5801009268e+01  -7.7901854259e+00    0.2117917     0.133039   6.95  0.001063125    1.998    0.500
        69  -7.6316    117.9331    205.2227   1.2241677275e+02   1.5308614489e+01    0.1938099    0.1097008  43.48 0.0007603782    1.665    0.399
        70  -8.2627    236.9201    203.6633   9.7399713620e+01  -6.0153997486e+00    0.2061973    0.1489987  16.42 0.0007568297    1.432    0.302
        71  -7.2093    148.6686    204.6969   1.1552147886e+02   9.7706378851e+00    0.1424829    0.1147553   1.01 0.0004211387    1.654    0.396
        72  -6.9451     86.3319    204.3185   1.2930421343e+02   2.0828997883e+01    0.1290168    0.1096398 -27.46  0.000639419    1.691    0.409
        73  -7.5749      8.3305    202.3425   1.4536178913e+02   3.1124670809e+01    0.1122657   0.07743091 -55.64 0.0007051128    1.749    0.428
        74  -8.1920    250.4236    199.1905   9.4131925423e+01  -7.4232303495e+00    0.2558793    0.1110255 -33.94  0.001142114    2.156    0.536
        75  -7.8924    184.9691    200.0480   1.0687187040e+02   3.8188918486e+00    0.2295192    0.1710854   5.56  0.001119309    1.695    0.410
        76  -7.8072    196.5163    200.4747   1.0457467836e+02   1.5782882068e+00    0.2520194    0.1280106  30.91  0.001026701    2.250    0.556
        77  -7.3785    222.3532    198.7408   9.9152350922e+01  -2.7422494769e+00    0.1251304    0.1091611  76.15 0.0002596461    1.612    0.379
        78  -7.4528     99.6693    198.6845   1.2551318837e+02   1.9948804125e+01    0.1346545    0.1140227 -20.62 0.0007045905    1.681    0.405
        79  -8.4096    166.2908    197.2330   1.1031496074e+02   7.9578178442e+00    0.3362562     0.188575  27.94  0.001081327    2.248    0.555
        80  -8.0492    193.0295    193.9424   1.0401455522e+02   3.4786361871e+00     0.239946    0.1740677   0.11  0.001133975    1.814    0.449
        81  -7.7317      1.8026    194.3586   1.4603076088e+02   3.3482253225e+01    0.1276766    0.1130633  21.98 0.0007765581    1.685    0.406
        82  -7.1465    133.3452    192.3478   1.1677133112e+02   1.5352347218e+01    0.1497351     0.119084  -9.27 0.0007043133    1.805    0.446
        83  -7.4899     90.4672    192.4826   1.2668333352e+02   2.2911332746e+01    0.1416397    0.1269951  85.44 0.0001747911    1.031    0.030
        84  -7.7884    246.6604    189.7166   9.2933310500e+01  -5.2737019351e+00    0.1339615   0.09448284  -0.84 0.0002255046    1.630    0.386
        85  -7.9124    224.6018    189.1676   9.6827715592e+01  -1.4395514659e+00    0.1953251     0.121184 -28.58  0.000396195    1.646    0.393
        86  -8.0552     64.7222    189.5386   1.3217039553e+02   2.7500352527e+01    0.2275773     0.135691  32.38  0.001055253    1.983    0.496
        87  -7.7443     45.9181    187.0000   1.3609423347e+02   3.0567856717e+01    0.1960244   0.07278617  34.13 0.0008063128    2.969    0.663
        88  -7.4535    148.6801    185.6828   1.1203216084e+02   1.3874765896e+01    0.1494633    0.1207163  -5.03 0.0007041331    1.660    0.398
        89  -7.5303    130.4207    182.8245   1.1571190773e+02   1.8074857509e+01    0.2045549    0.1399559 -43.60 0.0005289331    1.592    0.372
        90  -7.5010    250.2985    182.3102   9.0828523680e+01  -4.6175478872e+00    0.1336155   0.09470066  -7.02 0.0002319672    1.599    0.374
        91  -7.4604    183.5330    180.4967   1.0329423874e+02   8.0217710254e+00     0.147784    0.1417521  -1.44 0.0001688428    1.045    0.043
        92  -7.7009    156.8323    180.4225   1.0914898754e+02   1.3413501654e+01    0.2114944    0.1433604  30.79 0.0008533149    1.657    0.396
        93  -8.0565     96.5907    178.2963   1.2297931770e+02   2.5277204237e+01    0.2132055    0.1829677   6.51  0.000586454    1.583    0.368
        94  -7.7660     47.2277    175.6360   1.3440422429e+02   3.3116991659e+01    0.1628004    0.1302741  22.30 0.0009462281    1.667    0.400
        95  -7.6261    148.5252    174.5392   1.0986786480e+02   1.6403115969e+01    0.1499392    0.1485931  59.93 0.0006122065    1.048    0.046
        96  -7.8313    183.4640    172.0536   1.0154362976e+02   9.7921694379e+00    0.2140627    0.1297022 -22.17  0.000787426    2.481    0.597
        97  -8.4324    177.3191    166.5694   1.0169491483e+02   1.2225531511e+01    0.2985401    0.2255766 -16.39 0.0009509698    1.689    0.408
        98  -7.4235    199.5006    166.5536   9.7021658560e+01   7.6578562874e+00    0.1485157    0.1403721 -12.74 0.0001389829    1.055    0.052
        99  -7.8932    168.2338    163.9724   1.0313977480e+02   1.4693572633e+01    0.2536259    0.1809733 -16.89  0.001072918    1.972    0.493
       100  -7.5307    122.6052    163.1277   1.1376363343e+02   2.4214867756e+01    0.2154854    0.1394776 -43.57 0.0009328275    1.643    0.391
       101  -9.4590    220.3831    148.4346   8.9000665488e+01   7.0352562691e+00    0.2655392      0.24728 -43.57 0.0004547318    1.029    0.028
       102  -8.2536    133.2635    147.8107   1.0783209101e+02   2.5734472677e+01    0.2907415      0.21357 -32.80 0.0009474619    1.584    0.369
       103  -9.0119     68.3048    145.6593   1.2445593280e+02   3.7699470850e+01    0.3219733    0.2569845  56.24  0.001140431    1.339    0.253
       104  -8.4302     65.5180    143.4892   1.2481214408e+02   3.8620716145e+01    0.2916081    0.2563975  86.77 0.0008269879    1.133    0.118
       105  -7.9270     40.9803    140.0000   1.3086452458e+02   4.2482702257e+01    0.1915735    0.0776463  29.13 0.0007998599    2.925    0.658
       106  -7.8243    139.3317    138.3370   1.0413502885e+02   2.6681840769e+01    0.1617429    0.1280327  -7.11 0.0007052066    1.737    0.424
       107  -7.6644    107.9998    136.6730   1.1184736538e+02   3.3373937088e+01    0.2407225    0.1320439  17.23 0.0007050292    4.314    0.768
       108  -7.4368    125.3272    135.3004   1.0696240744e+02   3.0310207912e+01    0.1557576    0.1262406  -7.89 0.0003854465    1.639    0.390
       109  -7.3532     55.3092    135.3355   1.2612650605e+02   4.1950966362e+01    0.1424347   0.09652525 -37.43 0.0007043008    1.678    0.404
       110  -7.6604    225.6757    131.3246   8.4236639022e+01   9.2655583483e+00    0.1499888    0.1103336 -72.10 0.0007048243    1.688    0.407
       111  -7.0615    167.4719    131.4239   9.5803118538e+01   2.2041670013e+01    0.1581404    0.1500624 -80.47 0.0001313475    1.053    0.050
       112  -8.0980    239.2612    130.0365   8.1684210183e+01   6.7651376669e+00    0.2033015    0.1675876 -44.10 0.0004939327    1.074    0.069
       113  -7.8059     41.9975    129.0000   1.2873000387e+02   4.5023549488e+01    0.1946709   0.07794226  28.48 0.0008050609    2.961    0.662
       114  -7.4292    143.7004    126.6761   1.0022165083e+02   2.8404712612e+01    0.1578557    0.1278758  -6.20 0.0007026432    1.630    0.386
       115  -9.7082     13.3924    120.1035   1.3538558966e+02   4.9688817450e+01    0.5146817    0.1973808 -45.44  0.002329109    2.532    0.605
       116  -7.9672     84.6462    121.5911   1.1487816678e+02   4.1067453032e+01    0.2611592    0.1473448  30.57 0.0009202273    2.075    0.518
       117  -8.7110     22.6411    113.4627   1.3162587656e+02   5.0506702468e+01     0.234502   0.09943756 -64.39  0.001089805    1.916    0.478
       118  -7.2269    142.5099    111.5020   9.6623559082e+01   3.2017866976e+01    0.1551425     0.152889 -35.70 -0.0001100559    1.048    0.046
       119  -9.0633      2.6250    109.6689   1.3690816308e+02   5.2774091218e+01    0.3767634    0.1704301 -37.17  0.001896646    2.463    0.594
       120  -8.3958    133.8511    107.0262   9.7600481755e+01   3.4896580430e+01    0.4415554    0.1979291 -40.90   0.00158634    2.274    0.560
       121  -7.7985    109.4917    106.0148   1.0384534724e+02   4.0182864868e+01    0.2159152    0.1274352 -25.88 0.0008093997    2.450    0.592
       122  -9.4027     13.9911    105.9769   1.3293089912e+02   5.2869806819e+01    0.3193138    0.1653096 -44.59  0.001393816    1.734    0.423
       123  -8.9107     17.3638    103.2963   1.3141946831e+02   5.3228642544e+01    0.2265967    0.1760964 -21.89 0.0008524209    1.457    0.314
       124  -7.6368     66.6607    104.6952   1.1623310341e+02   4.7695923165e+01    0.1439779    0.1015763 -23.60 0.0007040382    1.676    0.403
       125  -7.8798     93.9517    103.4603   1.0762591949e+02   4.3644809535e+01    0.2224322    0.1458281  39.74  0.001035651    1.609    0.379
       126  -8.9702      3.8663    100.9986   1.3518162356e+02   5.4631986721e+01    0.3728843    0.1057925 -48.87  0.001628941    2.666    0.625
       127  -8.5769    243.5039    101.4885   7.4784248021e+01   1.1091656737e+01    0.1419035    0.1204181 -58.44 2.683747e-05    1.035    0.034
       128  -7.0156    140.3440     99.3196   9.3876373786e+01   3.5068234811e+01    0.1587787    0.1242563   7.44 0.0007049555    1.724    0.420
       129  -7.9084    129.8581     97.3589   9.5976046794e+01   3.7800027370e+01    0.2233915    0.1396593  36.39 0.0007824284    1.771    0.435
       130  -9.5948      9.5738     96.5927   1.3264477700e+02   5.5253141028e+01    0.3394289    0.1542356   7.28  0.001655024    3.169    0.684
       131  -9.5597     19.1840     94.0330   1.2906395984e+02   5.5146040288e+01    0.4186734   0.09334355 -49.91  0.001271303    3.083    0.676
       132  -9.1433     15.3788     93.1170   1.3012174226e+02   5.5623261069e+01    0.2366133    0.1459119  19.86  0.001403162    1.976    0.494
       133  -9.0325     44.2235     91.9206   1.2032165114e+02   5.3312570618e+01    0.3711718    0.2425665 -24.11  0.001972576    1.736    0.424
       134  -7.6166    109.5200     90.9963   9.9656876458e+01   4.3358207165e+01     0.208752     0.126897 -21.03  0.000792523    2.421    0.587
       135  -7.3113     57.2802     91.6615   1.1594233188e+02   5.1825522829e+01    0.1279674    0.1045073 -87.08 0.0002087899    1.621    0.383
       136  -8.1823     96.4827     90.2046   1.0320161179e+02   4.6016669734e+01     0.288295    0.1893083  22.03  0.001298622    1.908    0.476
       137  -8.4161     67.5632     85.9654   1.1102968423e+02   5.1634564969e+01    0.4674992    0.1919755  22.55  0.001543345    4.298    0.767
       138  -9.4385     35.8958     81.9720   1.2067881632e+02   5.6289410534e+01    0.5714483    0.2853435 -25.77  0.002304569    2.664    0.625
       139  -7.5649    126.4223     83.7676   9.2975821246e+01   4.1245868994e+01    0.2090354    0.1421226 -27.20  0.000937387    1.676    0.403
       140  -7.7980     21.9804     83.5453   1.2587738158e+02   5.7186268030e+01    0.1573008    0.1193549  11.96 0.0004978688    1.538    0.350
       141  -8.4845     88.4583     79.0591   1.0234015165e+02   4.9683098328e+01    0.3199672    0.2025889  19.61  0.001452893    2.025    0.506
       142  -9.0793     48.3955     76.9455   1.1497533347e+02   5.5976830094e+01    0.3995695    0.2445531 -26.31  0.001504543    1.753    0.430
       143  -9.8777      8.1957     77.4475   1.2931895293e+02   5.9420124453e+01    0.4164399    0.1624162 -40.72   0.00196921    2.203    0.546
       144  -7.8912    184.1914     78.1371   7.8739981783e+01   2.8692327775e+01    0.2079506    0.1661291 -73.45 0.0004001548    1.309    0.236
       145  -9.6014    234.4832     74.6385   7.0102981952e+01   1.7597851957e+01    0.2614796    0.2265343 -58.03 0.0003928355    1.079    0.073
       146  -9.8627     24.0525     72.9739   1.2259431656e+02   5.9200166417e+01    0.8295337    0.3301336 -26.24  0.003069047    4.282    0.766
       147  -8.4556     23.3153     69.6362   1.2200019278e+02   5.9927220951e+01    0.2174092    0.1776485 -44.82 0.0006351694    1.093    0.085
       148  -7.7941     74.9756     74.5106   1.0523562012e+02   5.2804114125e+01    0.1931253    0.1321086  32.84 0.0004514572    1.523    0.343
       149  -9.0011    238.8771     70.6603   6.8666709773e+01   1.7288916157e+01    0.2230839    0.1802121 -37.61 0.0007499271    1.339    0.253
       150  -7.1358    129.4823     69.5060   8.7944974023e+01   4.3150009553e+01    0.1456937    0.1378356  24.96 0.0008097057    1.059    0.055
       151  -8.7384     43.8793     67.7618   1.1393078013e+02   5.8298096940e+01    0.3132338    0.2032105  -8.79  0.001705204    1.808    0.447
       152  -7.6847    120.8631     68.1949   8.9727504367e+01   4.5272930050e+01    0.1915145    0.1624414  15.44 0.0003350646    1.277    0.217
       153  -8.1170     80.4823     68.0441   1.0142262070e+02   5.3113478525e+01    0.1928021    0.1596792 -29.94 0.0003928345    1.136    0.119
       154  -8.5644     84.0167     63.8505   9.8938842195e+01   5.3254591839e+01    0.4045311    0.2422734  16.05  0.001550172    2.340    0.573
       155  -8.7827     61.9628     66.8615   1.0723227528e+02   5.6181175743e+01    0.4677628    0.1734045 -37.22  0.001357051    2.761    0.638
       156  -9.5455     65.6775     60.9674   1.0404971994e+02   5.6708528694e+01    0.3478092    0.3143932 -15.49 0.0001650918    1.077    0.072
       157  -7.3888    106.3408     67.3147   9.3382089880e+01   4.8461320254e+01    0.1476229    0.1077257   9.61 0.0007047647    1.704    0.413
       158  -9.5594     17.7310     62.2225   1.2211804397e+02   6.1810376754e+01    0.4214565    0.2047839 -38.11  0.001554771    1.723    0.420
       159  -8.7600     52.0017     61.2458   1.0897153909e+02   5.8538864722e+01    0.2763162    0.1876177 -12.80  0.001359081    1.581    0.368
       160  -9.1165     33.4666     60.4774   1.1561222283e+02   6.0771670218e+01     0.281675    0.2036743  26.09  0.001408183    1.551    0.355
       161 -10.6050     39.0981     57.1504   1.1244395612e+02   6.0795732001e+01    0.2797107     0.198314 -20.63  0.000303089    1.296    0.228
       162  -7.9682    111.0607     58.8018   8.9351545110e+01   4.8906981401e+01     0.239434    0.1517365  23.00  0.001076434    2.020    0.505
       163  -9.5020      2.3227     55.3278   1.2627708441e+02   6.4123775469e+01     0.670141    0.2826072 -38.54  0.003302878    1.893    0.472
       164  -8.8742     15.6370     41.1690   1.1664927240e+02   6.5766217261e+01    0.3322759   0.09731489 -42.92  0.001538656    2.580    0.612
       165  -8.8810     18.3049     37.5777   1.1430153454e+02   6.6143012320e+01    0.2599353    0.1306587 -17.61  0.001161308    2.257    0.557
       166  -9.3991      8.3240     48.9939   1.2212355628e+02   6.4927524636e+01    0.3052575    0.1576418 -37.27 0.0006847425    1.522    0.343
       167  -9.3974     11.6810     46.6871   1.2005525474e+02   6.5110378580e+01    0.2915861    0.1589719 -35.89  0.000890925    1.453    0.312
       168  -9.2240     74.9669     50.5254   9.7357948082e+01   5.6989415490e+01    0.3308909    0.2238648   1.82 0.0004542838    1.740    0.425
       169  -8.4015    118.3892     51.2622   8.5002839741e+01   4.8499620744e+01    0.2592355    0.2211153  59.31  0.001064869    1.211    0.174
       170 -10.4634     45.1148     48.5171   1.0728673885e+02   6.1596731425e+01    0.4461463    0.2841475 -50.19 0.0007708258    1.795    0.443
       171  -7.5770    106.7438     48.0700   8.6982481973e+01   5.1427865169e+01    0.1829584    0.1673752   2.98 0.0004234511    1.071    0.066
       172  -9.5089     24.0095     47.4425   1.1523985748e+02   6.3994780910e+01    0.4287914    0.1948169  10.75   0.00207844    2.917    0.657
       173  -9.1635     31.0004     44.3419   1.1137530956e+02   6.3856294174e+01    0.3433052    0.1786214   8.03  0.001435555    2.436    0.589
       174  -9.1753      2.1576     45.5587   1.2367827739e+02   6.5920422326e+01    0.2379273    0.1679954 -33.25  0.001141609    1.079    0.073
       175  -7.7156    132.9058     45.5034   7.9743643367e+01   4.6071683463e+01    0.2002869    0.1272464  54.37 0.0003413118    1.451    0.311
       176  -8.1194     93.5662     42.3790   8.8712662013e+01   5.4855611248e+01     0.327754    0.1060918  43.82  0.001237729    2.880    0.653
       177  -9.1769     37.3063     41.9484   1.0801182569e+02   6.3574770791e+01    0.3158074    0.1448564  36.36   0.00162751    2.459    0.593
       178  -7.8601    122.9510     40.8292   8.0523197052e+01   4.8943746788e+01    0.2382016     0.134734  32.66  0.001065925    2.078    0.519
       179  -9.6850     83.3815     39.9733   9.0904363224e+01   5.7085057966e+01    0.2881289    0.1945497  26.78            0    1.450    0.310
       180  -9.1225      3.8569     40.1332   1.2133972725e+02   6.6768078455e+01    0.2208006    0.1200644 -52.37 0.0009790689    1.624    0.384
       181  -7.9224     46.8470     38.7553   1.0311927497e+02   6.2924142088e+01    0.2057517    0.1110708  -5.51 0.0009390252    2.765    0.638
       182  -9.0119    106.3086     37.0420   8.3356896476e+01   5.3010956364e+01    0.3550615    0.2136385  22.27  0.001679108    2.097    0.523
       183  -8.5109     92.1851     36.8863   8.7166417416e+01   5.5856374426e+01    0.2605176    0.1670077  35.67 0.0008274913    1.457    0.314
       184  -9.5581     96.0591     33.2661   8.4781562757e+01   5.5559117880e+01    0.2681848    0.2000533  20.44 0.0002832878    1.334    0.250
       185  -9.2872     70.6671     35.8338   9.3462782015e+01   5.9843134472e+01    0.3064984    0.1455815  28.34  0.001392659    2.409    0.585
       186  -9.2426     37.9911     35.4291   1.0534793368e+02   6.4505817052e+01    0.3013345    0.1805446  10.89  0.001183222    1.770    0.435
       187  -9.2977      7.4911     33.7772   1.1769273518e+02   6.7593007381e+01    0.3282497    0.1644468   7.27  0.001379933    2.210    0.548
       188  -7.3883    144.0507     33.8006   7.3868337804e+01   4.4986966047e+01    0.1767095   0.09819738  61.39 0.0003192366    1.638    0.390
       189  -8.3357     81.9377     31.9479   8.8406203002e+01   5.8397401751e+01    0.1941154    0.1463461  16.71 0.0003910528    1.256    0.204
       190  -7.9527     20.7517     32.3442   1.1138134495e+02   6.6758431998e+01     0.213052   0.08860508  33.33  0.001119643    2.761    0.638
       191  -9.1403    127.9353     30.2025   7.5999893825e+01   4.9131686448e+01    0.2052244    0.1861418   9.46 0.0002153854    1.184    0.155
       192  -9.2138      1.4906     29.8372   1.1904081836e+02   6.8625547546e+01    0.2510486    0.0920113 -47.79  0.001143146    2.115    0.527
       193  -8.2882    112.8045     29.7500   7.9254683385e+01   5.2521286640e+01     0.330779    0.1322059  43.04  0.001375954    2.377    0.579
       194  -9.4880     54.7335     36.6432   9.9362144697e+01   6.2171241088e+01    0.2925284    0.1885038  19.95  0.001002623    1.526    0.345
       195  -8.9190     61.5217     27.2962   9.3304463914e+01   6.2419086359e+01    0.2612107    0.1599987   3.25 0.0008222973    1.877    0.467
       196  -8.6719     57.4002     25.0979   9.3890886161e+01   6.3323968260e+01    0.2705947    0.1580562  38.23 0.0007260085    1.644    0.392
       197  -8.5609    228.1102     25.7916   6.0208453678e+01   2.6126740150e+01    0.2464933    0.1766305 -38.23  0.001048941    1.530    0.346
       198  -7.5544    123.9922     26.9215   7.5786543972e+01   5.0388233025e+01    0.1510726    0.1430264  20.88 0.0008710956    1.105    0.095
       199  -9.5407     71.4593     26.1737   8.9513258941e+01   6.0939469859e+01    0.3501724    0.1961555  37.94  0.001615066    1.620    0.383
       200  -8.8269     48.0516     25.8613   9.7660627252e+01   6.4571446141e+01    0.3058255    0.1379901  27.34  0.001160724    2.331    0.571
       201  -8.0239    110.4905     24.5285   7.8028466130e+01   5.3597297752e+01     0.130827    0.1112205  36.57 -0.0001035173    1.045    0.043
       202  -8.4720     80.4870     23.5050   8.5665418939e+01   5.9659557523e+01    0.2314838    0.1727739  20.81   0.00106361    1.217    0.178
       203  -8.9465     84.6170     21.7687   8.3791832531e+01   5.9087388955e+01    0.2554061    0.2013847  44.28 0.0008231619    1.217    0.178
       204  -7.6869    130.6863     21.7200   7.2751819383e+01   4.9435113420e+01    0.1334381   0.08749674  36.63 0.0002892924    1.570    0.363
       205  -8.5283     92.2893     20.9407   8.1345615621e+01   5.7704230603e+01    0.2207392    0.1785483  21.85 0.0009571987    1.122    0.109
       206 -10.1216      9.2403     19.8699   1.1178761431e+02   6.9595418689e+01    0.3260293    0.1765603   5.65 0.0005263498    1.883    0.469
       207  -7.7867    117.0063     19.9982   7.5021447950e+01   5.2662891984e+01    0.1527756    0.1299599  47.18    0.0003493    1.022    0.022
       208  -7.9341     45.6242     20.1960   9.6274165517e+01   6.5614833968e+01    0.1570833   0.09257857 -18.71 0.0004507869    1.606    0.377
       209  -8.1170    218.6804    244.6717   1.0819864628e+02  -9.5214571271e+00     0.194162    0.1198137 -30.04  0.001095563    1.695    0.410
       210  -8.1570    127.8107     16.8775   7.1784161484e+01   5.0571495396e+01    0.1905182    0.1507045  41.43 0.0003330354    1.180    0.153
       211  -8.3904    234.7606    246.9752   1.0563060867e+02  -1.2222259934e+01    0.1530993    0.1101913 -40.60 0.0003663285    1.660    0.397
       212  -8.5520    234.2198    243.8566   1.0519947394e+02  -1.1715170165e+01    0.3171377    0.1564971  28.07  0.001566674    1.950    0.487
       213 -10.0403    163.8699    245.2294   1.1889736439e+02  -6.7750789896e-01    0.3487486       0.3238  63.79  0.002293224    1.178    0.151
       214  -8.6551     50.5513     15.1807   9.2301938695e+01   6.5503032252e+01    0.2275602    0.1454259  20.63 0.0006863347    1.398    0.285
       215  -7.7513     73.9527    247.7664   1.3680503304e+02   1.3453027498e+01    0.1631102   0.08922189  43.52 0.0008835921    1.648    0.393
       216  -7.7030     17.9841    247.7699   1.4670979732e+02   2.0652144831e+01    0.1381139   0.07841673  45.73 0.0008835144    1.662    0.398
       217  -8.9333    243.5382    244.0936   1.0356561102e+02  -1.3069828898e+01    0.2652519    0.1554355   3.52  0.001422088    2.021    0.505
       218  -8.4477     88.7581     13.1630   7.9397309338e+01   5.9163147954e+01    0.2366687     0.117314  34.37 0.0006805348    1.951    0.487
       219  -9.7411    192.7219    244.0618   1.1304494044e+02  -5.3153861722e+00    0.2659014    0.1955205  11.75 0.0008623985    1.453    0.312
       220  -9.3753    224.8365    243.2180   1.0680983924e+02  -1.0242868338e+01    0.2389406    0.2041015 -37.91 0.0004197668    1.424    0.298
       221  -9.1587    176.1760    243.6595   1.1622158051e+02  -2.4973280555e+00    0.2547507    0.1813115  12.35  0.001389546    1.692    0.409
       222  -9.1583    157.6779    244.2176   1.1997893793e+02   5.5110178698e-01    0.2407363    0.1584602  18.49  0.001124432    1.993    0.498
       223  -7.4608     42.3790    244.2491   1.4226721226e+02   1.8446293464e+01   0.09441333   0.09404584  -4.27 0.0003578095    1.647    0.393
       224  -7.6506     95.4995    243.5366   1.3224716691e+02   1.1029066498e+01    0.1271743    0.1075555  63.15 0.0001461957    1.063    0.059
       225 -10.9201    247.1744    237.9060   1.0184886664e+02  -1.2733350278e+01    0.3670734    0.2504744 -28.04 0.0004815467    1.394    0.283
       226  -9.1117    242.5791    236.2183   1.0237051822e+02  -1.1849516764e+01    0.3264804    0.1885408 -22.98   0.00181403    1.743    0.426
       227  -8.9045    150.4112    249.6209   1.2219501183e+02   8.4787350213e-01    0.2629471    0.1798288  28.61  0.001457752    1.522    0.343
       228  -8.2230    201.5366    241.2652   1.1088327719e+02  -6.3132397076e+00    0.2930435    0.1217276 -39.11  0.001215044    2.645    0.622
       229  -7.5744     25.5017    241.4544   1.4502716235e+02   2.1048132995e+01    0.1179211    0.0836984  75.14 0.0001572786    1.030    0.029
       230  -8.8516    170.6948    239.5993   1.1667751988e+02  -8.7984014272e-01    0.2749618    0.2021552   5.32  0.001382345    1.756    0.431
       231  -7.5874    112.3884    237.7642   1.2820322858e+02   9.4418687223e+00    0.1689572    0.1204765 -50.27 0.0009406818    1.673    0.402
       232  -7.9858     79.7504    238.4111   1.3475783251e+02   1.4468052025e+01     0.165813    0.1140985  37.18 0.0007535234    1.593    0.372
       233  -7.5470    148.4712    237.5503   1.2084910209e+02   3.3293493391e+00    0.1332339     0.116901  44.07  0.000175108    1.024    0.023
       234  -8.0900    195.3260    236.2482   1.1125412538e+02  -4.4954199685e+00    0.2338182    0.1390432  34.97 0.0007896232    1.517    0.341
       235  -9.8129    188.5580    234.4823   1.1229219630e+02  -3.0655034427e+00    0.3534528    0.2904131  60.15  0.001684862    1.473    0.321
       236  -8.4771     90.1178    235.6794   1.3241725279e+02   1.3442669584e+01    0.2495931    0.1674949  14.60  0.001157205    2.947    0.661
       237  -8.5470    232.8150    236.1482   1.0412478987e+02  -1.0415408888e+01    0.1726515    0.1586508  14.22 0.0007107483    1.243    0.195
       238  -7.5919    204.6702    230.6968   1.0848476733e+02  -5.1474999739e+00    0.1340425   0.09386718   5.68 0.0007034794    1.651    0.394
