#   1 NUMBER                 Running object number                                     
#   2 MAG_AUTO               Kron-like elliptical aperture magnitude                    [mag]
#   3 X_IMAGE                Object position along x                                    [pixel]
#   4 Y_IMAGE                Object position along y                                    [pixel]
#   5 X_WORLD                Barycenter position along world x axis                     [deg]
#   6 Y_WORLD                Barycenter position along world y axis                     [deg]
#   7 A_WORLD                Profile RMS along major axis (world units)                 [deg]
#   8 B_WORLD                Profile RMS along minor axis (world units)                 [deg]
#   9 THETA_WORLD            Position angle (CCW/world-x)                               [deg]
#  10 FWHM_WORLD             FWHM assuming a gaussian core                              [deg]
#  11 ELONGATION             A_IMAGE/B_IMAGE                                           
#  12 ELLIPTICITY            1 - B_IMAGE/A_IMAGE                                       
         1 -13.3395     66.6725    126.4909   5.0585385468e+01   4.2208619520e+01     3.767249     2.059324  69.54   0.01277247    3.152    0.683
         2 -13.1292    212.1897     55.5392   3.5926945703e+02   2.7048096155e+01    0.9956391    0.7950772 -32.65  0.003808403    1.238    0.192
         3 -13.4831    225.1255     46.8703   3.5612016380e+02   2.5733220679e+01    0.7917962    0.7515392  -5.95  0.002426124    1.397    0.284
         4 -11.2309    249.9152     25.5541   3.4995649103e+02   2.3857127954e+01     0.597078    0.1544116 -32.70  0.002707319    2.894    0.654
         5  -9.4020    194.0128      4.7526   3.4839540522e+02   3.6672051158e+01    0.1457268   0.09105117  87.56 0.0002753234    1.528    0.345
         6  -9.7699      2.2631      2.5948   4.3478226496e+01   7.9424286167e+01    0.2794319    0.1181827 -42.64  0.001363708    2.177    0.541
         7  -9.1602     38.4862      2.5197   1.5049753934e+01   7.3631976957e+01    0.1288046    0.1108378  29.26 7.937362e-05    1.018    0.018
         8 -10.3858     72.8174    232.9750   6.2839426988e+01   1.6146625034e+01    0.2403763    0.2258921  57.17 0.0007237217    1.152    0.132
         9 -10.2354     75.1953    247.8888   6.3547017193e+01   1.3119524462e+01    0.4432164     0.189114 -53.21  0.002246927    2.766    0.638
        10 -12.8853     43.3040    244.5816   7.0360030222e+01   1.7011939176e+01     1.335453    0.6249038  23.47 0.0008517962    1.916    0.478
        11 -14.0351     41.6327    230.7000   6.9910372359e+01   1.9886330384e+01     3.022084     1.695791   3.48   0.01483686    2.535    0.606
        12 -13.3062     55.3046    232.7278   6.6873715786e+01   1.8087839953e+01      1.62849    0.7373951 -57.45  0.008171141    2.519    0.603
        13 -13.9957     54.5850    217.3363   6.5866540699e+01   2.1318495451e+01     2.421404     1.306493 -35.25   0.01109507    2.812    0.644
        14 -15.9773     25.0903    176.2048   7.0487263365e+01   3.3881246714e+01     11.09566     4.323029  81.51     0.038153    3.281    0.695
        15 -10.0013    174.9894    222.8850   3.9440001923e+01   5.7150467072e+00    0.2080471    0.1544582 -25.70 0.0009739522    1.266    0.210
        16 -10.7093    162.9144    221.9596   4.1677286160e+01   7.2967796060e+00    0.2482143      0.14269  19.53  0.001383011    1.601    0.375
        17  -8.5984    131.9924    211.5413   4.6731267753e+01   1.2993117634e+01    0.1842939    0.1136897  27.46 3.618048e-05    1.452    0.311
        18  -9.5167     95.7517    209.8680   5.4992998281e+01   1.8025539519e+01    0.2429067    0.1856283  83.22  0.001360776    1.695    0.410
        19 -10.7752    103.4746    203.2396   5.2266986566e+01   1.8389389965e+01    0.3434017    0.2938581 -71.36  0.001332109    1.366    0.268
        20  -9.6720    211.0052    198.8289   2.9091187138e+01   5.0912563952e+00    0.1923476    0.1410615 -22.52 0.0004685374    1.125    0.111
        21  -9.4536    191.5715    192.2971   3.1412336455e+01   8.4828676647e+00    0.3056947    0.1832272 -63.79  0.001195135    4.727    0.788
        22  -9.0918     72.8032    190.2307   5.8495942714e+01   2.5234513546e+01    0.2028383    0.1694357  50.21 0.0003843552    1.141    0.124
        23 -14.6870     12.6583    245.2697   7.7063652700e+01   1.9673637629e+01     1.305218    0.9682958 -47.30  0.008897423    1.845    0.458
        24  -9.1942     94.3263    183.4840   5.1852792594e+01   2.3926728502e+01     0.269004    0.2007719  78.26 0.0007461238    1.712    0.416
        25 -10.6943    116.3004    181.9186   4.5949644865e+01   2.1107557062e+01     0.248091    0.2262385 -11.34 0.0008232829    1.091    0.084
        26  -9.2036     83.0613    179.9005   5.4376955478e+01   2.6310533832e+01    0.2148314    0.1789149  61.33 0.0003798811    1.258    0.205
        27 -10.2526    104.3658    172.4205   4.7470824229e+01   2.4997709339e+01    0.4781261    0.3163449  76.19  0.001986713    2.405    0.584
        28 -10.9666    176.1108    170.0741   3.0354584814e+01   1.4411055066e+01    0.3596412    0.2408213 -18.92  0.001906758    1.570    0.363
        29 -10.1749    172.4490    168.7206   3.0827632309e+01   1.5206855601e+01    0.2400786    0.1659336 -48.07   0.00129003    1.526    0.345
        30 -10.1493    234.1920    169.1528   2.0250519330e+01   6.6461049633e+00    0.1547845    0.1218461 -38.01 0.0007761355    1.353    0.261
        31 -10.5524    180.6926    167.4949   2.8969231214e+01   1.4188027822e+01    0.3481268    0.2003425 -44.63  0.001430472    1.691    0.408
        32  -9.9846    178.1510    163.6689   2.8724846343e+01   1.5256521306e+01    0.3899665    0.2076902  37.68  0.001889277    1.999    0.500
        33  -9.3902    125.0000    243.9669   5.2384208879e+01   8.2112099121e+00    0.2136855   0.09816155 -53.98   0.00109931    2.612    0.617
        34 -13.8561     71.8584    148.3643   5.2851553548e+01   3.5704451010e+01     2.428394     1.253714  71.51  0.001421287    3.813    0.738
        35 -10.3729     40.4179    152.4307   6.3532274246e+01   3.8557744677e+01    0.2902431    0.2104129  63.43 0.0002772811    1.389    0.280
        36 -10.4830    133.8512    145.7210   3.4790548739e+01   2.6179245982e+01     1.054951    0.3069595 -55.58   0.00266285    5.530    0.819
        37  -9.0410    110.7912    167.1124   4.4864356293e+01   2.5226553163e+01    0.2154057    0.1928055  72.98 0.0005972002    1.280    0.219
        38 -10.4139    108.9788    145.3551   4.1235012140e+01   3.0591408965e+01    0.2780568    0.2691599  31.06 0.0006712527    1.037    0.036
        39 -10.8778     37.3477    142.8641   6.3388718005e+01   4.1456413242e+01    0.5290611    0.2787539  63.68  0.002129758    2.242    0.554
        40 -14.9528      5.7391    231.7485   7.8139728722e+01   2.2895322515e+01     1.294631    0.6290798 -76.90  0.007229962    2.192    0.544
        41 -11.7265     79.5396    146.1229   5.0062359734e+01   3.5157954218e+01     0.898343    0.6055632 -16.03  0.001884052    2.136    0.532
        42 -10.2145     97.5456    133.6051   4.2075294824e+01   3.5399903129e+01    0.5748978     0.378646  -4.75  0.002234308    2.507    0.601
        43 -11.6002     84.0368    131.8005   4.5877488755e+01   3.8123735730e+01    0.2984429    0.2909676 -66.92 0.0004115344    1.012    0.012
        44  -9.8807    105.8941    130.5985   3.8952303997e+01   3.4659650843e+01    0.3459845    0.3163984 -71.12  0.001022958    1.139    0.122
        45  -9.2220    108.2664    126.1633   3.7252204879e+01   3.5288331613e+01     0.300509    0.2327944   1.13 0.0008148956    1.664    0.399
        46  -9.6187    113.1232    130.5947   3.6897339729e+01   3.3346669902e+01    0.2827086    0.2337641  87.91 0.0008737203    1.485    0.327
        47 -10.1046     43.5465    130.5873   5.9512754888e+01   4.4130075102e+01    0.3345797    0.1401861 -68.40   0.00123762    2.278    0.561
        48  -9.4553    131.5382    129.5446   3.1775853460e+01   3.0151026407e+01    0.2791275    0.1454302 -51.35 6.215673e-05    1.934    0.483
        49 -11.5486     57.7059    160.9208   5.9143564740e+01   3.4328039504e+01    0.4907698    0.3643175 -38.66  0.001719288    1.539    0.350
        50 -10.7728     25.6714    129.2042   6.5832386813e+01   4.6328176345e+01    0.4923084    0.2710361  23.09  0.001125458    1.900    0.474
        51  -9.6726    136.1801    128.3845   3.0355288967e+01   2.9525841439e+01    0.2925252    0.1074572 -44.33 0.0009971426    2.618    0.618
        52  -8.2581    219.2626    126.3257   1.4144743191e+01   1.5215033875e+01     0.123674   0.08626346 -15.34 0.0003272668    1.562    0.360
        53 -13.1229     59.9511    144.8047   5.6096531717e+01   3.8267954460e+01    0.8409178    0.6362446 -13.88  0.001504163    1.668    0.400
        54 -14.9188     40.4387    172.1773   6.5654755491e+01   3.3406258187e+01     8.610699     2.598292  44.38   0.03008546    3.032    0.670
        55 -10.6742     94.7623    121.3113   4.0162952025e+01   3.8928007829e+01    0.3157649     0.267585   7.02 0.0005236877    1.364    0.267
        56  -9.4369     86.9067    121.1999   4.2637340260e+01   4.0339390947e+01    0.3778526    0.2478558 -84.87  0.001349653    2.231    0.552
        57  -8.7579    115.1865    121.5937   3.4207769748e+01   3.5060766310e+01    0.2179731     0.147455  25.79  0.000629277    1.747    0.428
        58  -9.6559     41.3571    121.6967   5.8904324383e+01   4.6819609104e+01    0.2737563    0.1296274  37.67 0.0009154965    2.077    0.518
        59  -9.4261     38.6683    119.3066   5.9535451220e+01   4.7777023436e+01    0.2655296    0.1373089  61.01 0.0007742519    2.498    0.600
        60 -10.7522     27.3488    118.7710   6.3837080955e+01   4.9063726272e+01    0.4262953    0.2607086 -83.60  0.001066264    1.639    0.390
        61 -10.8517    244.2356    114.9774   8.6076272629e+00   1.3189052649e+01    0.3228881    0.1526125 -52.07  0.001576158    2.538    0.606
        62  -9.3020    105.4830    116.0226   3.5620141599e+01   3.8223152967e+01     0.216047    0.2067432  37.11  0.001142985    1.071    0.067
        63  -8.8669     79.8476    114.5108   4.3428999725e+01   4.3249021557e+01    0.3076662    0.2043052 -76.43  0.001280622    1.880    0.468
        64  -9.9691     28.6600    108.2801   6.1723902169e+01   5.1844708013e+01    0.2153141    0.1903608  25.16 0.0003100977    1.211    0.174
        65 -10.5552     32.4799    109.0091   6.0270393517e+01   5.1269008955e+01    0.5824093    0.1989125 -68.91  0.001980398    2.729    0.634
        66  -9.5067     35.7633    107.6043   5.8673796205e+01   5.1312701114e+01    0.3076837    0.1931917  38.07 0.0006329687    1.632    0.387
        67  -8.6558    118.5221    109.5532   3.0252285441e+01   3.7151758059e+01     0.152272    0.1478889 -58.23 3.885508e-05    1.017    0.017
        68  -8.3715    212.3475    106.2271   1.0830559557e+01   1.9522235306e+01     0.179783   0.09787501 -43.65 0.0004017593    1.558    0.358
        69 -10.8352     24.1373    104.9433   6.3085003837e+01   5.3177150332e+01     0.338461     0.331272  14.72  0.000849566    1.110    0.099
        70 -11.7761     19.1330    101.4319   6.4693242543e+01   5.4559300402e+01    0.8357305    0.3012798  29.89  0.003148946    2.680    0.627
        71  -8.4434     84.9643     99.0208   3.7706140677e+01   4.6208601070e+01    0.1786533    0.1771275 -80.74 0.0009515862    1.017    0.017
        72 -10.9486     54.5427     91.0327   4.7132885428e+01   5.3355991003e+01    0.3932492    0.2633744 -80.09  0.001699379    1.860    0.462
        73  -8.7030    105.1923     93.7268   2.9690592289e+01   4.3437535011e+01    0.2376998     0.185651  68.33 0.0006497832    1.499    0.333
        74  -8.2894     76.0128     90.2078   3.8403904617e+01   5.0001016353e+01    0.1965955    0.1243383  37.33 0.0008381934    1.618    0.382
        75  -8.4768    163.5247     88.5353   1.4347785156e+01   3.1902252230e+01    0.1436181    0.1308521 -49.01 0.0001618176    1.003    0.003
        76  -9.8616     40.6319     87.6215   5.2337522581e+01   5.6139192667e+01    0.2670327    0.2431245  74.18 0.0005673839    1.179    0.152
        77 -10.3343    247.2033     85.8121   2.4267019415e+00   1.6834431224e+01    0.1588994    0.1246976 -19.93  0.001091826    1.380    0.275
        78 -10.6148     50.6321     84.4478   4.7034447488e+01   5.5616231394e+01     0.302713    0.2443982  80.20 0.0006109831    1.480    0.324
        79  -9.4167     37.1106     80.8559   5.2271084606e+01   5.8334629946e+01    0.3064429    0.1554814  50.97  0.001171462    2.538    0.606
        80  -7.9286    103.4973     78.5112   2.5539095715e+01   4.7089844199e+01    0.1546977    0.1453983 -80.65 0.0008090116    1.090    0.082
        81  -8.7069     59.5074     78.5092   4.1437019975e+01   5.5714814842e+01    0.1489954    0.1459626 -68.88 -0.0001448261    1.046    0.044
        82  -9.1551     21.2697     76.0314   5.8980158507e+01   6.1240377009e+01    0.2989481     0.155775  40.74  0.001288648    2.104    0.525
        83  -9.7135     65.4708     71.4460   3.6623782787e+01   5.6346054718e+01    0.3489143    0.2371309  80.37  0.001332452    2.505    0.601
        84  -8.1270     94.7025     70.2444   2.5504579210e+01   5.0716090429e+01    0.1449161    0.1181197  85.73 0.0001564774    1.482    0.325
        85  -9.8745     27.5263     69.8428   5.4170231743e+01   6.2239257184e+01    0.2987002    0.1633009  40.93  0.001308446    2.006    0.502
        86 -12.1492    201.7441     62.1441   1.9560378829e+00   2.8183889923e+01    0.4973009    0.4365954  71.09 0.0009721473    1.304    0.233
        87  -9.3754    101.5388    247.4173   5.7760999983e+01   1.0301722985e+01    0.1873673   0.09952186 -43.77 0.0007807638    2.248    0.555
        88  -9.4071     67.3889    239.6908   6.4635020966e+01   1.5460967833e+01    0.2622813    0.1419501 -73.08  0.001428086    2.259    0.557
        89  -9.3206     57.7645     59.5981   3.5695388898e+01   6.0372364396e+01    0.2114441    0.1349494  48.36 0.0004882838    1.698    0.411
        90  -9.5809     61.7280     56.0026   3.2537449669e+01   6.0412723578e+01    0.3013009    0.1836382  65.17  0.001166282    2.697    0.629
        91  -8.8476     69.5342     47.5912   2.5802594615e+01   6.0523835420e+01    0.1427567    0.1371212  29.58 7.260285e-05    1.015    0.014
        92 -11.4223     13.3090     43.6555   5.4731890189e+01   6.9970818892e+01    0.4673894    0.2112201  36.52   0.00172342    2.434    0.589
        93  -8.5571     37.4407     43.4393   3.9403245435e+01   6.7160783799e+01    0.1356465    0.1302265  -7.37 9.725927e-05    1.065    0.061
        94  -9.2776     65.4606     64.5457   3.4192663434e+01   5.7891541558e+01     0.146194    0.1439244 -14.61 0.0004170175    1.010    0.010
        95 -10.0730    103.6367    238.0222   5.6346596130e+01   1.1690630195e+01    0.2652614    0.1747837 -48.91  0.001090884    1.749    0.428
        96 -10.9754      9.1278     28.6348   5.2008707103e+01   7.3692829387e+01     0.291611     0.242677  35.95 0.0007212359    1.385    0.278
        97 -10.7163      2.3768     23.0409   5.5238801678e+01   7.5417674495e+01    0.3372309    0.1595232 -57.00  0.001653671    1.899    0.473
        98  -9.7697     60.8917     21.3827   1.6671835431e+01   6.6602306426e+01    0.2906674    0.2288348  52.61 0.0008269394    1.215    0.177
        99  -9.0156    189.5064     15.0384   3.5128886256e+02   3.6606115442e+01    0.1810311    0.1072533 -34.32 0.0006068079    1.541    0.351
       100 -16.0839      5.6262    215.5398   7.7639747204e+01   2.6293641916e+01     2.612388     1.921811  56.30   0.01707742    1.107    0.096
       101 -11.4673     63.1166    156.9564   5.6923668943e+01   3.4667102357e+01    0.5573314    0.4288098 -39.34 0.0008081294    1.448    0.310
       102 -14.6090     10.0633    206.4963   7.6222847958e+01   2.7934377102e+01     1.089584    0.7463269   0.14  0.002985214    1.884    0.469
       103 -12.5826    126.4051    229.6208   5.0373376704e+01   1.0457348105e+01    0.9599725    0.3357534  24.46  0.003922076    2.807    0.644
