#   1 NUMBER                 Running object number                                     
#   2 MAG_AUTO               Kron-like elliptical aperture magnitude                    [mag]
#   3 X_IMAGE                Object position along x                                    [pixel]
#   4 Y_IMAGE                Object position along y                                    [pixel]
#   5 X_WORLD                Barycenter position along world x axis                     [deg]
#   6 Y_WORLD                Barycenter position along world y axis                     [deg]
#   7 A_WORLD                Profile RMS along major axis (world units)                 [deg]
#   8 B_WORLD                Profile RMS along minor axis (world units)                 [deg]
#   9 THETA_WORLD            Position angle (CCW/world-x)                               [deg]
#  10 FWHM_WORLD             FWHM assuming a gaussian core                              [deg]
#  11 ELONGATION             A_IMAGE/B_IMAGE                                           
#  12 ELLIPTICITY            1 - B_IMAGE/A_IMAGE                                       
         1 -14.9535      2.7965    125.7651   1.4172854870e+02   4.8932172297e+01     6.993976    0.2119276 -69.33    0.0164381    8.890    0.888
         2 -12.7845      3.6666     49.7303   1.2779324509e+02   6.4757529762e+01    0.6077139    0.3224497 -57.47  0.002780157    1.596    0.373
         3 -13.5962    199.1252     27.9512   6.6824632861e+01   3.2426702849e+01     1.439262     1.299485  26.65    0.0072201    1.435    0.303
         4 -13.5385    214.9030      9.1553   6.0602476160e+01   3.0828920376e+01    0.9737327    0.7842015  77.63  0.003564154    1.140    0.123
         5 -13.2362     61.6207    175.4985   1.3387514385e+02   3.1495271820e+01    0.5183743    0.2824293 -47.96  0.002282465    2.187    0.543
         6 -11.3590    172.3378    248.5082   1.2096680588e+02  -1.9861527155e+00    0.2655871    0.2125787  44.77  0.001684753    1.079    0.073
         7 -11.9409    139.8079    249.2102   1.2727384062e+02   3.4765979389e+00    0.4067699    0.3175479  54.25  0.002568646    1.079    0.073
         8  -9.2488     66.2598    250.2231   1.4093173358e+02   1.4899574096e+01    0.1669379    0.1049116  69.74  0.000592518    1.313    0.238
         9 -11.3170     46.4019    248.9324   1.4424406750e+02   1.7813484481e+01    0.3390291    0.2504184  76.50  0.001570655    1.055    0.052
        10 -11.6332     29.0409    248.5039   1.4709294327e+02   2.0034982196e+01    0.4406878    0.2287413 -65.53  0.002743892    2.063    0.515
        11 -12.6198     35.2584    245.5087   1.4587143571e+02   1.9857371605e+01    0.7225808    0.4480019 -69.75  0.004830841    1.670    0.401
        12 -12.2791     10.8576    232.8955   1.4910904886e+02   2.5057478919e+01    0.3577833    0.3110517 -52.15  0.002780458    1.910    0.476
        13 -13.3291      5.2867    248.5657   1.5084716470e+02   2.2657471246e+01     1.166671    0.8552483  63.65  0.009374042    1.261    0.207
        14 -12.2125     17.4979    241.0446   1.4850826193e+02   2.2768241687e+01    0.3621177    0.3499059 -67.58  0.002601193    1.784    0.440
        15 -12.5236     12.5937    240.1823   1.4924995602e+02   2.3465071088e+01    0.5032172    0.2403242  59.29  0.003182219    1.633    0.388
        16 -11.9874    125.5285    249.2358   1.2998757947e+02   5.8831300974e+00    0.6424288    0.2099906  37.31  0.002407868    3.314    0.698
        17 -11.0354    119.9831    238.1295   1.2968548287e+02   8.8273647280e+00    0.2986233      0.17067 -82.05  0.001400608    2.523    0.604
        18 -10.6476     50.1672    236.1530   1.4259852577e+02   1.9796913937e+01     0.216148    0.1599079  37.78  0.001021776    1.696    0.410
        19 -10.7486    218.1550    249.1447   1.1247671692e+02  -9.6545769241e+00    0.2377082    0.1613743  60.16  0.001286868    2.346    0.574
        20 -13.1960     45.4381    214.9162   1.4164084717e+02   2.4761881390e+01     1.042331    0.6967277 -87.25  0.005292454    1.255    0.203
        21 -14.1054     35.1041    226.2775   1.4450127573e+02   2.3667093130e+01    0.7821189    0.5581174  69.80  0.002363875    1.098    0.089
        22 -12.5355    121.2703    232.0548   1.2865530295e+02   9.7564867700e+00    0.9565135    0.1663796  43.10  0.002816963    4.653    0.785
        23 -12.0489     91.0289    227.2549   1.3405138874e+02   1.5696940126e+01     1.135939    0.1393417  48.34  0.002747116    7.495    0.867
        24 -11.2550      3.4964    229.2018   1.5010266599e+02   2.6529015548e+01    0.2276576    0.1755079  70.37  0.001795777    1.224    0.183
        25  -9.2626    172.6622    222.6544   1.1690455942e+02   2.2757362775e+00    0.1383641    0.1033879   7.22 0.0007048312    1.777    0.437
        26 -10.0263     79.1541    219.2204   1.3549030131e+02   1.9186075677e+01    0.1879241    0.1277366  73.58  0.001068683    1.342    0.255
        27 -11.5082     58.1121    212.6483   1.3896257250e+02   2.3593828790e+01    0.4627695     0.186844  58.86  0.002025782    2.576    0.612
        28 -12.9664     30.0383    232.6271   1.4586049465e+02   2.2988865333e+01    0.2905437    0.2340376 -88.10 0.0007683838    1.268    0.211
        29 -12.6211      9.5822    207.3262   1.4770184875e+02   3.0363078695e+01    0.6403837    0.4891341  34.40  0.002949313    1.775    0.437
        30  -8.7737    152.4454    213.2084   1.1950630409e+02   7.7924187911e+00    0.1671781    0.1337841 -74.92 0.0002914924    1.450    0.310
        31 -11.2392     55.6923    205.5406   1.3871441777e+02   2.5458943809e+01    0.3854498    0.1579275  55.98  0.001729641    2.416    0.586
        32 -11.8046     57.7771    198.9407   1.3757721721e+02   2.6639701105e+01    0.2970297    0.2350556 -87.56 0.0005497847    1.078    0.072
        33 -12.5347     31.4289    189.3515   1.4202687192e+02   3.1994648156e+01     2.775104    0.9598187  73.09  0.005424997   14.566    0.931
        34 -12.7585      3.9348    169.6308   1.4591328838e+02   3.9017974137e+01    0.9312692    0.3417857 -73.71  0.004667158    2.063    0.515
        35 -14.6723      8.1633    154.3617   1.4358743808e+02   4.2099520813e+01     2.740408     1.009037 -72.71   0.01328816    2.086    0.521
        36 -11.9212    244.2909    246.9892   1.0742897853e+02  -1.3321079687e+01    0.3568229    0.2496458  15.99  0.002328184    1.232    0.188
        37  -9.1803     95.1147    172.1450   1.2551513708e+02   2.7223575536e+01     0.228104    0.1565474  75.31 0.0008063595    1.635    0.388
        38 -12.0773     64.4555    190.4084   1.3516028717e+02   2.7654873584e+01    0.2791301    0.2429477 -77.71 0.0004797623    1.178    0.151
        39 -11.9366     82.6558    168.0990   1.2783556773e+02   3.0195365170e+01    0.7573439    0.4772849 -56.61  0.003756017    1.526    0.345
        40 -11.1911      9.0576    193.8035   1.4682720312e+02   3.3282924996e+01    0.3058593    0.1670313  69.25 0.0005915402    1.619    0.382
        41 -10.6139     96.0058    152.5521   1.2180391478e+02   3.1745322510e+01    0.3244174    0.3014628   0.77  0.000855992    1.345    0.257
        42  -9.4450     99.1168    148.2282   1.2016940400e+02   3.2246934918e+01    0.2378971     0.193698 -50.60 0.0004417686    1.236    0.191
        43 -12.0302     84.5663    151.5169   1.2452407970e+02   3.3871064364e+01    0.3154052    0.2517334 -48.84 0.0005889463    1.307    0.235
        44 -12.1468     67.9896    143.2344   1.2732514336e+02   3.8323113438e+01    0.5914287    0.4306331 -88.64  0.002011341    1.455    0.313
        45 -11.1343     64.6810    141.6881   1.2792144248e+02   3.9145926558e+01     0.341462    0.2544789 -40.83  0.001022959    1.514    0.339
        46 -10.8369     75.2728    177.3937   1.3099522368e+02   2.9118029705e+01    0.2442739    0.2118887 -80.87 0.0003235726    1.075    0.070
        47  -9.9143    108.6601    137.4210   1.1543555313e+02   3.3107061460e+01    0.4717069    0.3120575 -20.87   0.00132531    2.573    0.611
        48 -11.4604     26.1952    128.8846   1.3604935251e+02   4.6447104357e+01    0.3313058    0.2161449  61.18  0.001074656    1.791    0.442
        49 -10.5420     95.4939    134.6809   1.1833206017e+02   3.6113348787e+01    0.2575249    0.2382217 -39.58 0.0003681233    1.166    0.142
        50  -9.2204     75.3324    128.9125   1.2261920162e+02   4.0702266144e+01    0.2475913    0.1836559  69.46 0.0008263607    1.590    0.371
        51  -8.8792    106.0107    123.9859   1.1308673778e+02   3.6756314310e+01    0.2081026    0.2007447 -67.90  0.001148313    1.023    0.022
        52  -9.9566     80.1701    123.6035   1.2015215993e+02   4.1231668319e+01    0.2912491    0.2127924  70.24 0.0009412614    1.693    0.409
        53  -9.5969     66.4701    121.9293   1.2367141850e+02   4.3605373680e+01    0.2514445    0.1827705  58.95  0.001236118    1.606    0.377
        54  -9.0980    167.9211    112.9567   9.4810579743e+01   2.5855586748e+01    0.2450709    0.1890617 -82.55 0.0005050358    1.601    0.375
        55 -11.5021    242.5772     93.1649   7.6342166084e+01   1.2219298239e+01    0.4166665    0.2551978 -61.57  0.001936815    1.783    0.439
        56  -9.1146     65.0209     81.0419   1.1427635621e+02   5.2869332187e+01     0.187855    0.1611037  81.58 0.0006000265    1.575    0.365
        57 -10.4483    158.6861     76.9806   8.7104007003e+01   3.5092664068e+01    0.2198582    0.1994559 -46.04 0.0006444762    1.124    0.110
        58  -9.2117     55.9779     74.9774   1.1558283015e+02   5.5273604205e+01    0.1786344     0.155629  82.71 0.0004220191    1.581    0.367
        59  -9.3954     35.9666     63.9482   1.1947662109e+02   5.9644474587e+01     0.178988    0.1510203 -31.64 0.0003559808    1.042    0.040
        60 -11.4470    198.8137    247.5439   1.1580798946e+02  -6.3085114794e+00    0.3455929    0.2119191 -50.76  0.001898345    2.162    0.537
        61 -10.7971     99.2514    249.1370   1.3489076914e+02   1.0177217764e+01    0.3256584     0.174075  70.30  0.001624267    2.159    0.537
        62 -12.4133    153.5936    248.0131   1.2448103737e+02   1.3157869563e+00    0.6516508    0.2943426  41.96  0.003101081    1.849    0.459
