#   1 NUMBER                 Running object number                                     
#   2 MAG_AUTO               Kron-like elliptical aperture magnitude                    [mag]
#   3 X_IMAGE                Object position along x                                    [pixel]
#   4 Y_IMAGE                Object position along y                                    [pixel]
#   5 X_WORLD                Barycenter position along world x axis                     [deg]
#   6 Y_WORLD                Barycenter position along world y axis                     [deg]
#   7 A_WORLD                Profile RMS along major axis (world units)                 [deg]
#   8 B_WORLD                Profile RMS along minor axis (world units)                 [deg]
#   9 THETA_WORLD            Position angle (CCW/world-x)                               [deg]
#  10 FWHM_WORLD             FWHM assuming a gaussian core                              [deg]
#  11 ELONGATION             A_IMAGE/B_IMAGE                                           
#  12 ELLIPTICITY            1 - B_IMAGE/A_IMAGE                                       
         1 -13.3218      3.0440     14.6130   1.3762787996e+02   7.5461464410e+01     2.574723    0.5781083 -66.55  0.009968418    3.278    0.695
         2 -13.5680    204.9307      8.6972   6.6334324920e+01   3.1578989260e+01     1.592414     1.163151  42.83  0.008448143    1.595    0.373
         3 -13.2981    191.0294     27.3586   7.3286426390e+01   3.3257135055e+01     1.320418     1.259553  60.51  0.006024442    1.102    0.093
         4  -9.7542     46.8136    249.0329   1.4712903164e+02   2.1295346649e+01    0.2206004   0.09028467  55.42     0.001378    1.829    0.453
         5 -10.8639    139.9314    250.1361   1.3015806892e+02   9.5148216490e+00     0.339737    0.1080606  39.51  0.001721823    2.146    0.534
         6 -10.4960    126.5658    250.1355   1.3258145139e+02   1.1317764096e+01    0.2959514   0.08351093  39.69  0.001423069    2.362    0.577
         7 -10.1545     98.4628    249.3653   1.3767787168e+02   1.5112504396e+01    0.2487748    0.1247752  40.29  0.001340806    1.361    0.265
         8 -10.3004    102.4607    248.0413   1.3683723485e+02   1.4780050210e+01    0.1897686    0.1452825  70.77  0.001220333    1.494    0.331
         9  -8.7573     67.4732    250.5673   1.4345249244e+02   1.8743702306e+01    0.1074547    0.0717528  47.11  0.000139798    1.008    0.008
        10 -12.8248      3.6397    245.3759   1.5465880344e+02   2.6081532653e+01     2.236218    0.7403949  40.86   0.01448203    1.819    0.450
        11 -13.5912      7.7353    208.1044   1.5312184659e+02   3.1914520613e+01     5.823071    0.8100991  34.15  0.006565013    3.472    0.712
        12 -12.9797      3.2787    177.0579   1.5323427060e+02   3.8157755670e+01     1.969661    0.5368656 -83.48  0.007696645    3.353    0.702
        13 -14.8361     11.8221    156.1342   1.5043040481e+02   4.1818695000e+01      6.26722     1.773794  81.73    0.0238246    3.959    0.747
        14  -9.8440     32.9230    228.5158   1.4886264181e+02   2.5997103913e+01    0.1708043     0.107351  66.18 0.0005498029    1.305    0.234
        15 -13.8042     47.1958    227.4742   1.4605410702e+02   2.4646975714e+01    0.9785629     0.877511  76.07  0.004885721    1.359    0.264
        16  -9.1581    177.4342    227.1977   1.2075079175e+02   6.9966314492e+00    0.1220443    0.1130397 -59.48 0.0005957369    1.681    0.405
        17  -9.5636     82.9422    244.0923   1.4018949969e+02   1.7823306110e+01     0.265582    0.1012469  51.18  0.001451511    2.118    0.528
        18 -10.7361    172.8403    221.9384   1.2090277241e+02   8.3088239051e+00    0.2683844    0.1953639  30.22  0.001451005    1.020    0.019
        19 -11.6904     12.4197    241.3280   1.5304241247e+02   2.5923064019e+01    0.5151353    0.1462956  67.48  0.002758047    3.034    0.670
        20  -8.8401    152.6271    213.0443   1.2358075104e+02   1.2543461072e+01    0.1521702    0.1312763  28.16 0.0006136624    1.139    0.122
        21 -12.6444     40.8533    234.6583   1.4760874310e+02   2.4165488458e+01     0.485397    0.3033787 -50.82 0.0007560934    2.649    0.622
        22 -11.9212     23.0813    201.5119   1.4976137972e+02   3.1713840305e+01    0.4240738    0.1461883  48.00  0.002305206    1.968    0.492
        23 -10.8158     16.2165    198.8980   1.5110770190e+02   3.2842447069e+01     0.369687    0.1363908  47.54  0.001225298    1.846    0.458
        24 -11.2347     65.8737    199.7679   1.4041197615e+02   2.7289682241e+01    0.2778676    0.2244095 -45.09  0.001451435    1.773    0.436
        25  -9.5111    192.0189    193.0511   1.1311801331e+02   9.0022808106e+00    0.3096915    0.2029792 -66.09  0.001373256    4.287    0.767
        26  -8.7564     51.4536    197.3327   1.4341287620e+02   2.9487741228e+01    0.1424495   0.09361805  73.17 0.0009071802    1.408    0.290
        27 -11.5437     71.4983    191.7137   1.3847733035e+02   2.8074136975e+01    0.2322505    0.2297256  70.03 0.0005327693    1.335    0.251
        28  -8.6818    104.1774    180.2469   1.2968101690e+02   2.5553758587e+01    0.1714319    0.1245407  56.39 0.0003156559    1.266    0.210
        29 -10.6124     80.8657    178.7734   1.3501519483e+02   2.9308124873e+01    0.2253836    0.1968069  45.98 0.0003685079    1.135    0.119
        30 -13.0162     68.1067    176.7170   1.3787326368e+02   3.1458720561e+01     0.452875    0.2855775 -43.04  0.001858501    2.344    0.573
        31 -11.4057     87.8447    169.4471   1.3223437137e+02   3.0163365848e+01    0.4982229    0.4858836  11.54  0.003329033    1.278    0.218
        32 -11.3731      2.2968    152.5428   1.5270509221e+02   4.3306292195e+01    0.3841155    0.2236142  72.43  0.002405541    1.380    0.276
        33 -11.5039     32.5199    156.4086   1.4510527853e+02   3.9902419865e+01    0.3951395    0.2090065 -80.58  0.002150364    1.805    0.446
        34 -11.7317     88.6140    152.3873   1.2974835069e+02   3.3605498018e+01    0.2597262    0.2487608   7.15 0.0005951966    1.274    0.215
        35  -9.6512     99.7307    152.7710   1.2689802432e+02   3.1738795973e+01    0.2593284    0.2125524  59.86 0.0007565657    1.132    0.116
        36 -10.1123    192.0529    155.6529   1.0643549404e+02   1.4187444864e+01    0.4346971    0.3147033 -82.78  0.001935442    3.244    0.692
        37 -12.2426     67.2478    144.0777   1.3441794140e+02   3.8570725395e+01    0.7469295    0.4679479  66.75  0.003811336    1.651    0.394
        38  -8.2904    192.0364    144.0466   1.0408880658e+02   1.5927087138e+01    0.1606812    0.1425471  13.05 0.0004137216    1.030    0.029
        39  -8.6830    181.7535    144.5424   1.0621192069e+02   1.7856978913e+01    0.1866035    0.1259499  54.10 0.0009248545    1.640    0.390
        40 -14.0090     55.9451    214.5657   1.4357086737e+02   2.5841591250e+01     7.608286          nan  39.90   0.01933647    8.345    0.880
        41  -9.3899    110.6093    137.7429   1.2147075955e+02   3.3026948789e+01    0.3271063     0.240028 -15.20  0.001417449    2.119    0.528
        42  -9.8764    239.5062    248.5066   1.1325809661e+02  -3.3800654260e+00    0.1031939   0.06762121  18.75 -6.158422e-05    1.002    0.002
        43  -8.2693     87.4993    137.3752   1.2773581233e+02   3.7071720965e+01    0.1424211    0.1205241  58.07 0.0001415753    1.069    0.064
        44 -10.2898     98.1913    135.0850   1.2435562958e+02   3.5801462209e+01    0.2423051    0.2236863 -15.19 0.0004565949    1.326    0.246
        45 -10.8451     34.0967    133.1962   1.4276125831e+02   4.4993967759e+01    0.4100838    0.1255453  44.02  0.001684466    2.719    0.632
        46  -8.7155    102.4999    148.9275   1.2556556873e+02   3.2083117993e+01     0.189037    0.1378976 -58.24 0.0003990452    1.508    0.337
        47  -9.0833    165.4851    129.5314   1.0637973188e+02   2.3681083715e+01     0.306529      0.22089  89.48  0.001333329    2.431    0.589
        48  -9.1994    107.7190    124.2083   1.1959877775e+02   3.6480836808e+01    0.1991686    0.1812678  66.55 0.0003627916    1.061    0.058
        49  -8.2763     69.5355    124.4293   1.3089471996e+02   4.2785895290e+01     0.136698    0.1262469  69.89 6.423463e-05    1.044    0.042
        50  -8.7216     73.8126    242.6065   1.4180773232e+02   1.9163930414e+01    0.1587539   0.06543184  44.11 0.0003706929    1.627    0.386
        51 -10.1837    168.0270    113.2428   1.0200121037e+02   2.6001837870e+01    0.3228201    0.2802086 -87.11 0.0007596025    1.437    0.304
        52  -9.4178    203.3153    111.5875   9.4720632983e+01   1.8548309996e+01    0.2385174    0.1637312  -5.78 0.0006421164    1.716    0.417
        53  -9.9188     34.8872     93.2575   1.3770839701e+02   5.4557672855e+01    0.3753644    0.1825771  41.24  0.001381149    2.037    0.509
        54  -8.2783    184.7011     77.6462   8.9222332556e+01   2.8026683196e+01    0.1561459    0.1144779  16.74 0.0007036313    1.697    0.411
        55  -9.5665     19.7581    229.7428   1.5139957958e+02   2.7097658453e+01    0.1592696    0.1069091  82.27 0.0007514971    1.448    0.310
        56 -11.0088     14.6824     65.7520   1.4187069576e+02   6.2909277845e+01    0.3546774    0.2369076  38.54 0.0009702078    1.629    0.386
        57 -11.7040      5.5059     62.7973   1.4570869794e+02   6.4097027666e+01       0.5112    0.3737108  34.00  0.001707315    1.538    0.350
        58  -9.6608     32.0213     61.9213   1.3302785832e+02   6.2528572239e+01    0.2456394     0.183071  35.11 0.0006539088    1.456    0.313
        59 -10.5690     12.5150     55.0056   1.4116219242e+02   6.5642057517e+01    0.2352302    0.1596355  41.07 0.0009292504    1.641    0.391
        60 -11.5943      2.0434     49.0424   1.4562072882e+02   6.7536478520e+01    0.8957132    0.1067542 -73.92  0.002679616    5.105    0.804
        61 -10.1117    248.8654    249.1506   1.1194118495e+02  -4.5328757253e+00    0.1491783    0.1069817  21.71  0.001257312    1.271    0.213
        62 -10.0376     81.2971    248.6160   1.4079634613e+02   1.7370807191e+01    0.2288251    0.1430019  55.61    0.0016564    1.323    0.244
