#   1 NUMBER                 Running object number                                     
#   2 MAG_AUTO               Kron-like elliptical aperture magnitude                    [mag]
#   3 X_IMAGE                Object position along x                                    [pixel]
#   4 Y_IMAGE                Object position along y                                    [pixel]
#   5 X_WORLD                Barycenter position along world x axis                     [deg]
#   6 Y_WORLD                Barycenter position along world y axis                     [deg]
#   7 A_WORLD                Profile RMS along major axis (world units)                 [deg]
#   8 B_WORLD                Profile RMS along minor axis (world units)                 [deg]
#   9 THETA_WORLD            Position angle (CCW/world-x)                               [deg]
#  10 FWHM_WORLD             FWHM assuming a gaussian core                              [deg]
#  11 ELONGATION             A_IMAGE/B_IMAGE                                           
#  12 ELLIPTICITY            1 - B_IMAGE/A_IMAGE                                       
         1 -13.4480      6.7876    146.0475   1.4249470354e+02   4.3951709799e+01      4.76112     1.643057 -88.66   0.01589969    4.910    0.796
         2 -12.5409    210.5260     18.2181   6.1650828176e+01   3.0336289885e+01     1.213808    0.9378144  36.98  0.007107317    1.770    0.435
         3  -9.3253      9.8460      9.8138   1.1078156210e+02   7.0629055029e+01    0.1318833    0.1089489 -13.94 0.0005367604    1.325    0.245
         4  -8.7162    173.9132      6.8863   6.3278632481e+01   4.0361961822e+01    0.1946102    0.1496669  55.71 0.0002808449    1.242    0.195
         5 -11.3156     13.5839    240.1700   1.4864115737e+02   2.3128955632e+01    0.4451493    0.3995289 -11.64  0.003381851    2.181    0.541
         6 -10.1959    248.5435    249.4956   1.0527970498e+02  -1.4607164793e+01    0.3479911    0.1763305  43.99  0.001837995    2.294    0.564
         7 -10.6940      6.7177    250.4114   1.5030914922e+02   2.1919113334e+01    0.4804636    0.2341218  38.66  0.003045757    2.210    0.547
         8 -11.0023      1.9788    247.9489   1.5092272623e+02   2.2862994815e+01    0.4883696     0.355167 -59.19  0.000898967    2.002    0.501
         9  -9.0578     20.3120    235.3423   1.4721168476e+02   2.3338873376e+01       0.1715    0.1411125  60.23 0.0006345454    1.328    0.247
        10  -8.7308     17.5970    233.2957   1.4754417931e+02   2.4039299832e+01    0.1908864    0.1228671 -89.21   0.00026427    1.238    0.192
        11  -9.5624     37.0255    243.2233   1.4487168732e+02   1.9851917578e+01    0.2527038    0.1376192  86.27  0.001512683    1.648    0.393
        12  -8.8721     55.5084    241.2745   1.4143250356e+02   1.7859391716e+01    0.1988421    0.1666451  59.80 0.0006355476    1.246    0.198
        13 -11.9141    250.0255    233.3819   1.0221064343e+02  -1.2736568415e+01    0.4101002    0.2578547   2.02  0.002335847    1.666    0.400
        14  -9.7943     45.8791    234.9062   1.4265797840e+02   2.0384411146e+01    0.4777017    0.1936045  70.40  0.002024618    3.083    0.676
        15  -8.6503      2.3090    237.6571   1.5034049439e+02   2.4774051242e+01    0.1171748   0.05526781  69.45 0.0007044334    1.695    0.410
        16 -12.1747     95.8443    228.1000   1.3228413927e+02   1.4534445411e+01     4.251324    0.3634861  47.37  0.008069362   11.551    0.913
        17 -11.5578     33.0033    224.4505   1.4418121193e+02   2.4088459047e+01    0.3051731    0.2541353 -85.68 0.0007083723    1.253    0.202
        18  -9.8355    163.9725    212.0948   1.1545792610e+02   5.5423971211e+00    0.2038896     0.199401  30.24 0.0002868302    1.089    0.081
        19 -11.6084     10.0896    207.5542   1.4715181823e+02   3.0070356988e+01    0.5549718    0.4607299  30.85  0.002698339    1.697    0.411
        20 -10.5328     60.3264    192.5233   1.3552250189e+02   2.7599507864e+01    0.3489476    0.2532344 -48.37 0.0005297727    1.683    0.406
        21  -8.2087    239.8314    191.5888   9.6169471357e+01  -4.8677834742e+00    0.1726375    0.1262282  48.28 0.0004287933    1.601    0.376
        22 -10.6651     66.2725    185.2602   1.3326671933e+02   2.8454818181e+01     0.275586    0.2450688 -62.08 0.0004937379    1.251    0.201
        23 -12.7703     40.2824    215.6220   1.4207222443e+02   2.5066689086e+01    0.8889967    0.6805391  79.31  0.003832485    1.017    0.016
        24  -9.9519     76.4014    173.6782   1.2922951632e+02   2.9712239328e+01    0.2615395    0.2303688 -70.64  0.000390704    1.112    0.101
        25 -12.1719     63.2875    170.7672   1.3197129164e+02   3.2277566670e+01    0.5263453    0.2811351 -46.85  0.001759792    2.172    0.540
        26  -9.2468      2.8378    225.4482   1.4957572809e+02   2.7108932391e+01    0.2538043    0.1021066  33.85  0.001385774    2.904    0.656
        27 -11.2911     84.2599    165.3182   1.2594590973e+02   3.0501599211e+01    0.6653426    0.5579044  55.23  0.003708776    1.188    0.158
        28 -13.0477     48.1168    206.7311   1.3967877746e+02   2.6014999765e+01     2.443603     1.064414  65.69   0.01057599    2.740    0.635
        29  -8.3379     33.2267    157.1552   1.3741856155e+02   3.9078043223e+01    0.1803291     0.129941  76.58 0.0006560348    1.377    0.274
        30  -9.1123    111.7573    155.4546   1.1709670942e+02   2.8116918070e+01    0.2535058    0.2198921 -42.82 0.0003887032    1.231    0.188
        31  -8.1173    177.0980    149.6089   9.9899255919e+01   1.5705897520e+01    0.2078453    0.1899291  41.95 0.0005185277    1.087    0.080
        32  -9.2651     97.1879    149.7584   1.1975023147e+02   3.2109365550e+01     0.328985    0.2890387 -50.34  0.001061004    1.154    0.134
        33  -8.4167    100.1460    145.8593   1.1817569264e+02   3.2528357809e+01    0.2323609    0.1846668 -16.83 0.0003509437    1.680    0.405
        34 -10.8971     85.6821    148.5793   1.2257148778e+02   3.4311203738e+01    0.3085858    0.2508843 -48.27 0.0005324602    1.248    0.199
        35 -11.3845     67.4831    144.7118   1.2672716312e+02   3.7961312776e+01    0.7473149    0.5191543  78.65  0.003589299    1.736    0.424
        36 -10.3957    223.5916    143.5403   8.8986249179e+01   6.8056752891e+00    0.2596406    0.2540552 -62.29 0.0009885168    1.082    0.076
        37  -8.7916    109.9066    140.1417   1.1434709036e+02   3.2108746577e+01    0.2171029    0.2077674 -85.06 0.0002871675    1.020    0.019
        38  -8.5093    108.8309    136.0328   1.1372150459e+02   3.3284468968e+01    0.2889423    0.2091536   1.91  0.001226477    2.145    0.534
        39 -10.4232     56.9971    131.5047   1.2721379851e+02   4.2503157139e+01    0.7535278    0.3426902 -79.03  0.002444469    4.157    0.759
        40  -9.3482     96.1168    132.7006   1.1646352018e+02   3.6379489761e+01    0.2590331    0.2166404 -37.71 0.0003889622    1.255    0.203
        41  -9.4916    242.2495    125.1463   8.1635261351e+01   6.3632556761e+00    0.2336474    0.2130172 -85.06  0.000229624    1.204    0.170
        42  -7.4554    170.6358    126.7641   9.5906587138e+01   2.2052316780e+01    0.1584229    0.1231294  20.96 0.0003036938    1.595    0.373
        43  -8.1655    106.2938    123.0322   1.1138988583e+02   3.6805511527e+01    0.2006068    0.1845512 -57.11 0.0002813832    1.061    0.058
        44  -8.9392     55.6888    237.0625   1.4103759599e+02   1.8667668531e+01    0.1654022    0.1264385  82.17 0.0004019442    1.098    0.089
        45  -9.0943    167.7066    113.3895   9.3193153758e+01   2.5544341296e+01    0.3531999    0.2696621  79.56    0.0011821    1.619    0.382
        46  -9.3757     12.9670    114.1891   1.3680942732e+02   5.0743139885e+01    0.1852415    0.1466666  84.72  0.001227667    1.356    0.263
        47  -9.3124     28.2984    249.5584   1.4678312052e+02   1.9686517563e+01    0.2017545   0.08067793  46.16  0.001125104    2.048    0.512
        48  -9.2822      1.9277     90.7036   1.3636894863e+02   5.6549699162e+01    0.1561518    0.1304336 -52.59  0.001146374    1.099    0.090
        49  -7.7771    144.0182     81.2888   8.9995978654e+01   3.7503587337e+01    0.1824748    0.1329363  49.79 0.0005141495    1.323    0.244
        50  -9.2128    181.4076     79.8757   8.1466347940e+01   2.8628367800e+01    0.3006308    0.2177467  43.70 0.0001420816    1.460    0.315
        51  -8.3992    158.5382     78.5182   8.5838818718e+01   3.4513252941e+01    0.1521013    0.1459053  63.86 0.0001586407    1.002    0.002
        52 -10.3075      3.9156     75.9781   1.3300984220e+02   5.9517966749e+01    0.3092897    0.1744517 -34.40  0.001897768    1.631    0.387
        53  -9.8176    237.1158     69.4372   6.9964435637e+01   1.7042773864e+01    0.2475456    0.2277731  81.07 0.0004205894    1.150    0.131
        54  -8.3760    241.2929     65.5473   6.8573762244e+01   1.6723454530e+01    0.1728946    0.1238891  56.96 0.0007828061    1.520    0.342
        55  -8.0931    122.9259     64.8959   9.0404716060e+01   4.5212478032e+01    0.1801232    0.1648231  70.31 0.0009906732    1.220    0.180
        56  -8.7219     10.9811     56.0000   1.2582660870e+02   6.3041853745e+01    0.1603196   0.06242579  17.50 0.0008034404    2.949    0.661
        57  -7.6647    179.6133     53.1971   7.4668761805e+01   3.3380672085e+01    0.1783259    0.1426104 -18.56 0.0004126661    1.536    0.349
        58  -7.9101    152.2601     45.2940   7.7563253187e+01   4.1291559208e+01    0.1377384    0.1050188  28.72 0.0001626233    1.499    0.333
        59 -10.3563    134.7022     42.0709   8.0324859612e+01   4.5936682822e+01     0.241274    0.2237541  49.87 0.0002744685    1.037    0.036
        60  -8.6752     40.7626    246.8092   1.4448421225e+02   1.8698506005e+01       0.1681   0.09937032  68.91  0.001056515    1.362    0.266
        61 -11.1633    194.1831     38.1223   6.8454558575e+01   3.1851796722e+01    0.7464051    0.5152825 -86.73  0.003841807    1.507    0.337
        62 -11.4990    199.0689     32.7082   6.6443439935e+01   3.1350628371e+01    0.6014768    0.5143169 -73.73  0.003625143    1.108    0.097
        63  -8.7465    229.6390     20.6610   6.0207132433e+01   2.5595239858e+01    0.2537485    0.1651079 -34.37  0.001433785    1.745    0.427
        64  -7.8219     14.9705     17.9822   1.1170020930e+02   6.9081373469e+01    0.1301465   0.09472903 -14.36            0    1.019    0.019
        65  -9.0115     30.7393    246.5544   1.4617819521e+02   1.9968580582e+01    0.1582437   0.07773103  54.19 0.0009452066    1.617    0.382
