#   1 NUMBER                 Running object number                                     
#   2 MAG_AUTO               Kron-like elliptical aperture magnitude                    [mag]
#   3 X_IMAGE                Object position along x                                    [pixel]
#   4 Y_IMAGE                Object position along y                                    [pixel]
#   5 X_WORLD                Barycenter position along world x axis                     [deg]
#   6 Y_WORLD                Barycenter position along world y axis                     [deg]
#   7 A_WORLD                Profile RMS along major axis (world units)                 [deg]
#   8 B_WORLD                Profile RMS along minor axis (world units)                 [deg]
#   9 THETA_WORLD            Position angle (CCW/world-x)                               [deg]
#  10 FWHM_WORLD             FWHM assuming a gaussian core                              [deg]
#  11 ELONGATION             A_IMAGE/B_IMAGE                                           
#  12 ELLIPTICITY            1 - B_IMAGE/A_IMAGE                                       
         1 -13.0604     37.4468     48.5110   7.2137941579e+01   6.2685069870e+01     2.033263     1.415799  64.12    0.0109205    2.629    0.620
         2 -10.1594     23.8671     42.8677   7.6006768040e+01   6.4950772748e+01     0.954616    0.2600274 -59.48  0.003538199    3.863    0.741
         3 -11.1789     79.6299     28.1863   4.8110222661e+01   6.0478240116e+01    0.6794695    0.4034455  -7.84  0.001235206    2.124    0.529
         4 -11.3182     11.6707     14.6138   7.1840377332e+01   7.0960314142e+01    0.4390241    0.2033024  -8.36  0.002262789    2.865    0.651
         5 -10.4182      5.2196     11.8392   7.4093235920e+01   7.1834303227e+01    0.1935683    0.1377593 -49.96  0.001406961    1.361    0.265
         6 -10.8059      9.3394      8.6947   7.0606921666e+01   7.2094703738e+01    0.2968983    0.2306177  12.41  0.002156516    1.475    0.322
         7  -9.8666     13.2167     23.2087   7.4333549489e+01   6.9369197405e+01     0.546058    0.2944357  -5.42  0.002546358    2.144    0.534
         8 -10.7821     18.6655     16.2777   6.8979413065e+01   7.0168650091e+01    0.4340072    0.2038576 -19.54  0.002227671    2.508    0.601
         9 -11.2517     19.3300      3.7234   6.2988429645e+01   7.2077744540e+01    0.8586935    0.3631245  19.48  0.004622172    2.655    0.623
        10 -10.6453     11.4882      3.5499   6.7131626522e+01   7.2750636931e+01     0.320531    0.1223763 -38.84  0.001303128    1.979    0.495
        11 -12.4316      3.3551     17.5569   7.7198020645e+01   7.0951066718e+01     0.475438      0.27654 -64.29  0.001179359    1.994    0.498
        12 -11.2659     23.1324     23.3271   6.9625164413e+01   6.8613405404e+01    0.4722825    0.1771693 -36.48  0.001316749    2.278    0.561
        13 -11.9259     30.9212     13.1289   6.1581167510e+01   6.9554716556e+01     0.408627    0.2211441 -43.13 0.0007178998    1.750    0.429
        14 -11.7159    128.9301     10.9092   2.7303157425e+01   5.2022171730e+01    0.4172323    0.3304907 -89.82  0.002267948    1.540    0.351
        15 -12.8491    237.9541     17.4369   1.3791862279e+01   2.3506464013e+01    0.3746865     0.276201 -74.49 0.0005348859    1.252    0.201
        16 -10.6534     50.4053     14.3985   5.3302194284e+01   6.7028337682e+01    0.3306913    0.2893238 -23.19  0.002305045    1.311    0.237
        17 -10.3329     55.0197     13.8367   5.1100282970e+01   6.6455064265e+01    0.3185079    0.1777916 -30.52   0.00111673    1.629    0.386
        18 -10.4123    120.7688     17.3135   3.1584264971e+01   5.3301587810e+01    0.2859763     0.239258 -66.38    0.0010811    1.536    0.349
        19  -9.6750     74.0058      6.0621   4.0188737588e+01   6.4299401612e+01    0.2983261    0.1732262   3.42  0.001517762    1.956    0.489
        20 -10.2480     74.5663      2.0308   3.8072131943e+01   6.4616843281e+01     0.307454    0.1692428  62.43  0.001449577    2.736    0.635
        21 -11.5399     76.8006     10.4818   4.1296189156e+01   6.3299090840e+01    0.6634247    0.2737737  39.89  0.003006392    2.250    0.556
        22 -11.1313     60.9806     13.4969   4.8533342444e+01   6.5604240510e+01    0.4185996    0.2673886  29.32  0.002151174    1.489    0.328
        23 -11.3033    155.2819     10.5684   2.2221225991e+01   4.5431478906e+01    0.4846773    0.2854676 -43.45  0.002280444    1.898    0.473
        24 -10.6798    177.2627     11.5658   1.9176445385e+01   3.9597053293e+01    0.2806729    0.1626992 -47.53  0.000462605    1.865    0.464
        25 -10.1032    138.5864     11.6300   2.5604676347e+01   4.9572197527e+01    0.2973009    0.2046343 -50.23  0.001492125    1.747    0.427
        26 -11.8420    234.7155     10.3940   1.2411967147e+01   2.5089453637e+01    0.3349939    0.2655685  89.64 0.0009026554    1.135    0.119
        27 -11.7077    233.1181      6.1510   1.1544163741e+01   2.5939102626e+01    0.2702391    0.2080532  76.30 0.0004664604    1.223    0.182
        28 -11.7388    145.9207      7.5364   2.2796020521e+01   4.8119546273e+01     0.529808    0.3206193 -13.00  0.002552902    1.936    0.483
        29 -11.0469    148.7556      2.0333   2.0421540807e+01   4.7892124674e+01    0.2393054    0.2000812  77.43 0.0003468685    1.166    0.142
        30 -10.2795    108.4079     10.3066   3.1839496943e+01   5.6875119786e+01    0.2209782     0.171735  19.72 0.0005929874    1.229    0.187
        31 -11.7590     27.6925      3.0156   5.8307188436e+01   7.1361766193e+01    0.2887886     0.230952  18.93  0.001758548    1.412    0.292
        32 -11.3506    241.3695      9.1731   1.1546818692e+01   2.3642076058e+01    0.2332463    0.1784955 -82.85 0.0003747993    1.160    0.138
        33 -10.1090    119.1055      9.0767   2.8760898854e+01   5.4546622842e+01    0.3170156    0.2638274 -78.32  0.001091974    1.553    0.356
        34  -9.9231     36.2317      7.8466   5.6539355777e+01   6.9741756667e+01    0.3392948    0.3121435  -1.86  0.002555724    1.434    0.303
        35 -12.0273    213.3950      5.4688   1.3204120749e+01   3.0876411384e+01    0.7444848    0.4277595 -62.83  0.003608722    1.794    0.443
        36 -10.1947    168.0149      1.9637   1.7514323872e+01   4.2933853034e+01    0.2037659    0.1779467  75.29  0.001198988    1.033    0.032
        37 -10.4450     91.7888      6.6311   3.4802443450e+01   6.0806993667e+01    0.2541397    0.1781503   9.11 0.0004596684    1.414    0.293
        38  -9.2779     43.2570      7.5965   5.3169417228e+01   6.8909475579e+01    0.1063831   0.08740353 -43.64 0.0006956673    1.719    0.418
        39  -9.6549     68.6423      5.7737   4.1946625798e+01   6.5279165424e+01     0.160695     0.104769 -29.60 0.0003151156    1.578    0.366
        40 -10.1349     59.5816      5.5865   4.5276596178e+01   6.6803165035e+01    0.2296432    0.1340548  42.35  0.001296614    1.752    0.429
        41 -10.0413    222.8718      4.9495   1.2168099842e+01   2.8565967095e+01    0.1864666    0.1765984  67.11 0.0007608368    1.215    0.177
        42  -9.5978    109.4692      5.0971   2.9431499635e+01   5.7140715043e+01    0.1808868    0.1277736  -9.39 0.0008547246    1.491    0.330
        43 -10.4785    179.0138      3.9217   1.6650977987e+01   3.9889185751e+01    0.2116201    0.1838975  78.56 0.0003054252    1.024    0.023
        44  -9.9507    206.3466     10.8579   1.5353338183e+01   3.2101162713e+01    0.2242117    0.1658605 -89.91 0.0003721342    1.264    0.209
        45 -11.8552    243.8637      2.8553   9.8996995408e+00   2.3748476190e+01    0.3323604    0.2166746 -65.51  0.001294781    1.374    0.272
        46  -9.4840    126.3600      2.7253   2.4742311483e+01   5.3400428631e+01    0.1734586    0.1239564   2.98 0.0004870005    1.554    0.357
        47 -10.3417     90.9571      2.0348   3.2989600011e+01   6.1420214530e+01     0.197883    0.1632671   1.10 0.0003092994    1.162    0.139
        48 -11.0515    164.5891      5.7659   1.9197408740e+01   4.3478283308e+01    0.6185961    0.2136592 -23.57  0.002311269    3.164    0.684
        49  -9.1027    183.3387      1.3243   1.5353427840e+01   3.9003806158e+01    0.1456599    0.0922146  42.76 0.0007051168    1.723    0.420
        50 -10.1739    244.6686    188.0347   5.2543582454e+01  -3.6400612649e+00    0.1841567    0.1500456  -6.49 0.0004614769    1.113    0.102
        51 -11.0451    248.7384    248.2242   6.2405688793e+01  -1.1497949282e+01    0.4300929    0.2137009   1.80  0.002107084    3.033    0.670
        52 -12.4180    226.2869    246.3103   6.5937626171e+01  -7.9728458236e+00    0.5558515    0.3570418  -3.48  0.003463739    1.785    0.440
        53 -12.4492    233.0920    246.4735   6.4787617538e+01  -9.0229944322e+00    0.4293037    0.3233409  -8.43   0.00305459    1.372    0.271
        54 -11.8417     89.1367    249.3698   9.0753264923e+01   1.3342756305e+01    0.3766507    0.1916263  45.41  0.001078597    1.551    0.355
        55 -10.0825     72.3310    250.3253   9.3679006524e+01   1.5517299462e+01    0.1786991    0.1145591  40.14 0.0006925014    1.610    0.379
        56 -11.7665     28.7316    245.7432   1.0046002410e+02   2.1643578559e+01    0.4590731    0.2012807  86.18  0.002823758    2.097    0.523
        57 -11.7290     18.6264    237.0781   1.0162129721e+02   2.4227570200e+01    0.4361703    0.2053474  54.89  0.002950933    1.555    0.357
        58 -12.6322      6.4896    245.1856   1.0382635725e+02   2.4061569133e+01    0.5760072    0.3326437  76.91  0.003912112    1.221    0.181
        59 -12.0490     22.4936    248.6568   1.0156355597e+02   2.1830341335e+01    0.3647527    0.1878844  55.29  0.002196853    1.392    0.282
        60 -10.7228     17.4834    247.4232   1.0226945592e+02   2.2568866753e+01    0.2002186    0.1155651  77.39 0.0004727134    1.275    0.216
        61 -11.6761     14.4185    244.7273   1.0261706651e+02   2.3342588400e+01    0.3146748    0.1490737 -83.94   0.00132344    1.825    0.452
        62  -9.7248     61.9667    184.7134   8.9844679121e+01   2.9396165613e+01    0.1781095    0.1419158  73.77  0.001154948    1.037    0.036
        63 -11.9057     15.8254    181.6908   9.8969963239e+01   3.5138800804e+01    0.3771455    0.1950004  65.82  0.002020158    1.674    0.403
        64  -9.7360    142.6926    183.6790   7.2105719111e+01   1.6477415714e+01    0.1356646    0.1115193   4.28 0.0003247901    1.641    0.390
        65  -9.7374     58.9589    181.7083   9.0164188306e+01   3.0428105963e+01    0.1745963    0.1374014  65.03 0.0005203476    1.119    0.107
        66 -10.2571     22.4167    179.7704   9.7535472607e+01   3.4920076579e+01    0.3537505     0.130214  51.74  0.001554226    2.417    0.586
        67  -9.5243      1.7950    180.1623   1.0156168480e+02   3.6666072099e+01     0.137482    0.1054415 -76.11 0.0006730296    1.330    0.248
        68  -9.9250    244.4088    178.3186   5.0659635379e+01  -2.2222500456e+00    0.2534546    0.1195777 -27.21  0.001129805    2.203    0.546
        69 -10.0998    167.5219    182.9838   6.6636247142e+01   1.1790621108e+01    0.2033495    0.1429576 -44.88  0.001028682    1.581    0.367
        70  -9.4292    118.6680    176.6882   7.6281706151e+01   2.2346936253e+01    0.1326816    0.1128654  -3.23  0.000704381    1.676    0.403
        71 -10.6689     18.2284    172.6380   9.7845862076e+01   3.6821432314e+01     0.266342    0.1452321  60.84  0.001622522    1.640    0.390
        72 -12.0187     34.2477    166.1925   9.3926738555e+01   3.6663466403e+01    0.4930824    0.2416837  43.30  0.002721437    1.991    0.498
        73 -11.1020     35.9817    160.9252   9.3030151402e+01   3.7649825792e+01    0.2929713    0.2468555 -26.24  0.001947538    1.793    0.442
        74 -10.0016     25.8751    169.5297   9.6016152788e+01   3.6770699447e+01    0.1560898    0.1096756  39.92  0.001030564    1.595    0.373
        75  -9.6495    176.7267    168.6813   6.1920638794e+01   1.2611561209e+01    0.1435265    0.1128685   4.56 0.0002412152    1.567    0.362
        76 -10.7810      5.3243    168.0094   1.0012963046e+02   3.8904113580e+01    0.1629891     0.112876 -89.89 0.0009209173    1.074    0.069
        77 -11.8955     51.7213    162.1241   8.9596059264e+01   3.5636496062e+01    0.6590034    0.4063152 -81.40   0.00204251    1.458    0.314
        78  -9.8304     67.2225    165.3756   8.6429743063e+01   3.2947036056e+01    0.1891275    0.1042621  49.93 0.0009562648    1.738    0.425
        79  -8.9108    112.0000    164.0195   7.5722749390e+01   2.6272888248e+01    0.2239317    0.0792581 -56.16 0.0007952907    2.893    0.654
        80  -8.8990     93.3039    166.6971   8.0549312527e+01   2.8821900152e+01     0.141614    0.0958544  73.45 0.0003312539    1.595    0.373
        81  -9.3637    221.2423    160.9916   5.1287410892e+01   4.8311269873e+00    0.1746904    0.1167726 -33.38 0.0003652891    1.504    0.335
        82 -11.7096     21.0464    156.9815   9.5974409252e+01   3.9958265819e+01    0.4112709    0.3324952 -20.22  0.002793955    1.965    0.491
        83  -9.0506      7.6631    157.3034   9.8896735915e+01   4.1003417802e+01    0.1192047   0.06487269  68.95 0.0004067174    1.668    0.400
        84  -9.5681    216.2353    154.6064   5.0856846195e+01   6.9242520363e+00    0.1982697    0.1290192  34.87 0.0002902453    1.529    0.346
        85 -10.6573     11.0731    153.0739   9.7834063156e+01   4.1653696445e+01    0.2588909    0.1815863  42.28  0.001792631    1.592    0.372
        86  -9.8234    235.6500    152.9009   4.6869671168e+01   3.2873599216e+00    0.2093226    0.1197428 -43.85 0.0009459914    1.911    0.477
        87  -8.9242    105.6889    152.6948   7.5264165240e+01   2.9919213254e+01     0.135787    0.1148735 -17.94 0.0005433306    1.614    0.381
        88  -9.4564    222.8175    151.4312   4.8902099639e+01   6.1082040991e+00     0.199763     0.129054  33.67 0.0006467137    1.572    0.364
        89  -9.7893    176.8000    150.0460   5.7968761765e+01   1.6195404328e+01     0.228552    0.2075321  84.16 0.0006886845    1.256    0.204
        90  -9.7816     20.2868    146.9177   9.5222268009e+01   4.2257177915e+01    0.2914462    0.1240495  70.45 0.0009564974    2.890    0.654
        91  -9.8551    207.4826    146.4993   5.0757958111e+01   1.0190577299e+01    0.1489453    0.1389085  10.92 0.0008103849    1.016    0.016
        92  -9.4051     41.1278    146.1404   9.0205448389e+01   4.0455697715e+01    0.1688062    0.1222428  72.71  0.000434469    1.306    0.235
        93 -10.4068      7.7510    145.3081   9.7937409581e+01   4.3609233299e+01    0.2404778    0.1511506  54.49  0.001579034    1.590    0.371
        94 -10.8167    217.8535    144.8590   4.8366638986e+01   8.2658779593e+00    0.4046121    0.1787807  38.39  0.001520111    2.437    0.590
        95  -9.7348    187.5115    144.0594   5.4307692434e+01   1.5009595498e+01    0.2373171    0.1910707  42.67 0.0004392567    1.199    0.166
        96 -10.3211     76.2958    142.3845   8.0873987569e+01   3.6978997454e+01    0.2303601    0.1615777  53.65  0.000235917    1.444    0.307
        97 -10.0690    240.0731    140.0782   4.3233809814e+01   4.4749493573e+00    0.2135782    0.1958585 -10.50  0.000466039    1.031    0.030
        98 -10.2743     13.3738    139.8463   9.6164361914e+01   4.4395549695e+01    0.1805604    0.1373974  65.78 0.0008008632    1.285    0.222
        99  -9.4843    144.1062    137.1785   6.2634423246e+01   2.5948688679e+01    0.2062226    0.1791136  88.39 0.0004467668    1.273    0.214
       100 -10.2701      9.3669    136.1239   9.6765008769e+01   4.5522483974e+01    0.1629292     0.138077 -75.50  0.000321568    1.187    0.157
       101 -10.7733    241.2897    134.3106   4.1713480168e+01   5.1645822289e+00    0.2471718    0.2276864 -34.90 0.0004686728    1.140    0.123
       102  -9.9483     20.8142    134.3841   9.3827399014e+01   4.5035068506e+01    0.2147306    0.1281284 -85.85 0.0008303005    1.433    0.302
       103 -10.2316      2.9555    134.6710   9.8146786921e+01   4.6285727554e+01    0.1565742    0.1237146 -87.63 0.0005878123    1.068    0.064
       104 -11.6435     54.0703    132.4151   8.5071219321e+01   4.2209437906e+01    0.5153874    0.2784211  24.90   0.00203906    2.433    0.589
       105 -11.0209     59.9653    131.3515   8.3343034723e+01   4.1751054627e+01    0.3039428    0.1988476 -25.08  0.001311566    2.510    0.602
       106 -10.7985     79.5848    132.0511   7.8219327177e+01   3.8928999876e+01    0.2326564    0.2003834  44.95 0.0003223947    1.244    0.196
       107 -11.7947     36.5972    130.9412   8.9429470587e+01   4.4417535568e+01    0.3820973    0.2879278 -58.21  0.002412769    1.278    0.218
       108 -11.3590     73.6970    128.9066   7.9232848054e+01   4.0517415606e+01    0.3130832    0.2782311  70.01  0.001428742    1.134    0.118
       109  -9.4531    127.0017    129.7609   6.5220717527e+01   3.1139061575e+01    0.1993341     0.126692  44.04 0.0005741954    1.567    0.362
       110  -9.3923     56.5382    126.6051   8.3494983213e+01   4.3283786063e+01    0.1300419    0.1137191 -77.04 1.438534e-05    1.023    0.022
       111 -11.0522     15.1010    125.4547   9.4289611968e+01   4.7500985754e+01    0.3105114    0.2095911  30.31  0.002016547    1.823    0.451
       112 -11.1604     10.7996    122.5737   9.5075479310e+01   4.8456101386e+01    0.3167417    0.1869883 -81.99  0.001472703    1.370    0.270
       113 -10.3281     45.5518    124.7782   8.6186630233e+01   4.4946531566e+01    0.1773418    0.1086984 -80.05 0.0003743045    1.554    0.356
       114  -9.4602    219.5138    123.9958   4.3162040296e+01   1.1557860508e+01    0.2114181     0.130172  -9.26 0.0008093969    2.460    0.593
       115  -9.6863     61.2612    122.9111   8.1574147985e+01   4.3579227133e+01    0.1895916    0.1536804 -69.62 0.0004881214    1.080    0.074
       116 -10.6346    243.6802    122.1129   3.8492694238e+01   6.6591467743e+00    0.2084983    0.1694989 -27.09 0.0006596375    1.140    0.123
       117 -10.2496     20.2160    121.2091   9.2478148361e+01   4.8080797400e+01    0.2751654    0.1089294 -67.39   0.00134743    1.930    0.482
       118 -10.4258      1.3834    118.5941   9.7069632870e+01   4.9942900583e+01    0.2101929   0.08391721 -74.68 0.0002265635    1.874    0.466
       119  -9.6454     77.8537    117.9006   7.5964566081e+01   4.2519396366e+01    0.1813354    0.1502444 -89.60            0    1.253    0.202
       120 -11.2012     30.2291    117.6475   8.9322729689e+01   4.8079127851e+01    0.2619111    0.1833065  -9.84 0.0007547991    2.157    0.536
       121 -10.5530    182.9594    114.1936   4.8014876866e+01   2.1882981083e+01    0.3246607    0.2711544  34.08 0.0008193926    1.238    0.192
       122  -9.5500     86.2770    116.0348   7.3179768620e+01   4.1680287783e+01    0.2057412    0.1696678 -61.36 0.0004313674    1.125    0.111
       123 -10.9995     52.4672    115.3818   8.2729353068e+01   4.6395114457e+01    0.3329837    0.1997522 -86.42  0.000810702    1.967    0.492
       124 -12.1888     15.6924    114.4858   9.2867499100e+01   4.9945323380e+01     0.516783    0.2912043  85.87 0.0008749352    1.810    0.448
       125 -11.6795     16.3946    108.5936   9.1928613027e+01   5.1234205764e+01     0.601656    0.2743317  41.95  0.003185584    2.504    0.601
       126 -11.0422    249.6067    111.9404   3.5162691604e+01   7.0698520200e+00    0.2934404    0.2352706 -42.68 0.0007438996    1.209    0.173
       127 -10.6999     94.2733    112.4099   7.0091037242e+01   4.1222591325e+01    0.3140734     0.280709 -26.59  0.001079409    1.247    0.198
       128  -9.1178    121.3032    111.7028   6.2394295381e+01   3.6358120899e+01     0.152755    0.1205886  86.65 0.0004497528    1.582    0.368
       129 -11.4543     54.9326    108.9348   8.0836911232e+01   4.7624839965e+01    0.3717428    0.2698508 -64.24 0.0009533566    1.194    0.162
       130 -10.7036     51.4908    103.5861   8.0837699733e+01   4.9261564463e+01    0.2616591    0.2272312  63.10  0.000771226    1.280    0.219
       131 -10.7979     58.4775    104.2557   7.8857756976e+01   4.8299683911e+01    0.3424559    0.2039449  12.33  0.001146795    2.561    0.610
       132 -11.8525     62.5302     98.6302   7.6424549272e+01   4.9106039864e+01    0.4033366      0.33462 -13.81  0.002351685    1.453    0.312
       133 -11.2730      2.3881    107.3680   9.5644309496e+01   5.2382284451e+01    0.3900655    0.1880449 -67.44  0.001924431    1.529    0.346
       134 -10.1313     84.5242    107.3555   7.1748420088e+01   4.3979593572e+01    0.2966251    0.2265484 -39.31  0.001550659    1.358    0.264
       135  -9.5587     35.2551    107.7849   8.6415457084e+01   4.9915848569e+01    0.1679024    0.1294248 -43.75 0.0008028268    1.357    0.263
       136 -11.6750     25.4065    105.4568   8.8918134986e+01   5.1283725074e+01    0.3710906    0.3600173  66.28 0.0009943567    1.248    0.198
       137 -10.3428    111.6223    105.8239   6.3563583810e+01   3.9592759069e+01    0.2998486    0.1935307  37.10            0    1.654    0.395
       138  -9.8209    119.2164    104.3432   6.1066081612e+01   3.8421477536e+01    0.2121409    0.1917576 -31.56  0.001103461    1.144    0.126
       139 -11.1341     72.3596    115.9865   7.7143930614e+01   4.3752321970e+01    0.3960204    0.2433656 -69.48  0.001373128    1.636    0.389
       140  -9.4375     93.9466    103.5633   6.8071944049e+01   4.3316870623e+01    0.2025627    0.1444324  38.20 0.0003198815    1.497    0.332
       141 -10.3962     37.8364    102.5395   8.4767150082e+01   5.0892007885e+01    0.2751785    0.2008284  77.70  0.001564185    1.557    0.358
       142 -10.5520     14.4697    102.0749   9.1603534061e+01   5.2840986381e+01     0.180366    0.1677118  84.73 0.0009916053    1.222    0.181
       143 -11.2308    107.8852     99.5852   6.2996278738e+01   4.1705235777e+01    0.2642952    0.2317908 -53.49 0.0002668171    1.108    0.097
       144 -10.5631    144.1667     98.6598   5.2904498145e+01   3.4228246672e+01    0.3564777    0.2940716 -77.33  0.001554096    1.454    0.312
       145  -9.8394     21.4936     99.0848   8.9104052309e+01   5.3033359498e+01    0.1948764   0.09746248 -68.50  0.001033444    1.592    0.372
       146 -10.0315      9.7912     99.1773   9.2569359992e+01   5.3786988496e+01    0.1706002    0.1265239 -86.43  0.001148983    1.220    0.181
       147  -9.9534     41.9151     97.4048   8.2580209318e+01   5.1687529239e+01    0.2583651    0.1399233  77.65   0.00103935    3.408    0.707
       148 -10.5155    101.4303     95.6734   6.3831490844e+01   4.3778433882e+01    0.2558035    0.1383504  40.31  0.001072386    1.943    0.485
       149 -11.6881    159.8391     90.9296   4.6885890950e+01   3.2069570163e+01    0.6728587    0.5359593  87.51  0.003073551    1.575    0.365
       150 -11.0052    156.3504     83.3109   4.5487989651e+01   3.4398180447e+01    0.5392938    0.5010627  -3.21  0.002765817    1.142    0.125
       151 -10.0623    227.2294     92.8983   3.4097895601e+01   1.5155688491e+01    0.2299475    0.1914129 -54.67 0.0005793217    1.230    0.187
       152 -10.3744      1.6877     92.4828   9.4073304956e+01   5.5721458759e+01    0.2090373   0.08054718 -71.54  0.000706618    1.941    0.485
       153 -11.1649     38.0480     90.0738   8.2371302163e+01   5.3728851761e+01    0.6232351    0.1465359 -56.46  0.002332646    2.975    0.664
       154  -9.4791     31.4042     92.5043   8.4953930270e+01   5.3758235748e+01    0.1259305    0.1002267 -62.13  0.000108294    1.021    0.020
       155 -10.3856     73.9565     89.1921   7.0575431754e+01   4.9719021924e+01    0.2617175    0.1802847 -47.84  0.001354802    1.308    0.236
       156 -11.2726     22.4058     87.2122   8.6867979199e+01   5.5649398969e+01    0.3333014    0.1683771 -53.35 0.0005425687    1.583    0.368
       157  -9.5001     10.7061     90.6366   9.1098327929e+01   5.5642703629e+01    0.1298633    0.1078851  41.76 0.0004696786    1.490    0.329
       158 -10.9350     95.6863     88.8462   6.3688181785e+01   4.6316046513e+01    0.4825219    0.2305939  45.45  0.001939436    2.276    0.561
       159 -10.6540     83.4456     88.4683   6.7377685687e+01   4.8447765742e+01    0.2545137    0.2354997  33.49 0.0005927731    1.170    0.145
       160 -10.6156     78.8849     87.5177   6.8567375487e+01   4.9365443278e+01    0.2685297    0.1917773 -50.30  0.001393613    1.276    0.216
       161 -10.6208     47.9226     88.1793   7.8768503541e+01   5.3185856532e+01    0.2135639    0.1576714 -58.03 0.0003214606    1.150    0.131
       162  -9.0497     31.3876     89.2724   8.4358550512e+01   5.4492291548e+01     0.127382   0.07989156 -36.18 0.0006993254    1.716    0.417
       163 -11.0737     65.6694     87.3208   7.2772251475e+01   5.1279895891e+01    0.5526925    0.3227831 -82.03  0.002179984    3.146    0.682
       164 -11.1106     67.6627     84.0271   7.1281527608e+01   5.1749651226e+01    0.4224489    0.3030073  -9.92  0.001420147    1.837    0.456
       165 -10.0282      9.4693     86.0055   9.0786009572e+01   5.6742554867e+01    0.1994225     0.140446  59.28 0.0009874438    1.728    0.421
       166 -11.7266    166.5030     83.6424   4.3248217164e+01   3.1819535527e+01    0.8551982    0.3614022  54.15  0.002942286    2.386    0.581
       167 -10.2092    116.4510     84.2749   5.6216625115e+01   4.3311961303e+01    0.3349348    0.2230364 -21.36  0.001420378    1.946    0.486
       168 -11.4800     30.6792     82.0238   8.3170258715e+01   5.6178726629e+01    0.3363339    0.2772083  76.48  0.002099558    1.438    0.304
       169 -10.7339     74.1638     82.5606   6.8759619569e+01   5.1161892074e+01    0.2661651    0.2338147 -45.10 0.0005091512    1.026    0.025
       170  -9.3983     15.9787     83.5437   8.8305897834e+01   5.6900224816e+01    0.1434013    0.1193566  13.57 0.0005199663    1.523    0.343
       171 -10.4386     42.2313     81.6692   7.9206730371e+01   5.5225988036e+01    0.2376077     0.145285 -71.63  0.000878525    1.712    0.416
       172 -10.3551     21.6609     81.6648   8.6106444514e+01   5.6939963634e+01    0.2956459    0.1174858 -47.11   0.00142463    2.162    0.537
       173 -10.3184      7.3126     80.9640   9.0690286142e+01   5.7971308279e+01    0.2959818    0.1490419 -50.57  0.001248186    1.624    0.384
       174 -10.1771      2.8581     78.7613   9.1791456785e+01   5.8675807102e+01    0.2558314    0.1013214 -59.82  0.001367786    1.768    0.434
       175  -9.7796     58.7785     79.3737   7.3040038418e+01   5.3921175456e+01    0.1697239    0.1270695  10.88 0.0005879129    1.609    0.378
       176 -11.3163     12.7641     75.6527   8.7988268123e+01   5.8832646242e+01    0.4915626    0.3119208  59.59  0.002922173    2.125    0.529
       177 -13.7275     16.5469     67.2489   8.5037758492e+01   6.0426376121e+01    0.5583311    0.3895444 -74.94 0.0007106551    1.406    0.289
       178 -11.4373     11.5829     56.6896   8.4601952529e+01   6.2950985959e+01    0.6141254    0.3371895  65.25  0.002210148    3.681    0.728
       179 -11.5568     11.1594     61.6141   8.5829581178e+01   6.1941329199e+01    0.2984412    0.2314292 -13.58 0.0001039978    1.484    0.326
       180 -11.7512      6.8151     71.9122   8.9352600136e+01   5.9968116037e+01    0.5583102    0.3688515 -60.62  0.003126243    1.134    0.118
       181 -12.0483      2.6579     62.9712   8.9208765867e+01   6.2076296353e+01    0.7510511    0.2489724 -60.72  0.003791632    2.023    0.506
       182 -11.2887     12.7878     49.7020   8.2476126885e+01   6.4321187489e+01    0.4146304    0.1983075 -58.95  0.002237241    1.624    0.384
       183 -10.9096     11.0140     44.4019   8.1850274632e+01   6.5488708559e+01    0.2705163    0.1660952 -57.16 0.0006108432    1.298    0.230
       184 -11.5003      3.4498     48.5134   8.5951175315e+01   6.5040466678e+01    0.4609969    0.2407407 -60.42  0.002100145    1.440    0.305
       185 -11.1339      7.1988     42.9395   8.3070131121e+01   6.5982410647e+01    0.6908259    0.1395427 -61.76  0.002636067    3.752    0.733
       186 -10.1346    184.3368     75.9710   3.7259417287e+01   2.8680815303e+01    0.3901536    0.1827142 -35.81  0.001437471    2.135    0.532
       187 -11.9116     44.5588     74.5897   7.6731809419e+01   5.6558257865e+01    0.2541831      0.21687 -72.27  0.001621295    1.248    0.199
       188  -9.7118    107.6108     74.7978   5.5909814320e+01   4.7044308463e+01    0.2136237    0.1362897 -52.07 0.0009456125    1.683    0.406
       189  -9.9920     74.8941     74.8025   6.6334348908e+01   5.2732101638e+01    0.3314519    0.1899494   3.80  0.001206626    3.667    0.727
       190 -12.4507     50.6888     68.5215   7.2969641480e+01   5.7215669177e+01     0.621205    0.5514651 -71.76 0.0009927248    1.275    0.216
       191 -10.8619    167.8481     73.3649   3.9911206932e+01   3.3355993343e+01    0.2895302    0.2594629 -61.39 0.0003611836    1.180    0.152
       192 -10.1413    167.8815     69.5154   3.8744683499e+01   3.4023140846e+01    0.2336151     0.214231  16.87 0.0004242437    1.169    0.145
       193 -11.2455    103.7903     70.8959   5.5829873031e+01   4.8575122462e+01    0.5309223    0.2809304 -23.96  0.001669002    2.883    0.653
       194 -10.0591    120.3698     60.7739   4.7615422317e+01   4.7045250132e+01     0.306095    0.1999301  63.24  0.001326422    1.935    0.483
       195  -9.7848     77.5765     69.5299   6.3851570269e+01   5.3431314869e+01    0.1384773    0.1246119 -35.16 1.137046e-05    1.025    0.025
       196 -10.8361     43.2329     67.4536   7.5378843280e+01   5.8232010633e+01    0.2210739    0.1769689 -62.76 0.0006591369    1.243    0.196
       197 -11.6657     44.9786     46.4655   6.8439337735e+01   6.2313670856e+01     0.814083    0.2383104 -52.10  0.003070872    3.204    0.688
       198 -11.7047     44.9768     38.2171   6.5546923289e+01   6.3852260989e+01    0.2207625    0.2064221  10.20            0    1.289    0.224
       199 -12.2197     30.2089     62.6982   7.8961945582e+01   6.0421246887e+01    0.5936438     0.458027 -57.77  0.003889897    1.147    0.128
       200 -11.9743     37.0264    242.8752   9.8992902096e+01   2.1198805062e+01    0.4943254    0.2240565  85.44  0.002103451    2.102    0.524
       201 -10.7617     72.9920    244.5150   9.3131660048e+01   1.6403054163e+01    0.2822748    0.1752003  28.56  0.001646959    2.455    0.593
       202 -11.4032     30.2421     32.3006   6.9723459209e+01   6.6413772509e+01    0.2818156    0.2086955  12.16  0.000270041    1.454    0.312
       203 -12.8446     27.6283     37.8598   7.2803598504e+01   6.5613462398e+01    0.2577699    0.1839581 -41.40 0.0004361084    1.113    0.101
       204 -12.4173     24.7497     34.7502   7.3022048434e+01   6.6430454674e+01    0.2026356    0.1740492 -43.30  0.000500754    1.209    0.173
       205  -9.3285    140.0528     66.2027   4.4179435658e+01   4.1534101036e+01    0.2086724    0.1201702  50.26 0.0008516006    1.702    0.413
       206  -9.8881     81.2128     65.4806   6.1349635813e+01   5.3681419810e+01    0.2848943    0.2177161 -76.73  0.001262686    1.930    0.482
       207 -10.6269     76.9643     62.0938   6.1703388487e+01   5.5031718840e+01    0.2371803     0.208531  13.09            0    1.174    0.148
       208 -11.3645    122.7428     67.1521   4.9074863495e+01   4.5353963492e+01    0.4258343     0.239962 -41.81  0.001140854    1.777    0.437
       209 -11.3190    155.4100     63.3082   3.9577062259e+01   3.8259967471e+01    0.4986163    0.2686406  52.69 0.0007462118    1.790    0.441
       210 -12.0876    201.9970     62.5594   3.0226620340e+01   2.6360485161e+01    0.2755243    0.2499798 -34.14 0.0001222592    1.128    0.113
       211 -10.3173    131.5164     69.0111   4.7293466414e+01   4.3027833955e+01    0.2305029    0.1500836 -38.31 0.0007766522    1.539    0.350
       212 -10.4603     51.8964     62.4761   7.0809230381e+01   5.8347780842e+01    0.2700213    0.1965325 -26.22    0.0014912    1.366    0.268
       213 -11.0217     46.3680     60.3269   7.2237935692e+01   5.9403515126e+01    0.3491667     0.235539 -45.65 0.0008633774    1.237    0.191
       214 -11.0302     27.5473     54.1489   7.7746275845e+01   6.2411834062e+01    0.3913339    0.1763411 -50.56  0.001164223    1.698    0.411
       215 -10.3494     69.4784     61.9825   6.4287003556e+01   5.6175986914e+01    0.2944534    0.1568608 -51.09 0.0005570119    1.819    0.450
       216 -10.1876    113.6648     61.0786   4.9634581953e+01   4.8440096167e+01    0.2221774    0.2065708  69.83 0.0005408733    1.239    0.193
       217 -11.7596     98.2883     58.9241   5.3565651770e+01   5.1936408986e+01    0.5327896    0.3772625 -31.59  0.001020812    1.375    0.273
       218 -12.4746    105.1618     52.3411   4.9122033207e+01   5.1760978183e+01    0.4270762    0.3622049  50.86 0.0003228618    1.284    0.221
       219  -9.8571    169.0922     60.0937   3.5613964533e+01   3.5297650893e+01    0.2294137    0.2022907  29.62            0    1.203    0.169
       220  -9.5242    138.0150     60.2335   4.2743544507e+01   4.3071382887e+01    0.2054464    0.1898169  47.26 0.0002088347    1.068    0.064
       221 -10.0797    127.1134     58.9873   4.5160749381e+01   4.5844642181e+01    0.2191869     0.208618  21.02 0.0003058507    1.014    0.013
       222 -10.7287     85.4889     58.4965   5.7593563889e+01   5.4335857296e+01    0.2509558    0.1220359 -33.36 -1.172231e-05    2.171    0.539
       223 -10.7686     58.3764     58.8951   6.7323586141e+01   5.8296961250e+01     0.315841    0.2265503  19.59  0.001797822    1.553    0.356
       224  -9.5999    134.6436     58.0907   4.2885474193e+01   4.4242690657e+01    0.2046726    0.1919787 -21.49 0.0004949049    1.076    0.070
       225 -10.4412     80.9525     55.4990   5.8105231179e+01   5.5666034837e+01    0.4343116    0.2558754 -13.18  0.001787753    2.646    0.622
       226 -10.3429    115.2347     56.4748   4.7600504985e+01   4.8927484445e+01    0.3272692    0.1454066  50.57 0.0009421423    2.333    0.571
       227  -9.6188     78.4709     47.4245   5.6086602125e+01   5.7553365540e+01    0.2536953    0.1212422 -36.11 4.433783e-05    1.991    0.498
       228 -10.2618     77.7336     50.5689   5.7487663591e+01   5.7106991124e+01     0.357964    0.1830689  37.97  0.001475658    2.059    0.514
       229 -10.5417     75.3217     55.3354   6.0012190427e+01   5.6601273432e+01    0.4039355    0.1961291 -40.41 0.0008671939    1.893    0.472
       230 -10.2288     73.3288     51.3030   5.9315013899e+01   5.7668885581e+01    0.2809833    0.1873588 -17.97 0.0007726579    1.676    0.403
       231  -9.3236    230.3877     55.1974   2.4006424468e+01   2.0351410320e+01    0.2081749    0.1201638 -44.01 0.0009381558    1.624    0.384
       232 -10.3772    182.1322     54.7794   3.1465071664e+01   3.2740914033e+01    0.2331894    0.2135602 -33.56 0.0003245185    1.132    0.117
       233 -10.6713     89.2500     54.2856   5.4874230586e+01   5.4463020817e+01    0.2563878    0.1928258  72.67  0.001237967    2.141    0.533
       234  -9.4589     88.4988     50.4487   5.3751486072e+01   5.5289365528e+01    0.2335148    0.1297328 -37.67 0.0006872631    1.713    0.416
       235 -11.8880    130.3233     49.9533   4.1216909076e+01   4.6610883744e+01    0.6564081    0.5410087  65.57  0.002346133    1.339    0.253
       236 -10.8132     57.4920     51.0568   6.5093296465e+01   5.9951850897e+01    0.2939978    0.1943459 -36.72  0.001421136    1.321    0.243
       237 -11.3847     51.7441     47.1349   6.5978349597e+01   6.1412879989e+01    0.5434555    0.2214945 -47.76  0.002050628    2.155    0.536
       238 -10.2936     61.9788     48.0215   6.2337334651e+01   5.9932630972e+01    0.4679078    0.1762679 -37.35  0.001873492    2.606    0.616
       239 -10.6515     57.4498     45.2086   6.3071985600e+01   6.1059579241e+01    0.4912277     0.274846 -56.95  0.001633165    2.295    0.564
       240 -12.3546     57.1395     34.6268   5.9212735502e+01   6.2976054251e+01    0.6587753    0.4124335 -33.64  0.003693082    1.403    0.287
       241  -9.6870    169.5176     52.0100   3.3025224669e+01   3.6465967153e+01    0.2071179    0.1208861 -56.55 0.0003878787    2.184    0.542
       242  -9.6095    120.0063     52.4807   4.4858784280e+01   4.8564899915e+01    0.2071518    0.1178953  27.99 0.0003898071    2.288    0.563
       243 -10.4099    102.8547     47.4024   4.8037395041e+01   5.3068994022e+01    0.3952495    0.2207637  29.44  0.001675069    2.126    0.530
       244  -9.2460     68.9806     47.9826   5.9709216664e+01   5.8940226314e+01    0.1560537    0.1368503 -14.21 0.0003519704    1.029    0.028
       245 -11.2422     95.8507     42.1869   4.8278070325e+01   5.5315466900e+01    0.5715838    0.3346044 -14.01  0.002458507    2.256    0.557
       246 -10.5769     90.3679     40.8727   4.9552689537e+01   5.6573787741e+01    0.3330221    0.2673051  89.37    0.0016628    2.090    0.522
       247 -10.4997    150.4706     44.3253   3.4504514157e+01   4.2530267744e+01     0.435914    0.2331108 -55.31  0.001613096    2.672    0.626
       248 -10.3162    148.0632     38.9020   3.3201312317e+01   4.3917837055e+01    0.2575024     0.216811 -53.49 0.0004373274    1.320    0.242
       249  -9.5774    143.1871     45.7411   3.6620821986e+01   4.4148741211e+01     0.205165    0.1668646  23.38 0.0005345502    1.317    0.240
       250  -8.9386     85.6732     46.7288   5.3338402411e+01   5.6445566272e+01    0.1392247    0.1007356   3.74 0.0002523285    1.580    0.367
       251  -9.4958    171.3506     44.7920   3.0421487591e+01   3.7060525056e+01    0.1979349     0.144912 -12.66 0.0009136893    1.630    0.387
       252 -10.9688    121.2658     43.1144   4.1169698482e+01   4.9782315765e+01    0.4065388    0.3549227  -4.71  0.001809254    1.151    0.131
       253 -10.1867    112.8689     45.1150   4.4228601314e+01   5.1339561176e+01     0.233431     0.166703  13.26 0.0008471839    1.653    0.395
       254  -9.9908    110.8380     41.8038   4.3588188230e+01   5.2298116912e+01    0.2542909    0.1993724 -55.83   0.00130052    1.608    0.378
       255 -11.6922     83.5453     36.6539   5.0200821230e+01   5.8495087346e+01    0.8032925    0.3280228 -27.41 0.0009228432    2.938    0.660
       256 -10.6362     72.8286     42.8436   5.6400969530e+01   5.9267962081e+01    0.2539207    0.1990763 -46.28            0    1.396    0.284
       257 -13.1571     75.2283    238.4574   9.2267834275e+01   1.7140288994e+01     0.582138    0.4942428 -84.24  0.004432854    1.358    0.264
       258 -10.9257     67.0057     41.0347   5.7871123928e+01   6.0474463548e+01     0.236844    0.1593165 -30.29 0.0007369951    1.346    0.257
       259 -10.7711     68.9874     37.5256   5.5771177063e+01   6.0773554499e+01    0.4339119    0.2467286  -0.59  0.001799924    2.957    0.662
       260 -10.6161     77.2895     33.3412   5.1062072431e+01   6.0105362350e+01    0.2529639     0.178507  -5.62 0.0004585315    1.493    0.330
       261  -9.8951     61.9837     52.7044   6.3957847806e+01   5.9044825468e+01    0.2000728    0.1537254 -39.92 0.0003945285    1.161    0.139
       262 -10.9081    225.3818     38.0758   2.0262800630e+01   2.3984557305e+01    0.2616193    0.1898561 -58.93 0.0008405547    1.342    0.255
       263  -9.0947    160.2917     38.2661   3.0466392128e+01   4.0866814456e+01    0.1491147    0.1089014  32.65 0.0006909429    1.505    0.335
       264 -10.7540    101.2768     36.6732   4.4467749642e+01   5.5090201470e+01    0.3167429    0.2302219   4.43  0.001063701    1.530    0.346
       265 -10.2856    248.1573     36.8565   1.7391095226e+01   1.8676055674e+01    0.2091254    0.1610466 -61.20 0.0004327131    1.180    0.153
       266 -10.8237    170.2507     36.7293   2.8097167117e+01   3.8471527735e+01     0.553349     0.107169  54.54  0.001532899    3.962    0.748
       267 -10.6963    111.0072     34.8077   4.0896457622e+01   5.3302313620e+01     0.294926    0.2244716  38.84 0.0008099098    1.240    0.193
       268  -9.5379      1.4699     37.0320   8.4001951692e+01   6.7414211854e+01    0.1691608   0.08237625 -58.03 0.0007703955    1.530    0.346
       269  -9.4609    114.4019     37.4204   4.0938889120e+01   5.2177327165e+01    0.1895501    0.1349561  60.24 7.063505e-05    1.573    0.364
       270 -10.2864    140.9666     34.7464   3.3329908258e+01   4.6270339846e+01    0.3983294    0.2396884 -60.25 0.0006575888    2.484    0.597
       271  -9.6061    128.4728     35.9965   3.6719720752e+01   4.9142987536e+01    0.2039882    0.1435681 -24.97  0.000324854    1.483    0.326
       272 -10.5923    192.1031     34.1773   2.3717414924e+01   3.3048307220e+01    0.3382697    0.2347383  89.23  0.001596894    1.580    0.367
       273  -9.3820    135.1741     35.1499   3.4799001368e+01   4.7644294078e+01    0.1964085    0.1751132 -73.95 0.0007978735    1.323    0.244
       274  -9.8682     91.6979     45.3412   5.0811121613e+01   5.5587254141e+01    0.2833576    0.1800309 -51.93  0.000884805    1.990    0.497
       275 -10.9037      9.4757     34.4574   7.9748943187e+01   6.7516503059e+01    0.2265166    0.1687113 -36.63 0.0008793595    1.083    0.077
       276 -11.3316      8.4277     31.2398   7.9256608970e+01   6.8184855973e+01    0.2675379    0.2125698  42.62  0.001939585    1.814    0.449
       277  -9.9330    202.1508     33.8640   2.2171181016e+01   3.0460211204e+01    0.1926923    0.1661135  39.00 0.0003737443    1.302    0.232
       278  -9.8867    177.7479     33.7975   2.5883332953e+01   3.6883302548e+01    0.2576439    0.1889987 -22.26   0.00113732    1.516    0.341
       279 -11.1715     74.6477     35.9623   5.3066684208e+01   6.0130220337e+01    0.2358671    0.2174453 -28.26 0.0004516942    1.224    0.183
       280 -11.1273    221.6363     31.8915   1.9121557903e+01   2.5730531191e+01    0.2650084    0.2237998 -48.92 0.0003126058    1.146    0.127
       281 -10.5522    122.5984     32.8105   3.7025964529e+01   5.0963559649e+01    0.5229546    0.1712304  51.44  0.001834223    2.736    0.634
       282  -9.3817    247.3110     32.7173   1.6500910774e+01   1.9412360078e+01    0.1404632    0.0891275 -64.58 0.0002907605    1.570    0.363
       283 -11.0327    101.7157     29.2098   4.1395234251e+01   5.6070689533e+01    0.3772778    0.3108334 -41.60  0.002133865    1.394    0.283
       284  -9.2522     88.2695     31.3018   4.6458601537e+01   5.8445523945e+01    0.1357271   0.09619713   6.32 0.0003749096    1.529    0.346
       285 -10.2868     49.8116     29.1774   6.0023812757e+01   6.4844966617e+01    0.4282234    0.1886062 -34.24  0.002040325    2.073    0.518
       286 -10.5992    162.9124     28.5257   2.6802254342e+01   4.1452757507e+01     0.298591     0.243774  -3.91 0.0004986622    1.411    0.291
       287 -11.7428    238.2953     27.3858   1.6146684354e+01   2.2217225952e+01      0.37059    0.3166201  11.20 0.0004228551    1.572    0.364
       288 -11.2493    197.6602     28.2249   2.1210607044e+01   3.2348191945e+01     0.312771    0.2273679  71.86 0.0005094946    1.294    0.227
       289 -10.6949    156.8738     28.1720   2.7803841882e+01   4.3067947502e+01    0.2295354    0.2086266  62.87 0.0002954961    1.038    0.037
       290  -9.7754     71.4678     28.7441   5.1281709991e+01   6.1781903039e+01    0.1656595    0.1458192  -4.82 0.0003645981    1.077    0.071
       291 -11.2481    112.5733     27.0718   3.7471051226e+01   5.4009733452e+01    0.3569585    0.2827623  17.84  0.001953874    1.253    0.202
       292 -10.5188    246.3282     27.0374   1.5262297128e+01   2.0363112349e+01     0.193185    0.1592177 -57.11 0.0006810733    1.076    0.071
       293 -10.5245    226.4806     24.0909   1.6578997347e+01   2.5500895657e+01    0.4314178    0.1759069 -35.63   0.00179724    2.270    0.560
       294 -10.6714    214.7820     25.0842   1.8160213505e+01   2.8314815443e+01    0.3143133    0.2404191  50.69  0.001202382    1.410    0.291
       295  -9.7346    204.1097     25.1985   1.9507965189e+01   3.1040846735e+01    0.3286106     0.109996 -47.83   0.00109346    3.319    0.699
       296 -10.0277    145.4290     26.6865   2.9558128450e+01   4.6183485526e+01     0.368499    0.1234021  59.94   0.00126255    2.732    0.634
       297  -9.3007    123.0000     26.0403   3.4381602062e+01   5.1751588132e+01    0.2180679   0.08057328 -27.47 0.0004863785    2.845    0.648
       298 -10.2263    109.9076    249.3459   8.7134729589e+01   1.0280455437e+01    0.1927893    0.1672194 -82.10   0.00125618    1.366    0.268
       299 -10.1031    195.3638    238.4173   7.0259816490e+01  -2.0648828812e+00    0.2116796    0.1767457  13.95  0.001309637    1.203    0.168
       300 -10.2332    159.9970    235.6788   7.6421663932e+01   4.2916931776e+00    0.1814104    0.1317625  41.84 0.0004331488    1.099    0.090
       301  -9.3126    115.6798    235.3260   8.4662793863e+01   1.1674476949e+01    0.1270076   0.07693565  65.88 0.0007046833    1.681    0.405
       302  -9.8480    177.6655    234.6799   7.2981677152e+01   1.4292706759e+00     0.125402   0.08653569  17.97 0.0007049462    1.701    0.412
       303 -10.8913     87.3842    233.0985   8.9637128551e+01   1.6363365562e+01    0.2602366    0.1112255  55.29  0.001322112    2.004    0.501
       304  -9.7346    125.0073    245.7320   8.4076639654e+01   8.5061348359e+00    0.1544263   0.08236615  44.88 0.0003909144    1.455    0.313
       305 -11.2550      1.9917     23.9590   8.0017874556e+01   6.9867072514e+01     0.385224    0.1331825 -54.96  0.002039385    2.079    0.519
       306 -10.9609     30.5321    234.4939   9.9578998593e+01   2.3403549978e+01     0.375424     0.140489  80.00  0.001769778    2.932    0.659
       307 -11.2883     59.5258     21.8035   5.2893080758e+01   6.4670576903e+01    0.3496356    0.3051998 -89.30  0.001746167    2.109    0.526
       308  -9.9685     24.2676    232.1313   1.0047244061e+02   2.4508118050e+01    0.1983244    0.1231164  41.68 0.0009251543    1.690    0.408
       309  -9.6102     33.9573     19.6701   6.3038825762e+01   6.8215293044e+01    0.1765899    0.1205157 -33.44 0.0002053834    1.211    0.175
       310 -10.5257     28.6488     19.7900   6.5581490594e+01   6.8722319088e+01    0.2328733    0.1435024 -28.78 0.0003103082    1.326    0.246
       311  -9.5950    151.5547    228.4872   7.7058231895e+01   6.8493436464e+00    0.1277653    0.1032306  47.97 0.0003192862    1.020    0.020
       312  -9.0512     35.5325     14.4658   6.0000630765e+01   6.8858853741e+01    0.1986319    0.1268257   8.14  0.000734275    1.589    0.371
       313 -11.0827    165.9319     16.0914   2.2281477972e+01   4.2094732688e+01    0.4739329    0.1460136  47.60   0.00155512    3.252    0.692
       314 -10.1945    159.5094     17.4806   2.3794194403e+01   4.3621132240e+01    0.2865821    0.2109111  52.60  0.001314044    1.242    0.195
       315 -11.0185    159.0205     23.7067   2.5929255973e+01   4.3046984034e+01     0.555514    0.3360319 -77.90  0.002262938    2.459    0.593
       316 -10.2475    161.6002     20.2718   2.4349137348e+01   4.2768681580e+01    0.2939474     0.234401   2.04 0.0008338906    1.471    0.320
       317 -11.3409    186.2273     22.6337   2.1208035519e+01   3.6023625608e+01    0.2626776    0.2351062 -55.16   0.00022007    1.148    0.129
       318 -10.5616      4.1229    225.7682   1.0340252970e+02   2.7676928859e+01    0.2743703    0.1297091 -70.62  0.001821862    2.077    0.519
       319 -10.6409    128.6369     20.8074   3.1076527687e+01   5.1035670611e+01    0.3641577     0.224513 -41.57  0.001280949    1.848    0.459
       320 -11.9966    133.0351     18.8570   2.9376488719e+01   5.0186191482e+01    0.2762762    0.2319495  38.72 0.0002682703    1.098    0.089
       321 -10.0831    129.4482     17.4627   2.9645494527e+01   5.1214403546e+01    0.2482139    0.2082833   3.64 0.0007080281    1.249    0.199
       322  -9.2751     97.3038     23.6863   4.0471967256e+01   5.7718115233e+01    0.1432516    0.1217239  15.74 0.0003698026    1.055    0.053
       323 -10.0674     94.1270     22.1648   4.0807682993e+01   5.8558814591e+01    0.2532736    0.2208085  80.34  0.000400522    1.613    0.380
       324 -10.0016     53.2581     23.3326   5.6121956696e+01   6.5327423288e+01    0.2975438    0.1078153  40.93  0.001274684    3.151    0.683
       325 -10.9611     84.3098     21.3516   4.3606853121e+01   6.0573040035e+01    0.4867909    0.2318134  36.12  0.001915971    2.090    0.521
       326  -9.9184     99.5953     20.5623   3.8498012180e+01   5.7636657467e+01    0.2566649    0.1890764 -60.86 0.0006590977    2.093    0.522
       327  -9.7898     74.3764     21.1739   4.6968850471e+01   6.2384357828e+01    0.1669762    0.1124959 -35.08 0.0003292409    1.529    0.346
       328 -10.6708     67.2517     20.9268   4.9492478210e+01   6.3605515040e+01    0.2155597    0.1883695  10.95 0.0003953151    1.134    0.118
       329  -9.5101    190.5210    226.4987   6.9360590037e+01   3.8600415402e-01    0.1284422    0.1035344  33.23  3.49188e-06    1.006    0.006
       330 -10.6065    173.3300     19.1567   2.2081304515e+01   3.9818183247e+01    0.3724861   0.07676561 -35.57  0.001118168    4.149    0.759
       331 -10.6744     42.0419     19.0064   5.9063338275e+01   6.7419365285e+01    0.3930869    0.1849982  31.61  0.001421581    2.248    0.555
       332 -10.0292     46.7155     16.6659   5.5944211945e+01   6.7193108686e+01    0.1879078    0.1265445   3.38 0.0002657378    1.464    0.317
       333 -10.1107    120.9853    226.4831   8.2665188083e+01   1.2330141147e+01    0.1830171   0.08241724  58.04 0.0005474744    2.409    0.585
       334  -9.9615    113.0166    222.9655   8.3786713861e+01   1.4242697130e+01    0.2126892    0.1274358  67.16  0.001140212    1.774    0.436
       335 -10.9092     88.5238    241.4675   9.0183189620e+01   1.4748594868e+01    0.2009609    0.1067626 -67.23  0.001191173    2.116    0.527
       336  -9.8493    108.6348     17.4891   3.4713575299e+01   5.6051304065e+01    0.2216667    0.1482804   7.96 0.0007955504    1.685    0.407
       337 -10.7269    194.7579     16.7631   1.8355318585e+01   3.4455870400e+01    0.2477311    0.1977344  83.21  0.000300948    1.162    0.139
       338 -10.9043     15.7895    221.9318   1.0133644773e+02   2.7241787795e+01    0.1945531    0.1130217  57.62 0.0005213199    1.329    0.247
       339  -9.4948    142.4860    220.5099   7.7739117279e+01   9.7310486377e+00    0.1306928    0.1067272  51.18 6.251746e-05    1.019    0.018
       340  -9.4091     76.0190     15.5202   4.3867299339e+01   6.2835400097e+01    0.3027854    0.1714883  33.14 0.0009648789    1.687    0.407
       341  -9.8267     42.0056    220.5031   9.6769871468e+01   2.4657435142e+01    0.1628116   0.09056128  46.14 0.0009278766    1.584    0.369
       342 -11.2040     69.9892     16.9191   4.6670851386e+01   6.3699681374e+01    0.2731589    0.1838054  36.20  0.001577266    1.442    0.306
       343 -10.6034     70.6940     13.6860   4.4934273446e+01   6.3994066291e+01    0.2374893    0.1622758  15.67  0.000595425    1.407    0.289
       344  -9.0346    113.2730     16.6246   3.3159745972e+01   5.5108197982e+01    0.1334844    0.1047474 -57.37 0.0007000418    1.689    0.408
       345 -10.8111     21.7114    219.7468   1.0023051224e+02   2.7042232092e+01    0.1689594    0.1316314  84.84 0.0005824962    1.217    0.178
       346 -10.6681     24.0056    215.7664   9.9612715494e+01   2.7551537032e+01    0.1718175    0.1223877  78.84 0.0004856156    1.055    0.052
       347  -9.6164     84.0558     13.5627   4.0275120092e+01   6.1587218094e+01    0.1817963    0.1188684  46.13 0.0004652345    1.495    0.331
       348  -9.6698    211.8507    219.1464   6.4193289023e+01  -2.2694673481e+00    0.1780674    0.1319539  13.71  0.001019956    1.315    0.240
       349  -9.5077    120.7562    219.4162   8.1859736175e+01   1.3613563457e+01    0.1690168    0.1077302  36.94 0.0005884964    1.550    0.355
       350 -10.0313    192.0000    217.0032   6.7576683998e+01   1.5052876371e+00     0.188283   0.07500686 -41.49 0.0008066985    2.972    0.664
       351  -9.7475     38.0271    217.2099   9.7250265363e+01   2.5741557303e+01    0.1412178   0.07601305  43.09  0.000871771    1.731    0.422
       352 -11.6371     10.4845    216.6229   1.0195160176e+02   2.8748588083e+01    0.3729933     0.225599  29.62  0.002525451    2.320    0.569
       353 -11.3386     11.5678    209.2950   1.0139637574e+02   3.0029414684e+01    0.4556452    0.1697961 -89.48  0.001903706    2.391    0.582
       354 -11.0691     29.1206    215.5082   9.8708407218e+01   2.7056138266e+01    0.2268329    0.1599196  66.09  0.001161073    1.096    0.088
       355  -9.4158    126.3228    220.6540   8.0923837038e+01   1.2465410837e+01    0.1337249   0.08553489  68.46 0.0007049884    1.738    0.425
       356 -12.0718      5.6926    208.7435   1.0237087366e+02   3.0683880758e+01    0.4301213    0.1897575 -74.95  0.002688712    1.937    0.484
       357 -10.7807      1.4749    210.9979   1.0318454157e+02   3.0639075091e+01    0.2624456    0.1252914 -84.37  0.001018189    1.660    0.398
       358  -9.6202     40.3248     10.3153   5.5829688892e+01   6.8906859874e+01      0.26282    0.1017458  28.03  0.001219633    2.873    0.652
       359 -10.8742      1.6622    206.5037   1.0294629084e+02   3.1473176867e+01     0.227195    0.1399939 -80.59  0.001054072    1.398    0.285
       360  -9.7158    110.3876    212.2158   8.3030371164e+01   1.6639695237e+01     0.167156    0.1141902 -81.97 0.0007614805    1.649    0.393
       361 -10.4211     19.9471    210.9198   1.0003610322e+02   2.8893986113e+01     0.279822     0.114898  82.21  0.001499502    2.296    0.564
       362 -11.4255    237.0203    209.4308   5.7921037287e+01  -5.2238181852e+00    0.2341202    0.1560638  -6.80 0.0009116314    1.581    0.367
       363  -9.6818    184.8202    208.4289   6.7556289517e+01   4.1153881669e+00    0.1966986    0.1094455  32.77 0.0009411852    1.719    0.418
       364 -10.2629    247.1570    204.5080   5.5236105176e+01  -6.2498800742e+00    0.3772775    0.1459136 -41.20  0.001609397    3.270    0.694
       365 -10.8286     20.1766    199.5458   9.9313228349e+01   3.1092772265e+01    0.2959315    0.1392568 -72.98  0.001256645    1.852    0.460
       366 -10.7313    175.3055    202.2848   6.8418353022e+01   6.8810045459e+00     0.241703    0.1997761  47.62 0.0004248631    1.123    0.110
       367  -9.1635     53.2456    202.3293   9.3294201751e+01   2.6845339930e+01     0.102889    0.0843162 -61.37 0.0002862156    1.542    0.351
       368  -9.8130    238.5985    200.7329   5.6046009754e+01  -4.3389910679e+00    0.1575401    0.1167683 -34.02 0.0005943885    1.520    0.342
       369  -9.8308    100.0429     13.2586   3.5310353081e+01   5.8389106769e+01    0.2100153    0.1551921  23.58 0.0008371405    1.269    0.212
       370  -9.8529     58.1836    195.8242   9.1734198786e+01   2.7550514394e+01    0.1740084    0.1337304 -36.49   0.00104677    2.167    0.538
       371  -9.9334    215.5051    194.1355   5.9063515327e+01   6.7395944777e-01    0.1853126    0.1294812 -30.31  0.001010806    1.527    0.345
       372 -11.6326     15.8869    192.9569   9.9690834451e+01   3.2827946904e+01    0.3004583    0.2170323  42.64  0.001490924    1.554    0.356
       373  -9.2736     38.6830    190.6748   9.5161213336e+01   3.0948495877e+01    0.1053963   0.08449981 -54.05 0.0007044437    1.672    0.402
       374  -9.9233    163.2596    188.9868   6.8613589008e+01   1.1514539853e+01    0.1727124    0.1239688 -47.59 0.0008948279    1.570    0.363
