#   1 NUMBER                 Running object number                                     
#   2 MAG_AUTO               Kron-like elliptical aperture magnitude                    [mag]
#   3 X_IMAGE                Object position along x                                    [pixel]
#   4 Y_IMAGE                Object position along y                                    [pixel]
#   5 X_WORLD                Barycenter position along world x axis                     [deg]
#   6 Y_WORLD                Barycenter position along world y axis                     [deg]
#   7 A_WORLD                Profile RMS along major axis (world units)                 [deg]
#   8 B_WORLD                Profile RMS along minor axis (world units)                 [deg]
#   9 THETA_WORLD            Position angle (CCW/world-x)                               [deg]
#  10 FWHM_WORLD             FWHM assuming a gaussian core                              [deg]
#  11 ELONGATION             A_IMAGE/B_IMAGE                                           
#  12 ELLIPTICITY            1 - B_IMAGE/A_IMAGE                                       
         1  -9.8429    149.9567     44.5156   3.0732001983e+01   4.1892070615e+01     1.116196     0.589582 -39.33  0.004722036    1.972    0.493
         2  99.0000     30.5023     20.0419   5.9669680665e+01   6.8174241565e+01     1.166019    0.9037409  40.21  0.007796357    1.835    0.455
         3 -14.2132      9.1075     68.1903   8.3756054857e+01   6.0728854430e+01     1.331621     1.048751 -69.35  0.006790712    1.216    0.177
         4 -13.9765    117.0694     63.5802   4.5076215259e+01   4.6647430680e+01     1.341366     1.086678  70.26  0.006752322    1.515    0.340
         5 -14.3956     12.9114     36.9343   7.4149061079e+01   6.6791469235e+01     1.708569     1.327221 -47.14   0.01212074    1.178    0.151
         6 -13.9377     94.5372     68.5139   5.3407273208e+01   5.0325184503e+01     1.733969     1.387643 -83.91  0.003750111    1.857    0.462
         7 -14.0211     79.3892     44.0744   4.9837974679e+01   5.7453508087e+01       1.3088     1.011122  20.40    0.0074326    1.270    0.213
         8 -13.2748     57.6688     60.6473   6.3484079460e+01   5.7781044611e+01     1.432037    0.8718043 -63.16  0.006783079    2.262    0.558
         9 -13.9224     63.2009     14.2893   4.3288061028e+01   6.4481409353e+01     1.721442     1.134735 -22.84   0.01020143    1.436    0.304
        10 -12.5297     76.1964     11.1344   3.7325120637e+01   6.2546422581e+01    0.7167964     0.324568 -22.63  0.002041399    2.279    0.561
        11 -13.1190     39.6566     57.6767   6.9400578817e+01   6.0496711544e+01      1.33199     0.547421 -45.06  0.006195185    2.007    0.502
        12 -14.0733    190.0253     58.6092   2.7421781484e+01   2.9575587134e+01     1.849774     1.432017 -49.78  0.005663403    1.297    0.229
        13 -11.7995    197.3835     27.1406   1.7680877048e+01   3.2048189861e+01     0.874644    0.5094455 -89.98  0.003458231    1.966    0.491
        14 -13.2495    193.7162     43.2396   2.2570194477e+01   3.0885902032e+01      1.00388    0.9275302  27.14  0.004004124    1.248    0.199
        15 -12.8903    188.7614     33.6679   2.0650487522e+01   3.3425075464e+01     2.128467    0.8555486  75.51  0.007253101    3.181    0.686
        16 -12.4687    217.5985     29.5936   1.5855147210e+01   2.6726757941e+01     1.119119    0.5686813 -49.21  0.005116423    1.905    0.475
        17 -12.1485    235.9575     49.3221   1.8516995830e+01   1.9730521147e+01      1.54955    0.4073277 -50.55  0.004317796    5.132    0.805
        18 -13.1135    223.8082     43.8000   1.8635988141e+01   2.3354285692e+01     1.205175    0.6959036 -68.62  0.003445335    2.052    0.513
        19 -12.6638    162.2588     29.3716   2.3591303458e+01   4.0767095080e+01    0.9195579    0.5580994 -82.34  0.003859002    2.334    0.572
        20 -13.4212     74.6310     23.6221   4.3290701270e+01   6.1329963156e+01     1.057754     0.499942  32.33  0.001372444    2.216    0.549
        21 -12.5768    226.5999     22.4394   1.3153434877e+01   2.5445334510e+01     0.918602     0.523555 -25.58  0.004452931    2.030    0.507
        22 -12.9591     51.7224     21.0897   5.0837161854e+01   6.5363389236e+01    0.8221433    0.6982515  11.67  0.003432303    1.166    0.142
        23 -13.8234     59.7541     34.7364   5.3371214159e+01   6.2139645537e+01     2.079779     1.122891  37.86  0.005027729    1.933    0.483
        24 -13.3777    176.2721     23.4448   1.9569168588e+01   3.7872484210e+01    0.4087594    0.3304393  43.22 0.0008062745    1.310    0.237
        25 -10.4583    138.7641     18.1770   2.4249932964e+01   4.7970867068e+01    0.3883309    0.2567875   9.24  0.001518839    1.937    0.484
        26 -11.5306    223.6337     14.6298   1.1595507556e+01   2.7062291773e+01      0.26135     0.230588 -49.53 0.0004974288    1.184    0.155
        27 -10.9563    221.7151     10.4581   1.0790452941e+01   2.7984059444e+01    0.3334886    0.3110528 -76.08  0.001412411    1.151    0.131
        28 -10.6068    151.4577     14.3051   2.0679325196e+01   4.5197128290e+01    0.4368726    0.2681301 -72.63  0.001606273    2.233    0.552
        29 -10.1411    154.8510     12.3641   1.9504346759e+01   4.4533526709e+01    0.3694451    0.2331042  75.30  0.001824208    1.553    0.356
        30  -9.8698    133.9678     12.5010   2.3221281697e+01   4.9727793598e+01    0.3266361    0.1926225 -86.83  0.001236381    2.633    0.620
        31  -9.9295    130.0604     11.2705   2.3552006882e+01   5.0797394248e+01    0.2403814    0.1947106   9.90 0.0007837135    1.346    0.257
        32  -9.1545    233.3495      6.8933   8.9518408659e+00   2.5646006068e+01    0.6925104    0.3128036 -70.76  0.003013799    2.558    0.609
        33 -13.4714    247.5493     10.3554   8.5731684325e+00   2.2056821811e+01     1.177326    0.5157486 -81.99  0.005073608    2.787    0.641
        34  -9.6278     92.9737     13.2844   3.3143070518e+01   5.9002452088e+01    0.3454557    0.2187342  -2.02  0.001042817    1.759    0.431
        35 -10.7171    123.0884     12.2045   2.5316225104e+01   5.2378474581e+01    0.3320076    0.2979752  81.35  0.001340415    1.243    0.195
        36  -9.3181    124.5536      8.5411   2.3677111097e+01   5.2376562528e+01    0.1846734    0.1595654  40.06 0.0007429629    1.052    0.050
        37 -12.5546     25.9417     39.3054   6.9154894660e+01   6.5340322787e+01     1.167095    0.3678828 -48.02  0.002884769    2.474    0.596
        38 -10.7215    144.1091      9.7826   2.0451454538e+01   4.7483002779e+01    0.6174416    0.2249109  56.97  0.002177936    2.216    0.549
        39  -9.7656    145.4786      6.4445   1.9120701084e+01   4.7448816240e+01    0.2294512    0.1690671 -16.05 0.0005361813    1.563    0.360
        40 -11.4549    115.5117      9.3031   2.5883401454e+01   5.4431366182e+01    0.6264668    0.3036468  23.68   0.00252073    2.886    0.654
        41 -10.0248    108.9626     11.7593   2.8345606605e+01   5.5691538319e+01    0.3434106    0.1689955  27.92  0.001445524    2.493    0.599
        42  -9.1420     88.3430     11.6699   3.3796921115e+01   6.0121519886e+01    0.1939271    0.1551416  64.53  0.001051295    1.533    0.348
        43 -11.1169     84.6832      8.0863   3.3334916297e+01   6.1221588171e+01    0.3335493    0.2110046 -21.47  0.001143333    1.621    0.383
        44 -11.7115     85.2782      2.0144   3.0508309616e+01   6.1670318771e+01    0.4732326    0.1672185  46.62  0.002071178    2.296    0.564
        45 -11.6582     48.2357      9.0814   4.6738746197e+01   6.7451134732e+01    0.4135795    0.2834761 -29.38  0.002170685    1.455    0.313
        46 -12.0199     47.9864      1.8509   4.3275985137e+01   6.8323064171e+01    0.4364616     0.150782  37.06  0.002002766    2.697    0.629
        47 -10.0717    227.2631      9.3809   1.0036550328e+01   2.6789854708e+01    0.1919521     0.172677 -39.03 0.0007977991    1.275    0.215
        48  -9.7789    101.6678     10.5184   2.9667192343e+01   5.7431045283e+01    0.1889426    0.1594027  64.55 0.0006932133    1.322    0.243
        49 -10.2769    100.4411      6.4995   2.8351280163e+01   5.8079133621e+01      0.25344    0.2050871  64.52 0.0008231285    1.351    0.260
        50  -9.6222    102.6565      4.3255   2.6923233540e+01   5.7787839625e+01    0.2095392    0.1833055  82.23 0.0007800959    1.408    0.290
        51 -11.8738    193.5967      7.9878   1.3038398837e+01   3.5138367429e+01     0.319665    0.2219181  57.13 0.0009933001    1.403    0.287
        52 -12.5384    173.5863      4.3243   1.4408949359e+01   4.0545841882e+01    0.4428051    0.2376413 -17.43  0.001541222    2.315    0.568
        53  -9.8203     27.7316      9.2249   5.6068703964e+01   7.0061904407e+01    0.1881622    0.1446359   3.94  0.001343343    1.154    0.133
        54  -9.4764    157.1687      7.3021   1.7558815836e+01   4.4432169318e+01    0.2215994    0.1393279  47.92 0.0007545107    1.511    0.338
        55 -10.0956    210.7847      6.2179   1.0804683187e+01   3.1069589632e+01    0.1662835    0.1403372  61.84 0.0005196212    1.255    0.203
        56 -10.6013      3.0735      6.2548   6.7525141957e+01   7.2692311429e+01    0.2436724    0.1202131   3.48  0.001455072    2.219    0.549
        57 -10.5793    111.4404      4.0028   2.4759950062e+01   5.5842519068e+01    0.3184421    0.1920057  59.11   0.00103008    1.491    0.329
        58  -9.7356    107.7362      4.3030   2.5714035398e+01   5.6657350967e+01    0.1965837    0.1430686  53.60 0.0002189797    1.219    0.180
        59 -10.6147    183.6129      3.6395   1.3004644282e+01   3.8074604580e+01    0.2560658    0.2035131 -63.18 0.0008615429    1.263    0.208
        60  -9.7625    218.7703      2.0044   9.0646373033e+00   2.9578725137e+01    0.1976934    0.1404974  27.90 0.0009833715    2.114    0.527
        61 -12.3145    241.8037      7.5985   8.4275208559e+00   2.3645240051e+01    0.2957293    0.1719771 -82.01  0.001240203    1.650    0.394
        62 -11.3710     44.8354     93.1012   7.6691065349e+01   5.2317414808e+01    0.2482724    0.1910068  72.78 0.0007724001    1.652    0.395
        63 -10.5647    249.1202    249.8947   5.8756449120e+01  -1.2508199287e+01    0.1683159    0.1335101  21.52  0.001244852    1.236    0.191
        64  -9.8974    212.3284     93.8776   3.2993894949e+01   1.8234610007e+01    0.4059457      0.14471 -27.15  0.001100069    4.517    0.779
        65 -10.0552    206.9979     95.0254   3.4220144132e+01   1.9292225403e+01    0.2422977    0.1808928 -69.78 0.0009937698    1.628    0.386
        66 -12.3022    190.2890     94.0333   3.7075699591e+01   2.3493960152e+01    0.4993683    0.3459057  39.77  0.001871936    1.569    0.363
        67 -10.5049     67.9557     94.9051   6.9603741533e+01   4.9065398145e+01    0.2078485    0.1887198 -45.55  0.000439557    1.014    0.014
        68 -13.3324     62.4807     91.6270   7.0561429910e+01   5.0552386943e+01    0.8252822    0.4948094  35.05  0.004101151    1.841    0.457
        69 -12.8407     53.0340     86.2930   7.2375605847e+01   5.2934998788e+01    0.4798127    0.3918871 -12.54  0.001738566    1.366    0.268
        70 -12.1785     47.2604     85.7157   7.4188616537e+01   5.3724268973e+01     0.431775    0.2327904  25.30  0.001886653    2.175    0.540
        71 -10.3333     89.3183     93.9632   6.2634185446e+01   4.5950466988e+01    0.2097331     0.172716 -45.66 0.0001428254    1.142    0.124
        72 -10.9119     16.5754     92.2232   8.5717529322e+01   5.4973897121e+01    0.2853792     0.168304 -76.50  0.001595183    1.601    0.375
        73 -11.6247    172.8033     88.3163   3.9069680866e+01   2.8845931335e+01    0.9876242    0.6252448  30.63  0.003970244    2.050    0.512
        74 -11.1642    180.7894     83.7545   3.6154073927e+01   2.7699504394e+01    0.4197724    0.3631743  12.87   0.00128222    1.345    0.256
        75 -12.9992    190.4592     79.4778   3.3112157999e+01   2.6045425402e+01      1.07564    0.5419489 -16.36  0.003231162    4.068    0.754
        76 -11.8316    184.5394     79.5774   3.4259097041e+01   2.7504448781e+01    0.3916398    0.2439421 -36.33  0.001695554    1.607    0.378
        77 -11.9288    177.0529     70.6438   3.3192220384e+01   3.0923846593e+01    0.6542605    0.4296335 -71.32 0.0008385146    2.137    0.532
        78 -11.3729    165.2878     65.5695   3.4069690249e+01   3.4752008384e+01     0.888102    0.5383025  46.75  0.002839333    1.646    0.392
        79 -12.1712    162.0956     84.1229   4.0206688495e+01   3.2268685641e+01    0.6162477    0.4719025  48.26 0.0008534965    1.293    0.227
        80 -12.6607    168.7351     79.7001   3.7488672356e+01   3.1433767141e+01    0.7963133    0.5015404 -60.77  0.002322069    2.062    0.515
        81  -9.8021     79.3877     91.0751   6.4961822630e+01   4.8226172304e+01    0.2251602    0.1597189 -36.39 0.0006235628    1.401    0.286
        82 -10.5487     87.4791     89.4533   6.1965158855e+01   4.7257536123e+01    0.2494426    0.2371757  72.02 0.0005298542    1.181    0.153
        83 -12.3882    196.2830     86.2090   3.3852791978e+01   2.3433123051e+01    0.5175772    0.3591011  69.09  0.001693371    1.614    0.381
        84 -11.8089    110.7434     86.5866   5.4114409946e+01   4.3521339957e+01    0.8234487    0.3634639  45.92  0.003072779    2.341    0.573
        85 -12.0095    114.3135     81.0778   5.1432191001e+01   4.3912615731e+01    0.4665514    0.4131659 -38.76  0.001651649    1.114    0.102
        86 -10.9298     60.2955     84.9958   6.9600012530e+01   5.2321047456e+01    0.2560251    0.2055703 -23.10 0.0003052906    1.307    0.235
        87 -11.0337     71.0691     87.5332   6.6695202478e+01   5.0273888489e+01    0.3123477    0.2532517 -22.18  0.001122872    1.309    0.236
        88 -12.6421     66.8490     82.1533   6.6634441656e+01   5.2058315545e+01    0.5685725     0.503304 -87.13  0.002216965    1.375    0.273
        89 -10.3191    230.2408     83.3852   2.7509329377e+01   1.5853888314e+01    0.3752863    0.1988294  76.42  0.001185834    2.900    0.655
        90 -11.1406    237.4059     86.1681   2.7133095518e+01   1.3798141779e+01    0.3364941     0.243551  67.49 0.0007410704    1.535    0.349
        91 -10.8863    233.5149     85.9749   2.7653825347e+01   1.4694416863e+01    0.3177608       0.2222  -7.37  0.001469043    2.006    0.501
        92 -11.9820    216.5854     85.0301   3.0038102204e+01   1.8745353330e+01    0.3465045    0.3320697  44.53  0.001505046    1.119    0.106
        93 -10.6818    208.1803     84.8505   3.1389485480e+01   2.0778304244e+01    0.2383884    0.2102317  -2.20 0.0006599858    1.309    0.236
        94 -13.2393      4.5133     54.8454   8.2592746288e+01   6.3766779588e+01    0.8814747    0.5264698 -54.52  0.005619005    1.255    0.203
        95 -11.0302     36.2415    248.8435   9.6853803995e+01   1.9349502654e+01    0.1971662    0.1150421 -78.81   0.00135738    1.655    0.396
        96  -9.6830    226.6980    242.2964   6.1429710623e+01  -8.4382181145e+00    0.1031122   0.08884697  46.39 0.0003512366    1.578    0.366
        97 -10.3222     15.8848    238.5810   9.9619346727e+01   2.3434807284e+01    0.1703728    0.1144734 -82.63 0.0005915734    1.396    0.283
        98 -13.5369     28.1681     58.8408   7.4235721326e+01   6.1344697833e+01    0.9712629     0.916585  37.82  0.006963276    1.354    0.261
        99  -9.5828    159.6113    219.7676   7.0608308646e+01   5.9367141755e+00    0.1558047    0.1279892 -66.68 0.0003109278    1.528    0.346
       100  -9.6792    174.2434    131.2387   4.9999147821e+01   2.0029724127e+01    0.2051724      0.18158 -86.53 0.0004034184    1.314    0.239
       101 -13.1147     78.6710     58.9203   5.5418659277e+01   5.4965749171e+01    0.7396045    0.4138709  33.94  0.003468428    1.878    0.468
       102 -10.9905    152.9552    124.0447   5.3146886445e+01   2.6346962073e+01    0.2252126    0.2231561  84.76            0    1.016    0.016
       103 -12.6235     55.0412     72.4528   6.8005954145e+01   5.5702654459e+01    0.6840506    0.3170476 -52.35  0.000645007    1.936    0.483
       104  -9.8562    239.6415    118.9996   3.4524463369e+01   7.8849616299e+00    0.1945702    0.1601145 -32.51 0.0003179259    1.110    0.099
       105 -10.5554    203.9918    116.3638   4.0166212122e+01   1.6119740363e+01    0.3989206    0.2709641  74.93  0.001688275    2.089    0.521
       106 -10.4801    181.6788    115.9327   4.4566230096e+01   2.1384442263e+01    0.2720656    0.2257201  65.02 0.0008144237    1.312    0.238
       107  -9.5166    242.1553    114.1534   3.3004510274e+01   8.1779059024e+00    0.1798876    0.1604603 -68.46 0.0005178082    1.268    0.212
       108 -12.7798     49.4785     52.2450   6.3834628816e+01   6.0450965500e+01    0.6179506    0.3001319 -37.50  0.001761481    1.872    0.466
       109 -12.2769     53.4720     43.8230   5.9312479932e+01   6.1490626311e+01    0.4531869    0.2535955  16.08  0.001525032    2.213    0.548
       110 -11.2137      5.7869     86.3137   8.8216630360e+01   5.6963803876e+01    0.2148568    0.1402468 -62.97  0.001211567    1.170    0.145
       111 -10.4508    154.4569     85.9602   4.2481797885e+01   3.3788435194e+01    0.2866289     0.212097  35.12 0.0003499821    1.461    0.315
       112 -12.2371     29.0090     81.7294   7.9538781030e+01   5.6381322102e+01    0.4745214    0.3518681  55.67  0.002868332    1.743    0.426
       113 -10.1208     23.8323     84.8156   8.1952856120e+01   5.6110740252e+01    0.1638895    0.1278156 -78.13 0.0005213298    1.308    0.236
       114 -10.3597    250.5527     74.5499   2.2636438095e+01   1.2765065727e+01    0.2364531    0.1230719 -34.96 0.0005146548    1.754    0.430
       115 -11.0325    247.4641     81.5813   2.4659814704e+01   1.2339568370e+01    0.3976527    0.2466991 -60.99  0.001888486    1.853    0.460
       116 -10.1799    249.3947     78.1483   2.3612400880e+01   1.2460168997e+01    0.2506451    0.2224426 -78.71  0.001502448    1.161    0.139
       117  -9.5727    242.4636     82.8701   2.5637744516e+01   1.3216404344e+01    0.2214549    0.1709846 -66.31 0.0007286698    1.383    0.277
       118 -11.6565    232.2643     78.8617   2.6112488167e+01   1.6123297381e+01    0.5259028     0.330574 -86.97  0.002275419    2.315    0.568
       119 -13.9846    219.5330     72.4456   2.6391302076e+01   2.0109174534e+01     1.934696     1.317186  76.17  0.008226451    1.663    0.399
       120  -9.6803     88.2939    114.3250   6.8054971420e+01   4.1468894639e+01    0.1471284    0.1113736 -24.78  0.000197824    1.620    0.383
       121 -12.0793    173.1504     54.7110   2.9299597501e+01   3.4483076027e+01    0.9287542    0.6500266  81.06  0.003112691    1.656    0.396
       122 -11.6812    132.8443    111.8095   5.5054872460e+01   3.3451327541e+01    0.3630365    0.2834515 -87.25  0.000770027    1.681    0.405
       123 -13.0755    220.4295     58.3842   2.2712262724e+01   2.2069370595e+01    0.9077085    0.7787043 -83.12  0.005105315    1.145    0.127
       124 -11.2909    233.8244     36.8776   1.5812740597e+01   2.1924266599e+01    0.7151408    0.3567296 -61.71  0.003100981    2.278    0.561
       125  -9.7576    210.2448    111.9973   3.7911521792e+01   1.5492302717e+01    0.2625371    0.1887141  66.04 0.0008202106    1.632    0.387
       126  -9.4536    174.9975    111.9768   4.4987889803e+01   2.3741533166e+01    0.1851569    0.1837707  35.40 0.0003609864    1.009    0.009
       127 -10.9365    138.5911    112.3039   5.3702654118e+01   3.2084477283e+01    0.2714697    0.1945219  24.27 0.0005884052    1.730    0.422
       128 -11.9843    175.3642     39.0575   2.4287112352e+01   3.6158873131e+01    0.6665468    0.3868872  72.03  0.002749434    1.790    0.441
       129  -9.5291    169.2453    110.9785   4.6000438884e+01   2.5301636967e+01    0.2016249    0.1337067 -40.97 0.0003628113    1.507    0.336
       130 -10.6029     96.9060    109.7799   6.4461373665e+01   4.1046782135e+01    0.2269227    0.2023009 -18.69 0.0005826768    1.236    0.191
       131 -13.4156    203.4572     60.4913   2.5750808190e+01   2.5905048441e+01     1.087511    0.7099739 -73.92  0.004191577    1.937    0.484
       132 -11.7824    209.6975     58.5805   2.4297052692e+01   2.4650834771e+01    0.3757216    0.2615525 -61.03 0.0003156943    1.520    0.342
       133 -12.8913    172.5617     45.0465   2.6542221127e+01   3.6055171496e+01     1.310436    0.7304191  80.20  0.004889945    2.378    0.580
       134 -12.3234    160.4615     38.2064   2.6658114386e+01   4.0099332116e+01    0.6813177    0.4892826  10.50   0.00163515    1.851    0.460
       135  -9.7367    244.0235    108.0240   3.1297246712e+01   8.8070853059e+00    0.2092524    0.1555455 -59.03 0.0003946661    1.514    0.339
       136 -12.0421     70.7438     71.3179   6.2162318171e+01   5.3786349134e+01    0.6285382    0.3292444  39.35  0.002881606    2.076    0.518
       137 -10.7818    155.4813     76.6027   3.9492824863e+01   3.5281394543e+01     0.364157    0.2738049  46.11 0.0007851714    1.316    0.240
       138 -10.5056    151.0841     73.2324   3.9489239740e+01   3.6969243953e+01    0.2608473    0.2164045 -30.58 0.0005593063    1.245    0.197
       139  -9.1315    235.2453    108.6779   3.2818451825e+01   1.0542650483e+01    0.1417969     0.103877 -57.81 0.0001730614    1.528    0.345
       140  -9.9348    244.0686     72.7058   2.3034692050e+01   1.4450512538e+01    0.2072252    0.1687048 -66.00  0.001167248    1.216    0.178
       141  -9.7175    240.5316     73.5566   2.3698316745e+01   1.5100225020e+01    0.2487619    0.1409861  67.52 0.0007065022    1.987    0.497
       142 -13.2285    235.2262     61.3561   2.1479593560e+01   1.8152628571e+01     1.215107    0.8790826  83.40  0.006411366    1.498    0.332
       143 -10.7100    195.5122    106.9686   3.9439213973e+01   1.9843429324e+01    0.4139852    0.2582499 -52.72  0.001741711    1.783    0.439
       144 -10.4585    241.0428     68.9347   2.2538004438e+01   1.5695925132e+01    0.3215918    0.2174375 -16.51  0.001193951    1.906    0.475
       145 -12.0971    199.9748     76.5442   3.0613253368e+01   2.4185615185e+01    0.3930245    0.2854582  53.58  0.001595561    1.392    0.281
       146  -9.4968    209.7542     22.3039   1.4920401910e+01   2.9538450068e+01    0.3898213    0.2285724 -53.37  0.001244159    1.690    0.408
       147 -10.3150     47.9092     61.1658   6.7295223452e+01   5.8889342202e+01    0.2655344    0.1561415 -51.56 0.0009981958    1.557    0.358
       148 -12.5112    205.9919     45.7915   2.1476405165e+01   2.7436193162e+01     1.364774    0.5883787  64.50  0.004085871    2.261    0.558
       149  -9.9892    160.9195     49.7451   3.0149923218e+01   3.8356013953e+01    0.5601966    0.3012581  26.28  0.001744205    3.331    0.700
       150 -10.2804    162.5023     59.5199   3.2822986636e+01   3.6445353647e+01      0.27661    0.2057382  58.91 0.0005649927    1.306    0.235
       151 -11.6352    162.4659     55.1222   3.1491820389e+01   3.7147301419e+01    0.4706063     0.411731 -77.68  0.001152078    1.240    0.194
       152 -11.0188    247.3812     56.4407   1.8854888217e+01   1.6142193569e+01    0.3925208    0.2721808 -69.46  0.001877068    1.500    0.333
       153 -10.9001    161.9875    107.3062   4.6680051227e+01   2.7760527200e+01    0.2252816    0.2136221  43.72 0.0006337516    1.053    0.051
       154 -10.2650    102.0505     53.4647   4.5970416812e+01   5.1585709435e+01    0.4571371    0.2763424  14.83  0.001830249    2.522    0.603
       155  -9.9412     97.3471     54.0000   4.7597525976e+01   5.2438498848e+01    0.3989918    0.1958639  43.58 0.0005300177    2.027    0.507
       156 -10.4895    207.1937     52.5952   2.3095919266e+01   2.6161293000e+01    0.2662583    0.2501334 -85.18 0.0006655834    1.027    0.026
       157 -11.1570     90.2385     50.9691   4.8765672153e+01   5.4328212638e+01    0.2337806    0.1877691  30.33  0.000618901    1.221    0.181
       158  -9.6459    245.4019     50.3998   1.7690102047e+01   1.7440259647e+01    0.1308261    0.1169644 -61.37 0.0001903869    1.041    0.040
       159 -14.6025     40.8077     71.9558   7.3000900631e+01   5.7419276750e+01     1.617332     1.460457 -13.30   0.01078552    1.165    0.142
       160 -10.7145     99.6187     47.2243   4.4468884599e+01   5.3109549682e+01    0.3313735    0.2543231  21.04  0.001179846    1.332    0.249
       161  -9.8358    104.9404     44.6446   4.1947164281e+01   5.2412685981e+01    0.4032865    0.2607918  -4.66   0.00181532    2.035    0.509
       162  -9.9132     28.3528    107.2780   8.4599242614e+01   5.0615121759e+01    0.1273282   0.08263896 -39.17 0.0004042426    1.648    0.393
       163 -10.4899     94.1722     42.2036   4.4286634898e+01   5.4992611022e+01    0.3589937    0.3077236   6.75  0.002077254    1.098    0.089
       164 -11.1378    248.6212     43.3792   1.5745785772e+01   1.7697437543e+01    0.5228671    0.2618123 -72.36   0.00193309    2.746    0.636
       165  -9.6113    241.9854     40.9830   1.5894637427e+01   1.9504367941e+01    0.2265461    0.1363201 -64.82  0.001120988    1.717    0.418
       166 -10.1397    100.9185     40.5825   4.1628013646e+01   5.3871166401e+01    0.2468672    0.1753321  50.39  0.001270217    1.444    0.308
       167  -9.1319     33.2553     39.3033   6.5990772071e+01   6.4652774109e+01    0.1229744   0.07563457 -25.63            0    1.508    0.337
       168 -10.2542    124.5793     36.9915   3.3927505155e+01   4.9129860347e+01    0.2952679    0.1778163  38.53  0.001349367    1.661    0.398
       169 -10.6167    110.8885     34.6133   3.6579154267e+01   5.2580789648e+01    0.4051162    0.2562944  16.43  0.001838949    2.013    0.503
       170  -9.1175    105.4477     36.4844   3.8780714378e+01   5.3509066941e+01    0.1394132    0.1278379  18.04 -7.421755e-06    1.023    0.022
       171 -12.6314     85.5409     74.1426   5.8079985600e+01   5.0825605563e+01    0.7981524    0.6567339  18.59  0.004365242    1.285    0.222
       172 -11.9325     92.5306     33.4530   4.1440824702e+01   5.6610703511e+01    0.4183656    0.3266804  18.92  0.002361069    1.230    0.187
       173 -11.1223    132.9254     24.8008   2.7722042553e+01   4.8668574315e+01    0.6719316    0.3104214  53.44  0.002739405    1.889    0.471
       174 -11.1709    130.1990     19.4617   2.6423640909e+01   4.9928691414e+01    0.3318043    0.2353743  39.23 0.0005125595    1.340    0.254
       175 -10.4540    131.6468     33.3795   3.0993375298e+01   4.7925918557e+01    0.4519781    0.1978248 -46.59  0.001190608    2.977    0.664
       176  -9.9876    133.6915     29.1102   2.9055959918e+01   4.7967912322e+01    0.2178094    0.1752876  35.01 0.0004495629    1.211    0.174
       177 -10.5279     75.0596     33.5186   4.7232245540e+01   5.9863022591e+01    0.2651906    0.2007566  43.33 0.0007456689    1.434    0.303
       178 -10.2141    122.0022     33.0859   3.3163666534e+01   5.0254325249e+01    0.2132185    0.1831492  32.30 0.0005185831    1.090    0.082
       179  -9.8758    206.4205     31.2636   1.7616775891e+01   2.9268422721e+01    0.2406249    0.1383276 -26.57  0.000929183    1.950    0.487
       180  -9.9269    237.4067     30.7203   1.4002403678e+01   2.1895032057e+01    0.3556074    0.1999509  64.69  0.001043164    1.765    0.433
       181  -9.3786    241.3045     28.6796   1.3152338839e+01   2.1263617103e+01    0.2279663    0.1073518 -64.05 0.0009664908    2.456    0.593
       182 -10.8048    104.3657     28.9561   3.6222223602e+01   5.4756239528e+01    0.2586375    0.2091573 -35.30 0.0007416938    1.358    0.264
       183  -9.7659    146.3192     28.1651   2.6133052769e+01   4.4958858494e+01    0.4230517    0.2174724 -40.60  0.001827797    2.112    0.526
       184 -10.4059    148.3260     24.3154   2.4484481960e+01   4.4906846369e+01     0.272995    0.2231483  60.82  0.000795304    1.116    0.104
       185 -10.8009    151.0459     22.0745   2.3257322774e+01   4.4474376619e+01    0.3874319    0.1902983  53.38   0.00118316    1.793    0.442
       186 -10.0754    140.5709     28.9807   2.7556265376e+01   4.6293629772e+01    0.2008161    0.1838443  56.17 0.0004519089    1.033    0.032
       187 -11.7343    124.2291     25.7825   3.0000358478e+01   5.0641248663e+01    0.4359128    0.3393441  -0.02  0.002196515    1.414    0.293
       188 -10.9137    113.0011     27.9466   3.3533430363e+01   5.2976200373e+01    0.4530347    0.2595225  55.96  0.002131157    1.695    0.410
       189 -11.8224     86.4132     28.4622   4.1377594296e+01   5.8497455654e+01    0.3087689    0.2357655  45.10 0.0007042079    1.334    0.250
       190 -10.0442    244.4802     19.5443   1.0819935944e+01   2.1669493202e+01     0.234723     0.185847  74.81 0.0007423002    1.269    0.212
       191 -10.9087    235.6381     24.2302   1.2682175836e+01   2.3113593722e+01    0.4570751    0.2898694  39.48  0.002279319    2.287    0.563
       192 -10.2105    246.2830     23.0074   1.1425004890e+01   2.0848063209e+01    0.2473724    0.1915393 -83.72 0.0009097098    1.168    0.144
       193 -11.3146    241.2349     22.9365   1.1863493965e+01   2.1991272507e+01    0.3065596      0.20413  63.41 0.0003215713    1.553    0.356
       194 -10.2401    183.4394    105.1461   4.1400683218e+01   2.3065551141e+01     0.287901    0.2357128 -86.97 0.0005852558    1.490    0.329
       195 -11.8561     73.2879     75.2544   6.2483480961e+01   5.2586078546e+01    0.4285187    0.2451653  29.02  0.001453907    1.964    0.491
       196  -9.6547    184.5103     22.9262   1.8245053003e+01   3.5822027002e+01    0.1987881    0.1367825 -33.19 0.0006956953    1.544    0.352
       197  -9.9288    119.0500     22.2293   2.9911987906e+01   5.2269731019e+01    0.2211491    0.2079348 -45.01 0.0007479192    1.227    0.185
       198 -10.3287     98.2196     21.6349   3.5068061343e+01   5.6971423021e+01     0.293254    0.2225701  -0.30   0.00165407    1.345    0.256
       199  -9.9232     89.2084     23.0663   3.8301556713e+01   5.8647436690e+01    0.2074788    0.1616605  16.55 0.0006197526    1.198    0.165
       200  -9.7061    138.2719     22.3552   2.5772676563e+01   4.7636923366e+01    0.2224703    0.1531484  45.52  0.001130742    1.343    0.256
       201 -10.6255     15.1753    105.6604   8.8279212423e+01   5.2010699729e+01    0.2827555    0.1243801 -83.82  0.001233456    2.688    0.628
       202 -10.6286    201.7799     19.8586   1.5213480926e+01   3.1804435407e+01    0.2854312    0.2262121  54.23 0.0006841716    1.322    0.244
       203  -9.6376    205.2664     18.6779   1.4505580957e+01   3.1070984213e+01    0.1763558    0.1451535 -69.89 0.0002976224    1.133    0.117
       204 -10.1924    163.1387     20.5048   2.0711300546e+01   4.1571545797e+01    0.2457104    0.1774893 -50.42 0.0007694525    1.507    0.336
       205 -10.8031    194.2879     18.4197   1.5734173041e+01   3.3850556226e+01    0.2453217    0.2266062 -86.56 0.0007824656    1.057    0.054
       206 -10.1766    170.7962     18.5184   1.8932447206e+01   3.9828997921e+01    0.3271386    0.1759695  52.14  0.001495217    1.740    0.425
       207  -9.4171    173.3154     14.9876   1.7530562873e+01   3.9561820304e+01    0.2025989    0.1701269  50.00 0.0009548903    1.201    0.167
       208  -9.5711     37.8042     16.4519   5.4734169856e+01   6.7871810276e+01    0.1721769    0.1263762 -45.98 0.0006078616    1.778    0.437
       209  -9.5559     34.9086     14.0000   5.4927072153e+01   6.8570457121e+01     0.262776   0.07087273  32.46  0.001046582    3.923    0.745
       210  -9.4247    210.5002    105.5058   3.6248940884e+01   1.6604572639e+01    0.3206876    0.1493446  52.91  0.001228325    2.226    0.551
       211 -10.0747    103.0235    104.7073   6.1399237565e+01   4.1086685813e+01    0.2011191    0.1902272  28.38 0.0001730103    1.105    0.095
       212 -11.8379     69.7498    103.1119   7.1012576076e+01   4.6929358168e+01     0.442756    0.1464135 -47.81  0.001574701    2.771    0.639
       213 -10.1968     11.5251    105.0184   8.9264666798e+01   5.2404864102e+01    0.1829944   0.09527192 -68.61 0.0003493658    1.501    0.334
       214  -9.5900    128.2777     15.3701   2.5370888368e+01   5.0822376323e+01    0.2179469    0.1779058  28.14 0.0007158113    1.218    0.179
       215 -10.7957    144.7436    102.8121   4.9602139902e+01   3.2713570419e+01    0.4055942    0.3033578  26.05    0.0018167    1.574    0.365
       216 -13.5448    118.2436     96.4684   5.4830482650e+01   3.9889291730e+01     1.148552    0.6531184 -60.97   0.00391337    2.381    0.580
       217 -10.2669    103.0574     15.0286   3.1115127602e+01   5.6669280081e+01     0.192736    0.1648909  29.14 0.0003433266    1.022    0.022
       218 -12.4162    136.6629     71.5198   4.2443762832e+01   4.0750726859e+01     2.477341    0.6765069  45.94  0.007129261    3.649    0.726
       219 -12.7458    147.3315     83.8579   4.3560433400e+01   3.5907057258e+01     2.162548     1.058451 -22.90  0.006705808    3.508    0.715
       220  -9.5129    166.5461     13.7464   1.8135930657e+01   4.1419753082e+01    0.1719275    0.1261293 -45.59 0.0003232327    1.463    0.316
       221 -12.1207    143.9860     67.7807   3.9479655959e+01   3.9665687520e+01      1.12842    0.7821284  46.88  0.005207977    1.407    0.289
       222 -11.6673    126.9232     57.9537   4.0551915044e+01   4.5397671462e+01    0.6374245    0.5460286 -41.19  0.003371752    1.222    0.182
       223 -13.4527    122.7619     84.5413   5.0112570487e+01   4.1409885859e+01     1.506146    0.8873144  15.47  0.004959667    3.495    0.714
       224 -12.8848    136.0992     53.7205   3.6853703586e+01   4.3919529856e+01     1.577103     1.028489  88.10  0.006200486    2.649    0.622
       225 -13.8244    128.1795     90.3090   5.0347333998e+01   3.9046903711e+01    0.8286796     0.715518  89.90  0.000803481    1.388    0.280
       226 -12.8041    136.6406     82.0364   4.5677381891e+01   3.8779319896e+01    0.6751868    0.5905406 -17.68   0.00334807    1.214    0.176
       227 -11.3729    146.1216     52.7320   3.4207614329e+01   4.1625627356e+01    0.4761196    0.3445757  37.69 0.0009898881    1.428    0.300
       228 -11.3396    112.9099    246.8382   8.3192452506e+01   9.1659705120e+00    0.3480097     0.179076 -43.82     0.001762    3.021    0.669
       229 -11.8269    126.5776     45.0698   3.6262243072e+01   4.7511221441e+01    0.7894083    0.5474955  64.31  0.003555044    1.596    0.374
       230  -8.5920    134.0737     41.9378   3.3381004181e+01   4.6178882958e+01     1.097431    0.7310074  82.11  0.004788853    2.151    0.535
       231 -12.0303    155.7718     62.1897   3.5059646822e+01   3.7707467838e+01    0.5746695    0.3295189 -23.74  0.001412528    2.100    0.524
       232 -12.2583    151.9509     59.9376   3.5197649147e+01   3.9031311939e+01    0.4682941    0.3915272  29.13  0.000763172    1.279    0.218
       233 -10.4211    236.7155    102.4649   3.1116824485e+01   1.1270378628e+01    0.3852265     0.145956  56.59   0.00140882    2.979    0.664
       234 -10.3475    165.1440    101.6340   4.4428148405e+01   2.8148443663e+01    0.2758169    0.2180486 -50.96 0.0008692998    1.308    0.235
       235  -9.5194    171.0041     10.5409   1.6551438917e+01   4.0605844921e+01    0.2074844    0.1225408  70.99 0.0003514297    1.522    0.343
       236 -11.2181     96.6194    100.5088   6.2176607881e+01   4.3206496896e+01    0.3400637    0.2405129 -29.14  0.001051825    1.618    0.382
       237 -10.8147     62.4343    102.2608   7.3094757945e+01   4.8122261170e+01    0.1956625    0.1248021 -68.08 0.0009471895    1.633    0.388
       238 -13.2718    106.3855     95.5165   5.7945041508e+01   4.2483923741e+01    0.9472423    0.6963271  -4.06  0.003254138    1.893    0.472
       239 -11.4667     95.6899     89.4411   5.9424422623e+01   4.5815066270e+01    0.4248226    0.3620457  83.22 0.0008375842    1.472    0.321
       240 -11.9807     86.5985     98.7968   6.4750771416e+01   4.5327225282e+01    0.4980317     0.390803  26.56  0.002593917    1.410    0.291
       241 -11.4994     81.1226     99.1270   6.6519172536e+01   4.6141373467e+01    0.3404017    0.2623076 -58.09  0.001317317    1.259    0.206
       242 -11.9689    152.6848     97.0137   4.6053273379e+01   3.2045681826e+01    0.6785705     0.565959  38.01  0.002900051    1.228    0.185
       243 -11.6416    168.8128     97.1032   4.2369471723e+01   2.8152572408e+01    0.6164579    0.3897668  59.09  0.001646843    1.698    0.411
       244 -11.1645     11.8374     97.4668   8.8057699924e+01   5.4102208834e+01    0.2377173    0.1722546 -63.91 0.0007084089    1.080    0.074
       245 -10.1748    232.9397     95.2293   2.9972201931e+01   1.3299328418e+01    0.3478909    0.1719813 -39.11 0.0007917813    1.840    0.457
       246 -10.7438    199.9089     95.8989   3.5735747256e+01   2.0828332403e+01     0.371071    0.2560454 -55.22   0.00108975    1.587    0.370
       247 -11.5466    223.7122     93.5345   3.1012126250e+01   1.5655988057e+01    0.7007272    0.2233677 -44.04  0.002288073    3.067    0.674
       248 -12.0382     49.3622     95.4136   7.5725256280e+01   5.1293512422e+01    0.2847422     0.248708  17.64 0.0008787499    1.320    0.242
