#   1 NUMBER                 Running object number                                     
#   2 MAG_AUTO               Kron-like elliptical aperture magnitude                    [mag]
#   3 X_IMAGE                Object position along x                                    [pixel]
#   4 Y_IMAGE                Object position along y                                    [pixel]
#   5 X_WORLD                Barycenter position along world x axis                     [deg]
#   6 Y_WORLD                Barycenter position along world y axis                     [deg]
#   7 A_WORLD                Profile RMS along major axis (world units)                 [deg]
#   8 B_WORLD                Profile RMS along minor axis (world units)                 [deg]
#   9 THETA_WORLD            Position angle (CCW/world-x)                               [deg]
#  10 FWHM_WORLD             FWHM assuming a gaussian core                              [deg]
#  11 ELONGATION             A_IMAGE/B_IMAGE                                           
#  12 ELLIPTICITY            1 - B_IMAGE/A_IMAGE                                       
         1 -12.3331    153.4302     14.6481   6.7806831572e+01   4.4714442334e+01    0.3132597    0.1471173 -37.63  0.001480681    2.330    0.571
         2 -12.2359    162.0769     11.8433   6.5706902337e+01   4.2938939266e+01    0.2005081    0.1587261 -87.21  0.000556033    1.254    0.203
         3 -12.7032    245.1706      6.8325   5.5685704549e+01   2.4376867151e+01    0.1539427    0.1306085  76.55 0.0008374854    1.332    0.249
         4 -13.5308    150.2083      3.4978   6.5158386175e+01   4.6499338268e+01    0.6065162    0.2550871  54.40  0.002738482    1.951    0.487
         5 -10.7939    119.1917      6.8769   7.1582896666e+01   5.3268871135e+01    0.1790572    0.1246298  38.03 0.0008225421    1.330    0.248
         6 -13.2532    191.6323      4.8625   6.0194726507e+01   3.6618734764e+01    0.3570454    0.2303244  57.52   0.00122407    1.492    0.330
         7 -10.9461    125.7311      4.2712   6.9479365728e+01   5.2037941094e+01    0.1739337    0.1223668  40.06 0.0007792992    1.324    0.244
         8 -12.5462    142.1084      6.3154   6.7240589092e+01   4.8139060933e+01    0.3761227    0.2446128  44.59  0.001476764    1.458    0.314
         9 -11.6639    230.1488      1.8317   5.5900775783e+01   2.8163046093e+01    0.1578642    0.1274308  70.89 0.0007354039    1.321    0.243
        10 -12.7431    164.3219      1.8719   6.2732601737e+01   4.3329789956e+01    0.3498198    0.1608482  71.98  0.001216232    1.890    0.471
        11 -12.0752    165.5215    233.8224   1.1765369368e+02   1.1133493641e+00    0.2704782    0.2088918  -2.54  0.001486881    1.689    0.408
        12 -17.2001    242.9703    226.6527   1.0137447099e+02  -1.0592877709e+01     4.130492     1.408702 -37.31   0.01764553    2.899    0.655
        13 -12.6941    232.0645    191.3400   9.6690701130e+01  -3.2394586853e+00    0.2553637    0.2271469  16.29 0.0001724405    1.101    0.091
        14 -20.8809    107.5949    182.4773   1.2198042217e+02   2.2309978589e+01     12.11083     8.145882  38.69   0.05861961    1.532    0.347
        15 -11.1186    208.5900    234.1134   1.0913507310e+02  -6.3164429349e+00     0.142941    0.1212647 -25.79 0.0003263576    1.249    0.199
        16 -10.6678     17.6121    234.8461   1.4659249538e+02   2.3325371228e+01   0.08866585   0.07596903  42.10 0.0002492961    1.597    0.374
        17 -12.2252    245.1014    169.8711   8.9987925298e+01  -1.7775413022e+00    0.3241106    0.2361626  56.46   0.00159653    1.749    0.428
        18 -10.4114    193.5480    232.5025   1.1180531727e+02  -3.5390244845e+00     0.227017    0.1551706  10.49  0.001178409    1.764    0.433
        19 -12.0521    217.9929    154.9963   9.1757010655e+01   6.0618839948e+00    0.2167938      0.20368 -38.34  0.001223832    1.037    0.036
        20 -13.0143    211.5331    148.3147   9.1517712907e+01   8.6879973017e+00    0.5656985    0.2839881 -28.89  0.001396084    2.590    0.614
        21 -12.7224     42.0364    136.6109   1.3096713080e+02   4.2889523262e+01    0.2473521    0.2010965 -69.96 0.0003908409    1.048    0.046
        22 -14.5291     30.0350    137.0942   1.3425878319e+02   4.3981784895e+01    0.5581085    0.4150316 -55.94  0.002678653    1.212    0.175
        23 -14.3842     27.7321    129.6988   1.3376766295e+02   4.5932730902e+01    0.7830855    0.2908579 -47.62   0.00324548    2.603    0.616
        24 -12.8073     39.1516    140.1339   1.3229801587e+02   4.2354743103e+01    0.2394276     0.197851 -68.67  0.000308415    1.022    0.022
        25 -14.1090    198.1879    121.9255   8.8014141281e+01   1.6866792081e+01    0.8118706    0.3557539 -36.41  0.002894169    2.439    0.590
        26 -11.0441     10.1594    241.2664   1.4823755302e+02   2.2854749412e+01    0.1921808    0.1837013 -44.56  0.001558201    1.824    0.452
        27 -12.9603     47.4435    123.1004   1.2709640364e+02   4.5504064601e+01    0.4617169    0.2556669 -33.24  0.002011518    2.341    0.573
        28 -12.9597     81.3983    121.0501   1.1680767646e+02   4.1444774552e+01    0.4505769    0.2204214  35.78  0.001602292    2.217    0.549
        29 -11.3465    197.9547    232.0038   1.1085054303e+02  -4.2073344530e+00    0.1408702    0.1279704   1.71 0.0004574181    1.096    0.088
        30  99.0000     40.6582    245.5761   1.4335197479e+02   1.8508766723e+01    0.5425003    0.2320071  67.69  0.002699586    2.360    0.576
        31 -10.9976     34.1677    232.6581   1.4352673829e+02   2.1881556881e+01    0.1132992   0.06508046  83.15  0.000334994    1.513    0.339
        32 -12.3009     59.8386    115.3273   1.2188983333e+02   4.5842165502e+01    0.2660935     0.221718 -71.90 0.0005175364    1.209    0.173
        33 -12.5371    209.7564    114.2765   8.4006788144e+01   1.5757417674e+01    0.2767999    0.2436155 -43.03 0.0006314566    1.100    0.091
        34  -9.9446     40.6980    238.0294   1.4276846430e+02   1.9999235129e+01    0.2654188    0.1644129  82.12  0.001655623    1.371    0.271
        35 -11.6608    178.2824    226.6740   1.1389481038e+02   1.1497956668e-01    0.1862534    0.1338094  35.47 0.0009915817    1.255    0.203
        36 -12.3114    176.2311    223.2471   1.1373789713e+02   1.0916105322e+00    0.3480231    0.2305024  50.97  0.001432027    1.543    0.352
        37 -12.7273     79.1862    108.1671   1.1442636306e+02   4.4760704247e+01     0.283682    0.2674596 -26.53 0.0005015202    1.068    0.063
        38 -12.8714     80.4132    103.2192   1.1282126265e+02   4.5678910322e+01    0.2714668    0.2436507 -45.49 0.0003043324    1.037    0.036
        39 -11.8427    168.7019    238.0221   1.1766598453e+02  -1.7407417458e-01    0.1926037    0.1309489  65.05 0.0009708968    1.965    0.491
        40 -13.4953    175.2859    105.0794   8.8506524635e+01   2.5566513979e+01    0.4415496    0.2270643  58.51   0.00133627    2.140    0.533
        41 -10.2726    201.2638    219.9755   1.0809778213e+02  -2.7802925894e+00    0.1572688    0.1438925 -18.69 0.0003415581    1.138    0.121
        42 -13.2359    167.3210    100.2466   8.8965098312e+01   2.8413313677e+01    0.3278114     0.298967 -35.44 0.0008350264    1.141    0.124
        43 -13.6136     97.5571     93.5297   1.0507628314e+02   4.4864771025e+01    0.3158905    0.2752669   9.26  0.001157318    1.226    0.185
        44 -12.1640     61.5695     96.0122   1.1687995872e+02   4.9979479351e+01    0.3402736    0.2650442   1.38  0.001547619    1.490    0.329
        45 -11.8979    191.8840    218.2635   1.0967532885e+02  -8.3020646803e-01    0.3026593    0.1654592  40.07  0.001215071    1.685    0.406
        46 -11.8694     19.9531     95.2196   1.3010735886e+02   5.4403964090e+01    0.2476476    0.2062555  52.19  0.001163953    1.514    0.339
        47 -11.6852    204.5941    212.0411   1.0599092948e+02  -2.0039482954e+00    0.2309333    0.2062047   2.26 0.0008001308    1.059    0.056
        48 -11.0374    198.3396    209.9850   1.0686490538e+02  -5.2451907724e-01    0.1777629      0.16032 -49.76 0.0005788499    1.273    0.214
        49 -15.0302     89.1370     86.4056   1.0559874362e+02   4.7825396240e+01    0.6149477    0.5792554 -23.42  0.002512213    1.022    0.021
        50 -14.1047     73.6436     87.4257   1.1074842714e+02   5.0113829295e+01    0.5963892    0.4122602 -14.88  0.001689373    1.788    0.441
        51 -12.0154     12.7265     88.6738   1.3116542584e+02   5.6323159866e+01    0.3823788    0.2288312 -69.18  0.002130199    1.564    0.361
        52 -12.0239     36.0314     88.0728   1.2331619389e+02   5.4583742361e+01    0.1896409    0.1608447 -47.64 0.0003825174    1.048    0.045
        53 -12.8023     32.1572     85.0722   1.2391816333e+02   5.5580547092e+01    0.3112143     0.202022  11.86  0.001792504    1.830    0.454
        54 -12.2923    206.5896    206.8025   1.0461437001e+02  -1.4434666305e+00    0.2372262    0.2145739 -52.11 0.0006076946    1.304    0.233
        55 -13.2826     81.2283     82.5863   1.0696185806e+02   4.9918283303e+01    0.2809355    0.2139982 -27.29 0.0009024173    1.304    0.233
        56 -12.9982     43.3769     82.1577   1.1938532185e+02   5.5087568411e+01    0.4283862    0.3050699  42.66  0.002487591    1.738    0.425
        57 -16.1841     96.1166     72.3222   9.9270137556e+01   4.9301734719e+01      1.14377    0.9086712  19.59  0.003619243    1.311    0.237
        58 -15.0330     98.7257     60.6931   9.4805705601e+01   5.0844053499e+01    0.7141828    0.4622557 -47.89  0.003314829    1.757    0.431
        59 -13.5460     81.4914     76.7763   1.0516602361e+02   5.1019059859e+01    0.3195621    0.2930923  44.84 0.0005480382    1.242    0.195
        60 -14.7622     82.6311     71.3465   1.0314861500e+02   5.1859613986e+01    0.5429423    0.4966784  38.27  0.002326265    1.209    0.173
        61 -13.0724     67.1972     74.0550   1.0902748816e+02   5.3743363110e+01    0.3092543    0.2353313 -20.19 0.0009064554    1.305    0.233
        62 -14.9857    111.7663     69.3651   9.3823494134e+01   4.6770180223e+01     0.642522     0.517147  40.44  0.003458576    1.211    0.174
        63 -14.6080    117.9489     67.0356   9.1417785682e+01   4.5880824774e+01    0.7253249    0.3395691 -27.46  0.002304765    2.809    0.644
        64 -14.1074     88.0921     64.5256   9.9272798529e+01   5.2151303489e+01    0.5441369    0.2396826 -46.78  0.002225561    2.485    0.598
        65 -12.4920    150.4450     70.7603   8.4593098300e+01   3.7891613157e+01     0.271355    0.2182562   9.22 0.0009836231    1.578    0.366
        66 -11.9382     61.1770     64.0340   1.0802451514e+02   5.6473219815e+01    0.2037968    0.1747233   8.13 0.0003056453    1.143    0.125
        67 -14.0366    112.8508     58.3173   9.0045863405e+01   4.8395861121e+01    0.4578356    0.2647029 -27.63  0.001359621    1.923    0.480
        68 -14.6758    117.9364     53.8912   8.7283050511e+01   4.8006222212e+01    0.6046013    0.3903268  62.16  0.002883196    1.792    0.442
        69 -13.3262    140.4827     51.6222   8.1174830754e+01   4.3270876075e+01     0.357001    0.2380969  70.87  0.001110914    1.717    0.418
        70 -13.7846    101.6273     48.5243   8.9944438402e+01   5.2186761533e+01    0.3621058    0.2951787  87.75  0.001965151    1.826    0.452
        71 -12.7557     70.3051     49.4166   1.0003588823e+02   5.7631285687e+01    0.2520919    0.2031378  -4.85 0.0004780428    1.142    0.124
        72 -11.5852     41.1371     49.9171   1.1079484246e+02   6.1456760907e+01    0.2932129    0.1751674   5.73  0.001601794    1.949    0.487
        73 -12.5428     54.8221     45.8318   1.0426418569e+02   6.0451032289e+01    0.3155731    0.1663859  29.55  0.001651106    1.926    0.481
        74 -13.6081     96.9435     39.4560   8.8177865334e+01   5.4388209983e+01    0.4547368    0.2943262  29.18  0.001743086    1.552    0.356
        75 -11.0919    166.6053     38.8397   7.2371824819e+01   3.8778243093e+01    0.2283419     0.153959  69.98 0.0005846085    1.402    0.287
        76 -10.4481    200.6583     35.2771   6.6335466628e+01   3.0996707780e+01    0.1408456   0.09207995 -76.18 0.0002540717    1.622    0.383
        77 -11.4527    218.1544    204.8916   1.0197972288e+02  -3.1523394122e+00    0.3430011    0.2349811   4.62  0.000869544    1.781    0.438
        78 -12.7795    129.0365     32.3347   7.7728531596e+01   4.8472417924e+01    0.4003313    0.1894449 -31.76  0.001803055    2.294    0.564
        79 -11.1059    212.9861    204.9111   1.0299103945e+02  -2.2495608005e+00    0.1978167    0.1769574  16.63 0.0004488704    1.041    0.039
        80 -12.9841    200.3917    200.3196   1.0462395052e+02   8.4886453133e-01    0.4698778    0.2878582 -59.56  0.002067775    2.357    0.576
        81  -8.6286    175.9808    236.8328   1.1601783044e+02  -1.2347967195e+00    0.2032143    0.1199577  54.20 0.0009775829    1.929    0.482
        82 -11.5562     60.7170     28.1770   9.5602988546e+01   6.2169062747e+01    0.2681765    0.1749426 -17.07  0.001600323    1.474    0.322
        83 -12.6761    217.8260    195.6939   1.0025940367e+02  -1.4933094457e+00    0.4261638    0.3591418  -8.84  0.002461023    1.160    0.138
        84 -11.2405    250.5616     24.0172   5.8552927894e+01   2.1169188885e+01    0.1754503     0.105293 -44.45 0.0004079243    1.557    0.358
        85 -11.6570    194.4303    193.9264   1.0460262273e+02   3.1644619306e+00    0.2424672    0.1871523  35.69  0.000612189    1.252    0.201
        86 -11.4595    211.9685     20.0000   6.1445870272e+01   3.0227804250e+01    0.2127798   0.06434881  69.10 0.0008034901    2.950    0.661
        87 -10.7864     23.8659    246.1925   1.4626573395e+02   2.0394833523e+01    0.2612176    0.1415258 -55.38  0.001512861    2.588    0.614
        88 -11.8582    221.8444    233.2886   1.0646018791e+02  -8.3259315168e+00    0.3550857    0.2142254 -54.09  0.001755723    2.586    0.613
        89 -11.2640      9.4448    248.2699   1.4874936997e+02   2.1582859079e+01    0.2057535   0.09964775  67.23 0.0005751306    1.628    0.386
        90 -11.9638     17.1893    248.4554   1.4750878728e+02   2.0709850443e+01    0.1850717    0.1566796 -79.19   0.00145449    1.487    0.327
        91 -11.3041     12.9725    248.5530   1.4819860059e+02   2.1151847042e+01    0.1427213    0.1131073  81.04 0.0002964928    1.225    0.184
        92 -11.4398    219.8089    190.6452   9.8874643063e+01  -9.5190602427e-01    0.2129764    0.1993176 -15.80 0.0003821108    1.072    0.067
        93  99.0000     29.3838    246.2413   1.4533944624e+02   1.9745380665e+01    0.2533493    0.1905625  83.48  0.001853569    1.119    0.106
        94  -8.6413    181.4550    245.5186   1.1629546539e+02  -3.5960547584e+00    0.1327038    0.1064283  16.72 0.0002596478    1.250    0.200
        95  99.0000    149.9265    244.6373   1.2241006514e+02   1.9259983086e+00    0.3381078    0.1515689  55.42  0.001365444    2.778    0.640
        96 -10.4294    169.5905    243.4009   1.1831333554e+02  -1.2373873793e+00    0.1295599    0.1095325  28.63 0.0007933274    1.097    0.088
