#   1 NUMBER                 Running object number                                     
#   2 MAG_AUTO               Kron-like elliptical aperture magnitude                    [mag]
#   3 X_IMAGE                Object position along x                                    [pixel]
#   4 Y_IMAGE                Object position along y                                    [pixel]
#   5 X_WORLD                Barycenter position along world x axis                     [deg]
#   6 Y_WORLD                Barycenter position along world y axis                     [deg]
#   7 A_WORLD                Profile RMS along major axis (world units)                 [deg]
#   8 B_WORLD                Profile RMS along minor axis (world units)                 [deg]
#   9 THETA_WORLD            Position angle (CCW/world-x)                               [deg]
#  10 FWHM_WORLD             FWHM assuming a gaussian core                              [deg]
#  11 ELONGATION             A_IMAGE/B_IMAGE                                           
#  12 ELLIPTICITY            1 - B_IMAGE/A_IMAGE                                       
         1 -13.9252    219.2561     27.0296   4.1836793031e+01   2.7266449741e+01     1.310064    0.9061726  40.70   0.00689432    1.897    0.473
         2 -13.3012    242.6447      5.2350   3.4792124362e+01   2.4453730701e+01    0.6965479    0.4848977 -71.80  0.002798381    1.221    0.181
         3 -10.5205      2.1003      3.9475   9.4479262439e+01   7.4091639038e+01    0.3669674   0.08035761 -43.78  0.001622442    3.148    0.682
         4 -10.6313     45.3554    228.1185   1.2140466196e+02   2.1578026775e+01    0.1877916    0.1444446  44.42 0.0007266172    1.360    0.265
         5 -15.2128    110.1101    247.1104   1.1083735972e+02   9.2167794662e+00     9.296044     2.349444  38.97   0.03580792    3.259    0.693
         6 -14.4237     32.1148    204.4536   1.2222496227e+02   2.7904009532e+01     1.446434    0.9462009 -85.21  0.007777836    1.313    0.238
         7 -15.1336     38.7156    196.3418   1.2023168907e+02   2.8911559109e+01      6.62182     2.207557  69.64   0.01796516    7.471    0.866
         8 -11.4006     53.9215    183.8560   1.1572402686e+02   2.9891810918e+01    0.3355762    0.2679833 -35.85  0.001208905    1.777    0.437
         9 -11.5657     60.3677    177.4366   1.1350992702e+02   3.0547159067e+01    0.2876714    0.2592363 -45.61 0.0007846165    1.393    0.282
        10  -9.8865    231.4910    170.9577   7.4226499558e+01   1.4592325483e+00      0.20232    0.1236966 -33.45 0.0003712042    1.531    0.347
        11 -10.9288     71.4058    166.9831   1.0948786035e+02   3.1512211257e+01    0.2644473     0.224514 -64.70 0.0003888065    1.184    0.156
        12 -13.0967     57.6907    163.6968   1.1243751008e+02   3.4119787976e+01    0.5175164    0.2978007 -48.20  0.001551257    1.991    0.498
        13 -13.0099     57.4657    131.9790   1.0775810220e+02   4.1875418371e+01      2.67776    0.8074887 -73.14  0.005683953    8.686    0.885
        14 -12.4418     79.4261    160.0916   1.0644265497e+02   3.2000399738e+01    0.8749174    0.5551915  60.75  0.004218587    1.705    0.413
        15 -13.1360     67.8999    144.1931   1.0690734842e+02   3.7508379711e+01    0.9377306    0.6278875  78.33  0.002853265    1.749    0.428
        16 -12.0156     33.7566    156.7487   1.1752429501e+02   3.8495661327e+01    0.4569686    0.2405051  89.08  0.002224025    1.948    0.487
        17  -9.2838     97.8043    141.9817   9.8367635144e+01   3.3445370146e+01    0.2369688    0.1832543 -20.79   0.00112972    1.738    0.424
        18 -10.9744     44.5829    145.2927   1.1334342145e+02   4.0113287025e+01    0.3474518    0.1784402  84.39  0.001460424    2.561    0.610
        19 -11.9434     82.2517    143.9089   1.0295624425e+02   3.5497521864e+01    0.3064266    0.2581545 -54.81 0.0004624189    1.174    0.149
        20 -10.1690     94.3804    145.3773   9.9954738755e+01   3.3201242653e+01    0.2843663    0.2678082  80.26   0.00087678    1.036    0.035
        21 -10.5688     35.1522    139.8484   1.1513422733e+02   4.2421799121e+01    0.2072057     0.158884  81.30  0.001069834    1.239    0.193
        22 -10.6683    106.8738    132.1609   9.3820416389e+01   3.4204146430e+01    0.3874515    0.3807472 -89.53  0.001554549    1.036    0.035
        23 -10.4194     93.8787    129.4503   9.6852260301e+01   3.7151679980e+01    0.2689824     0.254602 -39.19 0.0004214016    1.115    0.103
        24  -9.3370     41.3367    164.6899   1.1655864876e+02   3.5813858670e+01    0.1375207   0.08295234  68.83  0.000439337    1.683    0.406
        25 -15.6856      6.9718    239.0396   1.2877549240e+02   2.3665882189e+01     11.90934     1.377753 -78.08   0.03831146    7.640    0.869
        26  -9.3746    104.8911    120.8614   9.1770242381e+01   3.7266402293e+01    0.2159033    0.1978469 -28.39 0.0002699102    1.159    0.137
        27 -11.2871     27.3936    112.2576   1.1341596444e+02   4.9831420296e+01    0.4035838    0.1978173  67.44  0.001638714    3.281    0.695
        28  -8.8691    167.9776    112.9856   7.3494384393e+01   2.5540865123e+01    0.2544322    0.1968995 -81.22  0.001122001    1.721    0.419
        29  -9.3585    204.5357    110.9597   6.5460008949e+01   1.7519964146e+01    0.3375809    0.1811513  34.61  0.001281565    2.458    0.593
        30 -10.3755     52.6982     89.8032   1.0063319952e+02   5.2661291026e+01    0.2374322    0.2321819 -62.16 0.0007617932    1.132    0.117
        31  -8.5139     63.2992     83.6354   9.5329268501e+01   5.2724349747e+01    0.1384744    0.1093066  88.74  0.000703365    1.725    0.420
        32  -8.9314    161.6880     81.6586   6.6180692961e+01   3.3213204262e+01    0.1612296    0.1239591  11.96 0.0007046196    1.699    0.411
        33  -9.5041     59.5402     77.4689   9.4936994193e+01   5.4605522986e+01    0.1406516    0.1203744 -34.77 3.082572e-05    1.051    0.049
        34  -9.9953     13.3159     60.1839   1.0826977005e+02   6.2844067619e+01    0.2032357    0.1128752 -47.62 0.0005174532    1.391    0.281
        35 -14.4535      9.7359    207.9872   1.2677497646e+02   2.9429596229e+01     1.634384     1.007078 -73.31  0.004919981    1.524    0.344
        36 -11.8618    199.9739     44.4253   4.8663061568e+01   2.9668412811e+01    0.4471273    0.2924122 -51.25   0.00218782    1.505    0.335
        37 -12.8870     23.8108    212.8907   1.2442109236e+02   2.7036404199e+01    0.4221158     0.367463 -48.00  0.002386522    1.716    0.417
        38  -9.5689    189.5179     15.4651   4.2139394754e+01   3.5857205593e+01    0.1355153    0.1203801  88.98 0.0002988735    1.012    0.011
        39 -11.5881     82.5994    230.8392   1.1449799977e+02   1.6170101102e+01    0.2842813    0.2133429  66.34  0.001414952    1.139    0.122
