#   1 NUMBER                 Running object number                                     
#   2 MAG_AUTO               Kron-like elliptical aperture magnitude                    [mag]
#   3 X_IMAGE                Object position along x                                    [pixel]
#   4 Y_IMAGE                Object position along y                                    [pixel]
#   5 X_WORLD                Barycenter position along world x axis                     [deg]
#   6 Y_WORLD                Barycenter position along world y axis                     [deg]
#   7 A_WORLD                Profile RMS along major axis (world units)                 [deg]
#   8 B_WORLD                Profile RMS along minor axis (world units)                 [deg]
#   9 THETA_WORLD            Position angle (CCW/world-x)                               [deg]
#  10 FWHM_WORLD             FWHM assuming a gaussian core                              [deg]
#  11 ELONGATION             A_IMAGE/B_IMAGE                                           
#  12 ELLIPTICITY            1 - B_IMAGE/A_IMAGE                                       
         1 -13.2285    196.6692     41.3481   4.4357397433e+01   3.1583418282e+01      1.20066    0.9945253 -45.25  0.004099789    1.188    0.158
         2 -13.7728    205.6252     32.2881   4.0932828389e+01   3.0622552184e+01      1.47512     0.981639 -12.21  0.001317688    2.110    0.526
         3 -12.4624     35.0280     16.7819   7.8390282656e+01   6.9213284513e+01    0.4872372    0.2859103  23.82  0.002862545    1.617    0.382
         4 -12.2942    232.9089      6.2650   3.2398698820e+01   2.7449772722e+01    0.6646955    0.4778756 -26.55   0.00421941    1.649    0.394
         5 -12.3907    226.7095      5.5811   3.2708161517e+01   2.8857165627e+01    0.6418379    0.4272222 -36.10  0.003961412    1.526    0.345
         6 -10.3622     63.2082      8.1879   6.1990440116e+01   6.5894223048e+01    0.1963876    0.1440265  18.34  0.001075284    1.173    0.147
         7 -11.8072     56.5407      4.7057   6.2783752252e+01   6.7422666517e+01    0.5743113    0.2697636  19.85  0.002565552    2.762    0.638
         8 -11.7989     43.9690      6.3726   6.8898504685e+01   6.9290309931e+01    0.3652576    0.1755577  29.60  0.001911478    1.958    0.489
         9  -9.5797     89.8611    212.7949   1.0743242874e+02   1.8686686731e+01    0.2971624    0.2218907  73.15   0.00104165    1.367    0.268
        10 -11.1654    140.3563    249.4142   1.0132881279e+02   4.1983946851e+00    0.3318735    0.2662627  56.11  0.002161553    1.315    0.240
        11 -16.1396     59.8152    188.6586   1.1147440927e+02   2.8150004007e+01     29.10814      10.7607 -85.58    0.0741365    7.296    0.863
        12  -9.8095     33.4080    205.3825   1.1898200562e+02   2.7437270105e+01    0.3044824    0.1849583  44.93  0.001746045    1.515    0.340
        13 -10.4927    183.8406    212.7771   8.6930361908e+01   3.4606892575e+00    0.4488877    0.1951417 -43.63  0.001947732    2.483    0.597
        14 -10.0961    121.1599    199.8601   9.8544581475e+01   1.6542066405e+01    0.2120481    0.1826029  65.54  0.000530749    1.194    0.162
        15  -9.9771    204.1729    199.2877   8.0368537714e+01   2.3855786811e+00    0.3103576     0.112272  40.91  0.001205525    2.729    0.634
        16  -9.9262    120.2569    194.3735   9.7892693843e+01   1.7864502736e+01    0.2578715    0.2158822  89.01 0.0007135196    1.347    0.258
        17  -8.9340     81.9286    194.8163   1.0700566732e+02   2.3759886080e+01    0.1958662    0.1895899 -23.48  0.001228343    1.256    0.204
        18 -10.3226     21.1683    192.5013   1.2061271885e+02   3.1510737684e+01    0.4754079     0.263329  56.19  0.002433754    1.641    0.391
        19  -9.6809    149.6069    187.7430   8.9910989338e+01   1.4138863286e+01    0.3070379    0.2520808 -81.52  0.001267074    1.572    0.364
        20 -17.4482     10.7789    246.9627   1.2577169597e+02   2.1355510751e+01     5.461822     2.377954  26.72   0.01905614    3.086    0.676
        21  -8.9738     91.2308    183.0727   1.0313611139e+02   2.5074459053e+01    0.2004635    0.1829088 -53.42 0.0004828097    1.183    0.155
        22  -9.8916     99.4268    180.7042   1.0074694057e+02   2.4345186998e+01    0.2456883      0.23627  23.93 0.0005276183    1.144    0.126
        23  -9.8543    188.7789    177.1013   7.9168915008e+01   9.0532995469e+00    0.3713666    0.3134497 -83.64  0.001939692    1.733    0.423
        24 -10.0433    146.4873    171.8604   8.7614067492e+01   1.8076502595e+01    0.3829572    0.2773867 -76.01  0.001186354    1.935    0.483
        25 -13.7807     44.1810    112.1109   1.0451439943e+02   4.8707611658e+01     2.728389     1.737033 -76.08   0.01358599    1.647    0.393
        26 -16.1695      2.1276    225.6084   1.2632989753e+02   2.6256118878e+01     3.737703    0.2798536 -70.31   0.01263357    6.234    0.840
        27  -8.7606    194.2317    171.8356   7.6944539759e+01   9.0400421299e+00    0.2046546    0.1612405  -2.50  0.000837356    1.347    0.258
        28  -9.2523     41.0197    178.0816   1.1479677984e+02   3.2826816258e+01    0.1921373    0.1631246  89.08 0.0003005045    1.021    0.020
        29  -9.7139    240.4770    169.5066   6.7691788208e+01   1.3479044749e+00    0.1342039    0.1134854 -16.22 7.461022e-05    1.021    0.021
        30  -9.6932    137.2474    167.3012   8.8942518712e+01   2.0816548141e+01      0.38225    0.2496915  56.82  0.001325131    1.804    0.446
        31  -9.0327    110.8670    168.1068   9.5720994545e+01   2.5389544633e+01    0.2295228    0.1981384  76.09 0.0005572089    1.235    0.190
        32 -10.9962    193.2194    195.0200   8.1772422399e+01   4.9742237038e+00     1.227352    0.6593708 -62.73  0.003947192    5.134    0.805
        33 -12.2895     83.9343    159.7181   1.0130968444e+02   3.1758269566e+01     1.230615    0.7642823  77.39 0.0007710415    2.273    0.560
        34 -13.1264     72.6782    154.0397   1.0341580152e+02   3.4784455213e+01    0.6693938    0.5114036 -61.19  0.001073158    1.228    0.186
        35 -11.4349     90.8547    152.3516   9.8127581808e+01   3.2494271364e+01    0.6818305    0.4758619 -22.82  0.003068482    2.031    0.508
        36 -14.5352     68.5771    144.1140   1.0288667055e+02   3.7813998652e+01     4.741471     2.113783  61.36  0.003554944    4.643    0.785
        37 -11.5456     72.0021    172.4974   1.0641696035e+02   3.0367855301e+01    0.4186881    0.3211145 -28.35  0.001443939    1.738    0.425
        38 -10.6719    134.0876    146.6897   8.5395676489e+01   2.6102676454e+01     1.130526    0.3514547 -56.09  0.002899116    4.800    0.792
        39  -8.1833    112.5308    150.4908   9.1876422793e+01   2.9273211265e+01     0.150332    0.1458824 -87.95 0.0002033263    1.027    0.026
        40  -9.2437    174.6721    149.0833   7.6189289812e+01   1.7361821821e+01    0.2545036    0.2144735  54.56 0.0007175547    1.311    0.238
        41 -10.2370    104.1056    138.2733   9.1608900144e+01   3.3714981650e+01    0.5752087    0.3658803 -23.18  0.002272726    2.394    0.582
        42 -11.6198     91.5472    138.0313   9.5128785539e+01   3.5903735301e+01    0.2911302    0.2647074 -42.45 0.0004492921    1.112    0.100
        43 -10.3526    135.6265    129.1053   8.0884247553e+01   2.9814270372e+01      0.59925    0.1494159 -50.30  0.001509312    4.536    0.780
        44 -10.0695    105.8844    130.6689   8.9407408058e+01   3.5233457791e+01    0.3907903    0.3171189 -66.65   0.00125526    1.298    0.230
        45 -10.0753    112.7571    129.2318   8.7124585334e+01   3.4309242357e+01    0.3813876    0.2912433  -2.36 0.0008357736    1.747    0.427
        46  -9.1614    160.6147    127.8304   7.4357280259e+01   2.4793060427e+01    0.2342423    0.1437221 -53.24 0.0009525876    1.787    0.441
        47 -10.3328     99.9269    125.1616   8.9854676153e+01   3.7622215154e+01    0.3164939    0.2587633  -9.19  0.001549173    1.477    0.323
        48 -10.8136    119.3303    123.0656   8.3788244856e+01   3.4492692710e+01     0.618407    0.4007906   9.45   0.00232526    2.582    0.613
        49  -9.5286    135.3595    116.1893   7.7677871187e+01   3.2768054057e+01    0.3595049    0.1394968 -47.22  0.001183556    2.577    0.612
        50  -9.1463    108.5096    118.2804   8.5674196721e+01   3.7695966049e+01    0.2469543    0.2076403  37.14 0.0005161845    1.228    0.186
        51  -9.8761    231.3090    113.6973   5.7059134594e+01   1.2480298495e+01    0.2640273     0.236733 -43.43 0.0007702418    1.059    0.056
        52  -8.7575    167.8002    112.5090   6.8792090148e+01   2.6394340794e+01     0.303166    0.2046797 -73.70  0.001183786    2.348    0.574
        53 -10.8890    118.9864    110.2416   8.0575434709e+01   3.7500464830e+01    0.4072982    0.3030849 -88.46  0.001742759    2.002    0.500
        54 -10.5136    115.7109    108.4282   8.1023089563e+01   3.8568088187e+01    0.4372289    0.3068738 -16.97  0.001856958    1.906    0.475
        55  -9.5471    205.4469    110.1594   6.0587865399e+01   1.8471419842e+01    0.3098642     0.212475  40.88  0.000902738    1.607    0.378
        56 -12.9673     54.9874    146.7594   1.0717176780e+02   3.8879731225e+01     2.294514     1.480278 -43.52   0.01146803    1.691    0.409
        57  -9.4662    134.6076    105.5648   7.5020449604e+01   3.5248335039e+01    0.4573616    0.1494545 -43.61   0.00139962    3.012    0.668
        58  -9.1278     93.0636    205.7059   1.0583243102e+02   1.9725775743e+01     0.188757     0.163102  51.54 0.0005788254    1.062    0.059
        59  -9.3876     65.7948    104.4071   9.5651741994e+01   4.7995272282e+01    0.1903822    0.1395307  11.36 0.0008593265    1.627    0.386
        60  -8.3007    129.4827     96.5263   7.3845297249e+01   3.8280295231e+01    0.1544245    0.1511656 -16.38 7.115158e-05    1.008    0.008
        61 -10.3377     55.8044     95.4218   9.6916010634e+01   5.1422328080e+01    0.3620407    0.2734897  61.53  0.001112484    1.732    0.423
        62 -10.5722     51.5209     90.2261   9.7162663512e+01   5.3150263225e+01    0.3581985    0.3115925  18.18  0.001358074    1.264    0.209
        63 -11.3761     75.9940    167.7099   1.0468715617e+02   3.0968337873e+01    0.3584857    0.3251584 -44.95  0.001028566    1.224    0.183
        64  -9.2023    157.4343     82.6801   6.2901253194e+01   3.4598375356e+01    0.2915898    0.1443248 -41.49  0.001103023    1.999    0.500
        65  -9.2519     60.1754     67.9480   8.7559594619e+01   5.6955753799e+01    0.1983551     0.185012 -60.06 0.0005360948    1.283    0.221
        66 -12.9494    185.3312     50.2245   4.8367805201e+01   3.3100591141e+01     0.944604    0.9019673  -3.55 0.0008576936    1.197    0.165
        67 -10.8265    190.0052    210.2779   8.5230000828e+01   2.8700182486e+00    0.3837613    0.2769611 -50.53  0.002097104    1.715    0.417
        68 -12.2960    112.7045    196.2233   9.9954808021e+01   1.8713561691e+01     1.022977      0.62932  -0.19  0.003693367    3.848    0.740
        69 -10.6681     28.0785     35.2354   8.9907762387e+01   6.7037029149e+01    0.2531143    0.1513886  28.95  0.001229935    1.835    0.455
        70 -15.8280     51.0619    201.4611   1.1482115233e+02   2.6315555988e+01     11.04224      3.88585  63.52   0.03404711    5.331    0.812
        71  -9.7871     31.9591     32.0409   8.6735421615e+01   6.7191750023e+01    0.2663377    0.1198455 -16.16  0.000962886    4.165    0.760
        72  -9.5133    198.0929     23.4813   3.9578519330e+01   3.3439584618e+01    0.2267269    0.1848929  -4.68 0.0007147538    1.617    0.382
        73 -11.4573    223.7508     19.7534   3.6100770278e+01   2.7974816902e+01    0.2749726    0.2410065  83.79  0.001842326    1.158    0.137
        74 -11.1810    107.8051    210.8543   1.0318164640e+02   1.6386083069e+01    0.3984618    0.2340157 -62.21  0.001421855    1.866    0.464
        75  -9.0938    189.5177     14.9601   3.8349939545e+01   3.6409471275e+01    0.1836561    0.1266222 -31.18 0.0008032932    1.568    0.362
        76 -11.1348    112.0576    205.3224   1.0144934119e+02   1.6871610449e+01    0.3256393    0.2646924  71.76 0.0009224162    1.305    0.234
        77 -10.7325     59.9289    220.5356   1.1469796142e+02   2.1122752576e+01    0.3970066     0.294952  38.32  0.002317976    1.355    0.262
        78 -12.0784    164.1694    215.0077   9.1424023550e+01   6.3364537012e+00    0.5901658     0.384537  31.24  0.003095594    1.402    0.287
        79 -11.4712    107.6489    203.9061   1.0225615594e+02   1.7871945285e+01    0.3940028     0.319369  40.45  0.001483913    1.157    0.135
