#   1 NUMBER                 Running object number                                     
#   2 MAG_AUTO               Kron-like elliptical aperture magnitude                    [mag]
#   3 X_IMAGE                Object position along x                                    [pixel]
#   4 Y_IMAGE                Object position along y                                    [pixel]
#   5 X_WORLD                Barycenter position along world x axis                     [deg]
#   6 Y_WORLD                Barycenter position along world y axis                     [deg]
#   7 A_WORLD                Profile RMS along major axis (world units)                 [deg]
#   8 B_WORLD                Profile RMS along minor axis (world units)                 [deg]
#   9 THETA_WORLD            Position angle (CCW/world-x)                               [deg]
#  10 FWHM_WORLD             FWHM assuming a gaussian core                              [deg]
#  11 ELONGATION             A_IMAGE/B_IMAGE                                           
#  12 ELLIPTICITY            1 - B_IMAGE/A_IMAGE                                       
         1 -13.6730     14.7095    134.2064   1.3245310059e+02   4.6284117366e+01     3.069949     1.587931 -64.24   0.01580996    1.538    0.350
         2 -12.6829     51.7782     92.0993   1.1218636794e+02   5.2324001112e+01     2.460972    0.8758239 -38.64  0.008481029    3.150    0.683
         3 -12.4167     54.5068     35.3205   9.3248661379e+01   6.1897202438e+01    0.8262941    0.7448789  37.21   0.00578567    1.410    0.291
         4 -11.5648     50.7056     24.8142   9.0652597120e+01   6.3785934486e+01    0.5063007    0.3095616  -2.90 0.0001841727    1.791    0.442
         5 -12.1497     54.4364      5.7452   8.1704053050e+01   6.5171496119e+01     1.643064     0.556209  39.57  0.007994409    2.427    0.588
         6 -13.2266     72.5954     31.0030   8.5498498232e+01   5.9511574131e+01     2.591383      0.84488  42.36   0.01028788    2.701    0.630
         7 -11.4863     37.5172     41.5552   1.0204060236e+02   6.3298512059e+01     1.265301    0.5771352  18.10  0.005904206    2.722    0.633
         8 -11.3160     25.2089      5.4106   9.2769560068e+01   6.9378350228e+01    0.5224414    0.2922661 -25.92  0.003479697    1.715    0.417
         9 -13.3941    105.0849     52.8851   8.3459485184e+01   5.0449788690e+01     2.286922     1.101148  40.32   0.00210641    2.031    0.508
        10 -13.5441     46.1138     67.5556   1.0729527892e+02   5.7897352650e+01     8.722127    0.5870475  36.74   0.01844176   11.759    0.915
        11 -12.5066      3.2165     17.4179   1.0812880777e+02   7.0162055787e+01     0.348233    0.1982323 -21.96 0.0003536055    1.421    0.296
        12 -13.4931      3.8884      9.3615   1.0448088957e+02   7.1156368064e+01    0.5696388    0.3155413 -33.55  0.001427939    1.598    0.374
        13 -13.4831    145.6573     53.6196   7.4261227553e+01   4.1434048731e+01     2.357406     2.110424 -12.30 0.0008993092    1.314    0.239
        14  99.0000     67.7283     19.1415   8.2642960095e+01   6.1675162851e+01     1.460147     0.705632  37.87   0.00782463    1.785    0.440
        15 -12.5405     40.3637     20.4271   9.2855401050e+01   6.5772247778e+01     1.638201    0.6161568 -27.68   0.00787636    2.831    0.647
        16 -13.5698     24.8285     18.0702   9.8354889797e+01   6.7993017906e+01     1.701678     1.546821 -59.26   0.01256579    2.127    0.530
        17 -12.4960    143.3308     39.0452   7.0667121265e+01   4.3914541276e+01     4.792693     2.495962  23.59   0.01598808    4.959    0.798
        18 -12.2164      8.5223     26.1437   1.0895125126e+02   6.8507595498e+01    0.8705506    0.5583031  -2.90  0.005137433    1.355    0.262
        19  -9.8118    121.6898     11.1231   6.6664025436e+01   5.1699954575e+01    0.4474255    0.2072265  48.24  0.001064989    1.853    0.460
        20 -11.9065    130.5673     20.5622   6.7797061757e+01   4.8865543489e+01     1.257682     0.485153  58.73  0.003695686    2.114    0.527
        21 -10.4447    130.1327     14.1444   6.6022983083e+01   4.9576765932e+01     1.117759    0.1749197  53.07  0.003723993    4.056    0.753
        22 -12.0210    179.2932     28.8849   6.2345672568e+01   3.6863042389e+01     1.279672    0.9106207 -34.00  0.005024375    1.633    0.388
        23 -11.2223    157.7776     19.1904   6.2959138736e+01   4.2854698020e+01    0.9765695    0.5338897 -38.13   0.00524269    2.012    0.503
        24 -11.7768    149.0640     18.2759   6.4032031957e+01   4.4930411107e+01     1.018499    0.6546157 -26.26  0.005837315    1.895    0.472
        25 -10.8553    163.9116      4.6148   5.8519371659e+01   4.2868560815e+01    0.6936752    0.3643895 -27.98  0.002443121    2.333    0.571
        26 -11.9032    112.3021      7.4699   6.7340852032e+01   5.4026011568e+01    0.9482334    0.3415957  62.61  0.003699665    2.406    0.584
        27 -11.4782    111.9676     21.6816   7.1863868698e+01   5.2809640971e+01    0.9574599     0.753054 -67.58  0.005864837    1.668    0.401
        28 -10.5593    117.2672     15.1837   6.8740933411e+01   5.2295207185e+01    0.3301539    0.2141323  77.09 0.0001836454    1.739    0.425
        29 -12.5338     99.8231      6.5299   6.9622533940e+01   5.6705164239e+01    0.4631394    0.3690913   5.91 0.0008066076    1.402    0.287
        30 -11.4935     93.6612      7.7954   7.1440055476e+01   5.7850140400e+01    0.4466256    0.3047286  30.07  0.001313442    1.400    0.286
        31 -10.9673     59.0179     49.4888   9.6684121168e+01   5.9195316920e+01      1.41168     1.253997 -36.33  0.009381219    1.335    0.251
        32 -11.5614    216.4137      4.0090   5.3104196592e+01   3.1442199012e+01     1.463022    0.2194018  68.49   0.00514584    4.642    0.785
        33 -11.3678    213.9269     14.8547   5.5440835449e+01   3.0795078810e+01     1.071136    0.4627062  55.54  0.005301887    2.558    0.609
        34  -9.3321    226.4889      8.0810   5.3056764686e+01   2.8913459983e+01    0.2408664    0.1820705  61.02  0.001131188    1.582    0.368
        35 -10.9714    215.3940     23.7985   5.7093123123e+01   2.9442096654e+01    0.5008402    0.4129812 -55.43  0.001489724    1.268    0.211
        36 -10.4899    230.8533     15.5303   5.4090074963e+01   2.7176453187e+01    0.7146859    0.3266454 -60.35  0.003819935    2.013    0.503
        37 -11.0560    233.2268      9.5279   5.2793726688e+01   2.7378015290e+01    0.4279638    0.2992871 -40.02  0.001830051    1.649    0.394
        38 -12.7610     86.2950     52.4514   8.8677825138e+01   5.4180163544e+01      2.61625     1.879564  72.92   0.01307514    2.333    0.571
        39 -10.2798    242.8099     13.0690   5.2699952156e+01   2.5057016542e+01    0.3894682    0.2740113 -38.29  0.002644125    1.713    0.416
        40 -11.2587    236.4151     31.8322   5.6669362406e+01   2.4038415209e+01    0.4658223    0.4164515 -53.04   0.00236785    1.385    0.278
        41 -11.0428    239.6762     18.8265   5.3976660528e+01   2.5000192336e+01    0.9930926    0.4041032 -33.37  0.004783695    3.103    0.678
        42 -10.5675    224.4884     26.1379   5.6680698856e+01   2.7226597652e+01     0.510052    0.2615116 -77.35  0.002610403    2.071    0.517
        43 -11.7559    166.9674     24.3813   6.2945225970e+01   4.0199104656e+01    0.4355604    0.2983753  61.81 0.0007782263    1.287    0.223
        44 -10.8352    167.7612     12.6304   5.9969182500e+01   4.1247268389e+01    0.6649027    0.3636199  87.13  0.002812522    1.925    0.481
        45 -10.4204    202.3154     18.5012   5.7322250964e+01   3.2897051672e+01    0.5469501    0.2777788  47.96  0.002695901    2.631    0.620
        46  -9.2004    197.9346     16.8067   5.7420286600e+01   3.4049454383e+01    0.2308413    0.2091457  85.00 0.0009070014    1.220    0.180
        47 -10.0087    185.4841     14.0985   5.8184627342e+01   3.7107189031e+01    0.4980527    0.1711223  65.10  0.001778112    2.367    0.577
        48  -9.3825    141.0512     10.5788   6.3213927638e+01   4.7468337903e+01    0.4073344    0.2309185 -65.74 0.0008351518    2.438    0.590
        49  -9.8301    173.6422      8.5546   5.8283671971e+01   4.0318975842e+01    0.2155265    0.1730591 -44.46 0.0004527876    1.412    0.292
        50 -10.4760    181.1399      4.5895   5.6539230041e+01   3.9023618686e+01    0.3420663    0.2459353  81.92  0.001331106    1.124    0.111
        51  -8.7345    175.2638      4.1773   5.7088563040e+01   4.0369442823e+01    0.2706025    0.1086853  59.36 0.0008482303    2.101    0.524
        52 -11.0653    199.1977      5.5334   5.4926308239e+01   3.4962683497e+01    0.5390767     0.386934 -78.96  0.002513226    1.181    0.153
        53  -9.8004    189.8622      7.8849   5.6345492099e+01   3.6770894517e+01    0.3552995    0.1369179  59.78  0.001510532    2.273    0.560
        54 -11.1266     77.2448      9.1952   7.6105947012e+01   6.0903940180e+01    0.2525628    0.1951335  34.22 0.0005448477    1.043    0.041
        55  -9.3339     79.3328      3.6400   7.3506948259e+01   6.0966142747e+01    0.5059167    0.1778001  39.00  0.002330009    2.582    0.613
        56  -9.6093    249.6983      6.8037   5.1120412377e+01   2.4431880351e+01    0.3399916    0.1347616 -57.04   0.00185355    2.105    0.525
        57  -9.2208    248.4518      1.6686   5.0333469225e+01   2.5242436133e+01    0.2004379    0.1234434  83.38 0.0007416057    1.357    0.263
        58  -9.0671    238.0163      7.4730   5.2062412134e+01   2.6645587043e+01    0.1620365    0.1207351 -66.98 0.0003440474    1.135    0.119
        59  -9.4626    156.6362      5.3408   5.9619248154e+01   4.4436372227e+01    0.4006112    0.1389164  61.18  0.001840899    2.220    0.550
        60 -11.0379    132.3221      4.3821   6.2882453811e+01   4.9936951543e+01    0.4671471    0.2407983  51.06  0.001810269    1.659    0.397
        61 -11.0904    139.6559      1.9034   6.1080388510e+01   4.8516201812e+01    0.3749024    0.2269018  68.72  0.001284357    1.356    0.263
        62  -7.9953    169.3646      4.6727   5.7878803290e+01   4.1641724439e+01    0.1291073   0.07730728 -74.47 0.0007038381    1.801    0.445
        63  -8.6614    146.0000      3.5078   6.0594798625e+01   4.6974535671e+01    0.2218345   0.07002775 -25.40 0.0009295333    3.893    0.743
        64  -8.3979    122.6208      3.3307   6.4190966239e+01   5.2140976248e+01    0.1861231    0.1295207 -72.63  0.001104882    1.848    0.459
        65 -12.3230     39.9015     84.6491   1.1439583618e+02   5.5271395488e+01     2.216389     0.738083 -41.07  0.008560303    2.870    0.652
        66  -9.0371    211.6775    250.3136   1.0427345874e+02  -9.6795430702e+00    0.1114441   0.09937489  60.37 0.0002846679    1.658    0.397
        67  -9.0549    183.8786    250.1096   1.0973830425e+02  -5.4987875451e+00    0.1956466    0.1718165  43.47  0.001241017    1.262    0.208
        68  -8.8941     98.0579    140.8317   1.0958147259e+02   3.3977845587e+01    0.2277804    0.1993289  85.78 0.0003863915    1.252    0.201
        69  -8.9572     80.3802    140.3799   1.1449812476e+02   3.7055166790e+01    0.2226412    0.1688989 -27.07 0.0007784026    1.564    0.361
        70  -8.2382     59.2843    139.6227   1.2045677268e+02   4.0301270990e+01    0.1474538    0.1066829  82.58 0.0004881791    1.719    0.418
        71  -9.9298     54.9611    137.9509   1.2140024439e+02   4.1273950523e+01    0.3907487    0.1796104 -56.83  0.001082037    1.883    0.469
        72 -10.3777     54.5528    132.9693   1.2056031798e+02   4.2551206876e+01    0.3282036    0.2338282   3.57  0.001636251    1.855    0.461
        73  -9.4588     48.8624    138.4088   1.2326821638e+02   4.1909358211e+01     0.495475    0.2616901  59.15  0.001991912    2.832    0.647
        74 -11.2363     46.3985    130.9094   1.2260197719e+02   4.4037674163e+01    0.5930977    0.3801833 -40.44  0.002979614    1.577    0.366
        75 -11.3389     40.6347    127.5372   1.2370345919e+02   4.5498252963e+01    0.6964077    0.3357315 -69.17  0.002974668    2.154    0.536
        76  -9.4335     86.2911    134.3045   1.1147909538e+02   3.7591971951e+01    0.3094245    0.2111105  30.01 0.0007830916    1.623    0.384
        77 -10.3943     72.3693    130.1784   1.1466164583e+02   4.0785680506e+01     0.458079    0.2464976 -48.93  0.001984234    1.711    0.416
        78  -8.7946    110.7908    224.6089   1.2146312208e+02   1.1575227583e+01     0.210373    0.1166779  48.19 0.0009526169    1.705    0.413
        79 -10.2560     59.3985    120.8028   1.1655980553e+02   4.4864287890e+01    0.4118208    0.2678854 -24.71  0.001573744    1.932    0.483
        80 -12.0087     57.2032    125.6615   1.1827786413e+02   4.3988933547e+01    0.9459608    0.4254346  34.96  0.003966637    2.388    0.581
        81 -10.5638     65.9503    125.0183   1.1546930766e+02   4.2961906507e+01    0.3379294    0.3004669 -42.67 0.0009792082    1.063    0.059
        82 -10.5347     68.5013    121.4741   1.1389887736e+02   4.3443923029e+01    0.4219196    0.2354981 -45.58  0.001882231    1.677    0.404
        83  -8.7705     75.0901    124.6536   1.1261644984e+02   4.1706444385e+01    0.2242978    0.1772062  57.04 0.0006787805    1.467    0.318
        84 -10.5350     92.6076    118.0827   1.0581492711e+02   4.0369682680e+01    0.6246619    0.2466287 -46.38  0.001213323    2.421    0.587
        85  -9.1963     91.1393    112.5688   1.0486564734e+02   4.1887434349e+01    0.3655241    0.2493063  11.29  0.001171541    2.023    0.506
        86  -9.1090    132.0037    119.4807   9.5274698747e+01   3.2332720004e+01    0.2352209    0.2067346 -48.29 0.0003979977    1.120    0.107
        87 -11.0997     42.1518    117.2452   1.2121138772e+02   4.7789493646e+01    0.4529832    0.3022624  65.22  0.002206898    2.149    0.535
        88  -9.9932     44.6932    113.8708   1.1969529501e+02   4.8298249802e+01    0.3041159    0.2202581   1.67    0.0013065    1.678    0.404
        89  -9.8432     51.1644    118.4570   1.1862390625e+02   4.6464930633e+01    0.3948578    0.2386184  40.53  0.001928354    1.868    0.465
        90  -9.8155    104.3747    116.9121   1.0210830620e+02   3.8486701238e+01    0.3781453    0.2914507  62.24  0.001441936    1.533    0.348
        91  -9.0744    117.6852    116.1797   9.8214964722e+01   3.6040246968e+01    0.3454293    0.1824717  23.19  0.001096885    3.507    0.715
        92  -9.6459    109.2818    115.0754   1.0025214356e+02   3.7957907203e+01    0.3428172    0.2559886  66.67  0.001577482    1.680    0.405
        93  -9.4599     97.8353    114.3676   1.0334750480e+02   4.0281190880e+01    0.3080271    0.2628894 -10.40  0.001133082    1.317    0.240
        94  -9.9952     82.5508    114.5402   1.0795036390e+02   4.2895955981e+01    0.4883253    0.2702757  20.31  0.001786756    2.561    0.610
        95  -9.5530    132.8892    112.1076   9.3161940389e+01   3.3753925011e+01    0.3525622    0.2852909 -53.20  0.001238323    1.244    0.196
        96 -10.2237     33.5625    109.5601   1.2238196621e+02   5.0465353953e+01     0.577929    0.4085518  -8.57  0.003199422    1.697    0.411
        97 -11.3211     67.8246    107.3529   1.1075893139e+02   4.6813064540e+01    0.7856428    0.4376003 -22.42  0.003024281    2.871    0.652
        98 -10.0494     74.1067    107.5168   1.0880823758e+02   4.5835054154e+01    0.4031818     0.280344  32.96  0.001142216    1.524    0.344
        99 -11.1069     77.2255    101.8808   1.0637078579e+02   4.6593396023e+01    0.7582121    0.3565687  38.12  0.003143638    2.218    0.549
       100  -8.5732    104.4711    109.0200   1.0004318724e+02   4.0231161093e+01    0.2273774    0.1452429 -47.71 0.0005378922    1.533    0.348
       101  -8.8373     41.0094    221.0057   1.3630670491e+02   2.2654746000e+01    0.2232222    0.1059868 -51.30  0.001011202    2.588    0.614
       102 -10.1173    150.2684    105.5376   8.7237540552e+01   3.1301564821e+01    0.4215982    0.3081809 -15.45  0.000635372    1.916    0.478
       103  -9.9654    133.6647    103.8704   9.0807346150e+01   3.5322537448e+01    0.4841385    0.1783278 -45.49  0.001624902    2.719    0.632
       104  -9.7802    141.5708    103.0633   8.8647550266e+01   3.3749240421e+01    0.3953774    0.2766199 -48.59  0.001556829    1.437    0.304
       105  -9.6750    171.3242    102.6113   8.1910031429e+01   2.7110185371e+01    0.3486383    0.2658991  29.86  0.001055145    1.654    0.395
       106  -8.4358    105.5285    102.9378   9.8119688766e+01   4.1341553511e+01     0.221796    0.1438945 -43.42   0.00100239    1.517    0.341
       107 -10.0305     63.5193     99.5053   1.1016775894e+02   4.9169887011e+01    0.5499594     0.270336 -45.95  0.002420432    1.851    0.460
       108 -10.4595    116.5862     99.9561   9.4223270805e+01   3.9753758729e+01    0.5076978    0.3261009   1.13  0.001833453    3.113    0.679
       109 -10.6964     87.7231     99.7906   1.0254334806e+02   4.5293912082e+01    0.6135628    0.3644916 -27.36  0.002583364    2.135    0.532
       110 -11.0011     88.3583     90.7605   9.9845027477e+01   4.7060013194e+01    0.6113631     0.382375 -47.01  0.001686959    1.590    0.371
       111  -9.7916     92.8689     89.1133   9.7999156181e+01   4.6578891902e+01    0.3624918    0.2980603 -83.88   0.00135015    1.670    0.401
       112  -9.3822    147.8674     98.2665   8.5900329051e+01   3.3300105951e+01    0.2241185    0.1997584 -85.25  0.001169557    1.189    0.159
       113 -10.0142    158.8779     96.3580   8.2944569294e+01   3.1167787975e+01    0.4404805    0.3566518  81.41  0.001582645    1.367    0.268
       114 -10.2461    113.8831     95.3770   9.3703447027e+01   4.1242914091e+01    0.3990457     0.219105  53.96  0.001625628    2.071    0.517
       115  -8.4687    188.7821     94.3970   7.6558407160e+01   2.4702934639e+01    0.1960308     0.134449  47.04 0.0006257092    1.590    0.371
       116 -10.8694    124.2202     92.6490   9.0181919182e+01   3.9621928724e+01    0.5452089    0.4448656  72.13  0.002691071    1.427    0.299
       117 -11.3948    120.7560     86.6681   8.9413370454e+01   4.1512795263e+01    0.8637874    0.3139746  50.69  0.002949405    2.881    0.653
       118  -9.3338     77.4383     93.5653   1.0406084349e+02   4.8333136246e+01    0.3557689    0.2624162 -16.41 0.0005030445    1.548    0.354
       119  -9.7019     74.7544     89.4250   1.0377130728e+02   4.9617323629e+01    0.5932121    0.1552685  38.21  0.001892008    3.892    0.743
       120 -10.3803     82.1405     81.8029   9.9198924025e+01   4.9909290927e+01    0.6233561    0.2557966 -50.43  0.002366416    2.744    0.636
       121 -10.1941     91.0289     77.7976   9.5239444848e+01   4.9086333063e+01    0.6950992    0.3860436  25.28  0.002923849    2.310    0.567
       122  -9.9734     97.5981     72.0961   9.1549532798e+01   4.8872297872e+01    0.3857543    0.2085097  39.34  0.001515191    1.819    0.450
       123 -10.0596    101.8151     69.7821   8.9625698489e+01   4.8446675493e+01    0.5726539    0.3308887 -53.61  0.002525627    2.245    0.555
       124 -10.3238    103.5277     92.2787   9.5751513482e+01   4.3933166943e+01    0.5005052    0.4520918  74.62  0.002744986    1.289    0.224
       125 -10.7774    105.0874     75.7155   9.0491528651e+01   4.6761960734e+01    0.7797143    0.4530744  66.53  0.003007877    2.983    0.665
       126 -10.9273    103.5448     80.4565   9.2336213910e+01   4.6208663031e+01    0.5588565    0.4651111  -3.10  0.002218266    1.327    0.246
       127 -10.3980     98.5665     77.3827   9.2863766138e+01   4.7743515443e+01    0.3667697    0.3574241   9.79 0.0008785465    1.065    0.061
       128 -10.1130    106.4968     87.9830   9.3681582855e+01   4.4196777820e+01    0.3617308    0.2709996 -23.94  0.001482426    1.485    0.327
       129 -11.2933    109.0057     83.9966   9.1828313800e+01   4.4456152058e+01    0.6278837    0.4299766  52.94  0.001979002    1.550    0.355
       130 -10.0726    124.2577     81.6204   8.7074266362e+01   4.1699268938e+01    0.6371139    0.3532771 -57.89  0.002523783    2.495    0.599
       131  -8.5185    200.4486     90.4839   7.3634705639e+01   2.2797877917e+01    0.1437643     0.128252 -71.94 7.251147e-05    1.010    0.010
       132 -10.3039    164.3416     86.0028   7.9137164708e+01   3.1843093496e+01    0.2938344    0.2673603  -4.84 0.0005918611    1.333    0.250
       133 -10.1643    160.5307     81.8739   7.8843221277e+01   3.3462563768e+01    0.4371162    0.3618154  68.04   0.00178545    1.188    0.158
       134  -8.8748    152.8029     87.5432   8.1963061020e+01   3.4221400779e+01     0.280732    0.1380267  47.84  0.001117799    2.020    0.505
       135 -10.1722     81.7212     88.4106   1.0124966154e+02   4.8681147333e+01    0.4982445    0.2866784 -47.48   0.00166937    1.722    0.419
       136  -9.1276    186.2245     84.7147   7.4691796883e+01   2.7029393264e+01    0.2780372    0.1984591 -32.45   0.00102286    1.593    0.372
       137  -8.4543     76.9327     84.4629   1.0164730802e+02   5.0262026716e+01    0.2003247    0.1340065  37.24 0.0004419096    1.531    0.347
       138 -10.1824    217.0004     81.1673   6.9010954975e+01   2.0795786330e+01    0.5091211    0.2225428 -36.61  0.002089965    2.464    0.594
       139  -8.6294    219.4274     75.1916   6.7381148779e+01   2.1267254715e+01    0.2113693    0.1214305 -45.35  0.001044862    1.601    0.375
       140  -9.6119    188.2350     80.1454   7.3247930719e+01   2.7363737617e+01    0.2029902    0.2004882 -80.26 0.0005708926    1.174    0.148
       141  -9.3707    179.3510     80.1660   7.4804119679e+01   2.9401236409e+01     0.276806    0.1999862  72.46 0.0008181771    1.422    0.297
       142  -9.2615    247.6931     75.5138   6.3929230904e+01   1.5437183383e+01    0.2803544    0.1545395 -62.90  0.001310533    1.777    0.437
       143  -9.1194    214.4375     72.9725   6.7583911597e+01   2.2704586403e+01    0.3742886    0.2501438 -17.64  0.001722804    2.601    0.616
       144  -8.8845    203.9180     75.5193   6.9665969944e+01   2.4601543500e+01    0.2104739      0.13032  62.69   0.00103835    1.609    0.378
       145  -8.9513    169.0014     70.9915   7.4390483841e+01   3.3344789020e+01    0.2586327    0.1960654   2.10 0.0007965874    2.072    0.517
       146  -9.1257    191.7146     73.2672   7.1038219888e+01   2.7724465255e+01    0.3705638    0.2184091 -87.23  0.000775504    2.433    0.589
       147  -8.2748    158.2309     74.5861   7.7399856523e+01   3.5253553625e+01    0.1486931    0.1038002 -66.15  0.000688888    1.688    0.408
       148  -9.1468     84.5915     74.2497   9.6155482162e+01   5.0893572531e+01     0.260892    0.1692424  21.70  0.001062452    1.769    0.435
       149  -8.2419    181.3362     73.7488   7.2879751548e+01   3.0027974393e+01    0.1429567    0.1029721 -84.09 0.0002573166    1.564    0.360
       150  -9.2383    158.9440     58.2953   7.2962533876e+01   3.7673489288e+01    0.2725967    0.2349931  11.15  0.001338521    1.492    0.330
       151  -9.8920    163.2602     67.5734   7.4582651111e+01   3.5235009849e+01    0.3859315    0.2491762 -81.20  0.001703736    2.158    0.537
       152 -10.6178    165.5611     62.6942   7.2893490912e+01   3.5464795443e+01    0.4459991    0.4266473  23.79  0.001453424    1.234    0.190
       153 -10.4516    159.8274     51.4773   7.1008046521e+01   3.8455185557e+01    0.5294607    0.4011048 -65.83  0.002623055    1.428    0.300
       154  -7.3700    164.5490     57.5052   7.1736318886e+01   3.6484889130e+01    0.2307857    0.1751184  55.09 0.0002620109    1.266    0.210
       155  -9.6242    165.9582     53.9287   7.0568163928e+01   3.6678607961e+01    0.5165482    0.2401188 -52.27  0.002135741    2.512    0.602
       156  -9.3952     84.7386     67.9554   9.4160216937e+01   5.1978711874e+01    0.2690148    0.2032113   9.55  0.001171284    1.448    0.309
       157  -8.4061    167.6891    220.6956   1.0820402190e+02   2.5510580243e+00    0.1414075    0.1072359  -3.13 0.0003270668    1.612    0.380
       158  -9.9734    250.5222     65.3152   6.1649751245e+01   1.6482483013e+01    0.5057721    0.1077672 -40.30  0.001704113    4.245    0.764
       159  -8.7947    199.1295     63.1327   6.7552060647e+01   2.7657509356e+01      0.22293    0.1903603 -24.20 0.0003122172    1.509    0.337
       160  -9.3265    200.9662     59.0305   6.6358885358e+01   2.7869362444e+01    0.3025728    0.1832847  65.36  0.001292869    1.577    0.366
       161  -8.4515    202.5482     55.5166   6.5351341770e+01   2.8037513729e+01    0.2079168    0.1715414 -39.91 0.0008842968    1.362    0.266
       162 -11.0936     67.2663     62.2184   9.8051476377e+01   5.5884343809e+01    0.2729008    0.2242509  14.49  0.000497885    1.140    0.122
       163  -8.3103    233.9825    219.0000   9.4558212840e+01  -7.8382512661e+00    0.1887505    0.0699093  36.86 0.0003765874    2.815    0.645
       164  -9.1138    188.9329     49.2424   6.5805710359e+01   3.2025573669e+01    0.3082746    0.2702238  -0.18  0.001807179    1.623    0.384
       165  -8.9657    179.1206     58.8141   6.9591998017e+01   3.2898932855e+01    0.4368568    0.2566669 -22.51  0.001925483    2.544    0.607
       166 -10.0239    185.6676     54.6858   6.7570612192e+01   3.1996517804e+01    0.2975196    0.2393678 -22.85  0.001660814    1.607    0.378
       167 -10.8610    182.1815     51.3925   6.7309340505e+01   3.3274030829e+01    0.5907852    0.3708428 -45.79  0.001087481    1.604    0.377
       168 -10.2949    222.6068     56.7311   6.3068266713e+01   2.3467547112e+01    0.3870454    0.2966444  88.75  0.002358058    1.184    0.156
       169 -10.6476    174.0585     56.4993   6.9848381653e+01   3.4418294520e+01    0.5004087    0.4154398   4.38  0.002114299    1.716    0.417
       170  -9.1286      3.3853    213.7362   1.4333857421e+02   2.8381606395e+01    0.2343688   0.09415592 -81.56  0.001130764    2.128    0.530
       171  -9.0682    243.2863     55.0204   6.0431399031e+01   1.9448138752e+01    0.2657824    0.1478191 -67.21  0.001406031    1.752    0.429
       172  -9.2852    197.3745     54.7033   6.5877178484e+01   2.9321486123e+01    0.2693587    0.1919449 -88.17 0.0007956813    1.387    0.279
       173  -9.7914    193.2118     53.8035   6.6256850474e+01   3.0397404246e+01    0.2810586    0.2328608 -72.07 0.0005410204    1.107    0.097
       174  -8.3973    229.9702     54.9761   6.1856527097e+01   2.2173500537e+01     0.153082    0.1239603 -84.03 0.0003923193    1.075    0.070
       175  -8.5957    225.5911    211.8142   9.4789538266e+01  -5.3669977433e+00    0.1809722    0.1180438 -48.41 0.0005527791    1.680    0.405
       176  -9.4626     26.4841    212.0487   1.3851203064e+02   2.6409827517e+01    0.1969246    0.1061966 -75.46  0.001035747    1.600    0.375
       177  -8.9249     13.5011    212.4975   1.4122786567e+02   2.7678161974e+01      0.12528   0.09562901  83.31 -0.0001381681    1.028    0.027
       178  -9.5812    123.9994    205.9974   1.1552111406e+02   1.3473098373e+01    0.2059644     0.198071  60.58  0.001167688    1.025    0.024
       179  -9.9012    244.3490    204.5764   9.0014789179e+01  -6.9080867856e+00    0.2433809    0.1824811 -14.39 0.0001626933    1.263    0.208
       180  -8.6034    234.1552    199.8264   9.0936513835e+01  -4.5686957097e+00    0.1920803    0.1413265 -16.36  0.001076985    1.351    0.260
       181  -8.9733     10.5797    192.3463   1.4013580034e+02   3.2629643301e+01    0.2099151    0.1591609  30.86  0.001336206    1.632    0.387
       182  -9.0066    245.7330    187.0111   8.6429120371e+01  -4.0664427794e+00    0.1875689    0.1471776 -31.86 0.0004403575    1.084    0.078
       183 -11.2854    111.1586     30.6356   7.4875279992e+01   5.2033514263e+01     0.793928    0.4055556  73.89   0.00314074    3.387    0.705
       184  -9.7138     11.8733    184.2092   1.3909479311e+02   3.4440099812e+01    0.2301058    0.1558663 -66.42  0.001060712    1.295    0.228
       185 -10.7856     19.8744    183.8640   1.3723169712e+02   3.3768923312e+01    0.4865552     0.232564  25.21  0.002334855    2.652    0.623
       186  -8.6229      6.3153    182.2980   1.4016700878e+02   3.5384578349e+01    0.1202326   0.08175606 -51.42 0.0001948517    1.608    0.378
       187 -11.4274    107.0735     34.7582   7.7161922757e+01   5.2419503937e+01    0.6012444    0.4026448 -88.11  0.002838307    2.701    0.630
       188 -11.5688     98.9089     41.4187   8.1420148020e+01   5.3271484432e+01     1.021724    0.6124506  -8.52  0.004159492    2.362    0.577
       189 -10.6757    101.0127     36.6727   7.9308190233e+01   5.3440180320e+01    0.3510203    0.2173802  44.54 0.0005089385    1.422    0.297
       190 -10.2738      1.6420    178.8230   1.4090043899e+02   3.6594793463e+01    0.4188233    0.1333761 -74.54  0.001768158    2.527    0.604
       191  -8.6326     37.4775    179.4926   1.3254796861e+02   3.2984635028e+01    0.1357016    0.1147583 -81.00 0.0001105494    1.020    0.020
       192  -9.5802    198.9647     48.4911   6.4254460810e+01   2.9852843953e+01    0.4598759    0.2939938  41.60  0.002314824    2.171    0.539
       193  -9.2487    171.3484     48.0591   6.8181776095e+01   3.6250161761e+01    0.3217003    0.1596134 -44.68  0.001479398    2.070    0.517
       194  -9.4802    174.7006     48.1297   6.7667318205e+01   3.5462292135e+01    0.3137608    0.1986702 -68.80  0.001549224    1.834    0.455
       195  -9.1871     26.3543    176.8598   1.3493263447e+02   3.4825533920e+01    0.3782695    0.1345156  41.09  0.001458915    2.819    0.645
       196  -9.9176    230.0052     45.3951   5.9931503647e+01   2.3538209151e+01    0.4104014    0.2186892  80.76  0.001384007    1.915    0.478
       197 -10.1373    220.6235     43.6230   6.0584979785e+01   2.5766266776e+01    0.4773942    0.1674926 -51.16  0.001384249    2.707    0.631
       198  -9.9377    194.7117     30.6332   6.0796577324e+01   3.3157862093e+01    0.3489998    0.2727905  13.32  0.001798509    2.160    0.537
       199  -9.4387    206.2480     46.0263   6.2776066056e+01   2.8568698918e+01    0.3840921     0.211006  72.02   0.00195269    1.727    0.421
       200 -10.1359    213.7789     43.0548   6.1239385900e+01   2.7322105571e+01    0.4369034    0.3219176   1.17  0.001707338    2.780    0.640
       201 -10.5695    203.1842     38.0078   6.1402634700e+01   3.0329440457e+01    0.5161962    0.4159475 -26.10   0.00216871    1.650    0.394
       202  -9.5115    199.0650     32.0710   6.0595494464e+01   3.2005617550e+01    0.4058901    0.2321086 -29.13  0.002100084    2.243    0.554
       203  -9.0900     32.6446    170.6831   1.3263300634e+02   3.5692707744e+01    0.1363144   0.09227659 -41.23 0.0007045596    1.747    0.428
       204 -10.2266     18.3196    164.6682   1.3548018332e+02   3.8580453836e+01    0.3100717    0.1953072  70.81 0.0008649597    1.716    0.417
       205 -10.7276     12.1377    164.4604   1.3698912378e+02   3.9171414841e+01    0.6250483    0.2327672  46.14  0.002719712    2.963    0.663
       206 -10.2426      2.3969    160.4090   1.3894079229e+02   4.0918873834e+01    0.4914971    0.2137601 -73.68  0.002398973    1.835    0.455
       207 -10.7224    211.6179     32.0514   5.9175185157e+01   2.9240338224e+01    0.5077654    0.3867477 -79.59   0.00193663    1.105    0.095
       208  -8.9940    235.5076    249.0054   9.9568549574e+01  -1.2737598468e+01    0.1456249    0.1058208 -59.26 0.0008098289    2.478    0.597
       209 -13.3155     16.8090     56.8231   1.1549781205e+02   6.2836428289e+01     1.637833    0.8220175  21.01  0.002870386    2.108    0.526
       210  -9.4922    217.8958     36.5242   5.9424849825e+01   2.7305544679e+01    0.2561758    0.1830412  76.31   0.00126688    1.268    0.211
       211 -10.0964    220.6881     32.9708   5.8410906023e+01   2.7169596978e+01    0.4531338    0.2260981 -51.88   0.00126939    1.821    0.451
       212 -11.2998      4.5058     98.6533   1.2983091230e+02   5.5198139325e+01    0.7114685     0.308075 -54.28  0.003371007    1.710    0.415
       213  -9.6498    105.7271     44.9350   8.0763036021e+01   5.1421926876e+01    0.3783137     0.274298  48.97  0.002134926    1.262    0.208
       214  -8.7584     12.2759     34.1021   1.1012109660e+02   6.7008019741e+01    0.2622711    0.1915803  22.10  0.001872672    1.514    0.340
       215 -10.5148     16.1991     31.3109   1.0735853382e+02   6.7084280502e+01    0.2324377     0.215562  37.86 0.0009656559    1.744    0.427
       216 -10.2068     11.3165     41.8743   1.1318710954e+02   6.5850303925e+01     0.610702    0.2514778   8.52  0.002898277    3.133    0.681
       217  -9.7353     21.8229     43.7625   1.0929015663e+02   6.4635542628e+01    0.6224229    0.2255399  21.90  0.002860682    2.997    0.666
       218  -9.6979     21.5921     40.2791   1.0819753707e+02   6.5213011206e+01     0.198571    0.1892533  79.19 0.0008782094    1.798    0.444
       219  -9.5917     18.1356     37.4699   1.0871194702e+02   6.5974742880e+01    0.3215607    0.2992377 -21.12   0.00154906    1.439    0.305
       220  -8.4219    196.5456     45.5373   6.3908283013e+01   3.0808490544e+01    0.1324768    0.1113332 -84.67 1.981436e-05    1.021    0.020
       221  -8.1436    234.7007     59.6827   6.2271483930e+01   2.0494496066e+01    0.1096556    0.1027909  23.56 0.0003055865    1.615    0.381
       222  -9.2402    152.5343     44.1553   7.0371247824e+01   4.1143732768e+01    0.3056408     0.235961 -36.53  0.001227694    1.435    0.303
       223  -9.7500    156.9122     43.6968   6.9473548285e+01   4.0190065176e+01     0.355031    0.2191189  51.98 0.0007587195    1.526    0.345
       224 -10.2532    162.6116     41.6601   6.7977488596e+01   3.9133334171e+01    0.7080898    0.2712619  71.61  0.002486006    3.424    0.708
       225  -9.3159    161.8609     37.7927   6.7103844244e+01   3.9798607866e+01    0.2073011    0.1773558  87.81 0.0008726739    1.093    0.085
       226  -9.8413     66.9046     43.0391   9.1682226634e+01   5.8910067128e+01    0.3572575    0.1882138 -32.88  0.001295989    1.926    0.481
       227  -8.5440    249.1442     44.6142   5.7891999036e+01   1.9776070262e+01     0.151733    0.1009103  64.45 0.0003298865    1.640    0.390
       228  -8.3602    185.2766     43.7195   6.5027610356e+01   3.3621683058e+01     0.131046   0.09032018 -75.13 0.0001844455    1.503    0.335
       229  -8.5925    196.9452     41.7060   6.2993177159e+01   3.1237207031e+01    0.1872848    0.1450518  85.42 0.0008805696    1.135    0.119
       230  -9.6514    191.1257     40.4798   6.3473781014e+01   3.2716888716e+01    0.2783383    0.2117158 -70.99  0.001458602    1.239    0.193
       231  -9.2370    192.2780     36.5632   6.2430470674e+01   3.2963907643e+01    0.2312459    0.1969265  81.97 0.0007959845    1.073    0.068
       232  -8.0724      5.7134     40.4415   1.1519276527e+02   6.6503007040e+01    0.1467914   0.08852534  -5.35 0.0005587968    1.589    0.371
       233  -9.5229    235.6439     38.4415   5.8002858863e+01   2.3324821169e+01    0.2107501    0.1754597 -78.64 0.0004038902    1.107    0.097
       234  -9.9964    247.2519     25.7696   5.4618501037e+01   2.2644445328e+01    0.5593104    0.1921056  70.71  0.002675647    2.724    0.633
       235 -11.7931      5.1254     80.7835   1.2609413537e+02   5.8986000254e+01        1.478     0.435004 -57.27  0.006555887    2.469    0.595
       236 -10.2909    244.0978     33.7642   5.6341243759e+01   2.2240072890e+01     0.595382    0.1892856  60.61  0.002043605    3.158    0.683
       237  -8.6985    124.9700    249.5208   1.2186824201e+02   4.0954097513e+00    0.1783386    0.1134087  14.81 0.0008083189    2.407    0.584
       238 -11.5529     78.1651     61.7363   9.4269664184e+01   5.4176344478e+01    0.7971942    0.3953164 -31.24  0.001772465    2.192    0.544
       239 -10.6725    246.5519     19.0596   5.3476997961e+01   2.3609838331e+01    0.5040228    0.2105191  76.39   0.00177945    2.217    0.549
       240  -8.8378    123.9324     36.3141   7.3777162156e+01   4.8611460604e+01    0.3365371    0.2088522  69.18  0.001561007    1.749    0.428
       241  -9.1186    125.8534     32.1143   7.2114700903e+01   4.8678136233e+01    0.3853769    0.1734636  48.48  0.001768135    1.963    0.490
       242  -8.4082    114.3179     36.3044   7.5924942823e+01   5.0702712273e+01     0.134378   0.09076093  29.08 0.0007027148    1.627    0.385
       243 -10.8193    134.8662     33.8500   7.0815493140e+01   4.6463859247e+01    0.3063658    0.2511122 -17.00 0.0003280026    1.453    0.312
       244  -9.0402    138.4776     31.5016   6.9459971048e+01   4.5919016568e+01    0.2139452    0.1632178 -34.68 0.0006266059    1.484    0.326
       245  -9.5958     32.5676     33.3056   1.0104211667e+02   6.5090278239e+01    0.2141401    0.1492692 -13.77 0.0006842166    1.236    0.191
       246 -10.4569    173.9681     38.7114   6.5460628510e+01   3.6881548320e+01      0.48421    0.2774441  88.67  0.001036032    2.117    0.528
       247  -9.5235    228.2908     31.1059   5.7289367316e+01   2.5806302419e+01    0.2621451    0.1757238 -78.64  0.000802941    1.288    0.223
       248  -9.0240     12.0167    249.0375   1.4409860472e+02   1.9927135961e+01    0.2031396   0.09908482  66.91  0.001142443    1.766    0.434
       249  -9.2447      3.5179    246.0363   1.4540674514e+02   2.1432919938e+01    0.2439148   0.07856818 -69.56  0.001186259    2.659    0.624
       250  -9.4319    204.2233     28.0190   5.9132546198e+01   3.1360925240e+01    0.2914788    0.2220377 -16.92  0.001743239    1.994    0.499
       251  -9.1295    201.5445     25.7664   5.8946879462e+01   3.2223684818e+01    0.2093678    0.1437521  87.89 0.0006692323    1.273    0.214
       252  -8.8569    162.4945    250.4683   1.1416949837e+02  -2.1777125056e+00    0.1312586     0.115534  29.73 0.0008097737    1.013    0.013
       253  -9.9274    142.2388    243.6065   1.1738550216e+02   2.4010601454e+00    0.3571842    0.2178134  20.44  0.001661187    2.092    0.522
       254 -11.7707     43.0173     49.8597   1.0276982957e+02   6.1331318261e+01    0.7182069    0.4507605  21.23  0.002949056    1.558    0.358
       255  -9.4998     97.5353     22.0623   7.5338426090e+01   5.5769819297e+01    0.2382896    0.1630132  52.29 0.0006657309    1.284    0.221
       256  -8.4357     86.9816     16.0018   7.5942098979e+01   5.8447938437e+01    0.1452253    0.1180395  37.40 0.0009707886    1.015    0.015
       257  -8.9607    211.0000    240.0202   1.0266615627e+02  -7.9460555966e+00    0.1976675   0.06907032 -42.48 0.0007975462    2.909    0.656
       258  -9.3776    176.4204     14.9623   5.9443111997e+01   3.9054566822e+01    0.2236387    0.1380559  59.09 0.0004615689    1.482    0.325
       259 -10.2137     12.8904    232.3258   1.4283273720e+02   2.3345549316e+01    0.4331669    0.1871676 -82.49  0.002209108    2.052    0.513
       260 -13.1571     16.0476     99.2825   1.2609376357e+02   5.4287975853e+01     2.109997    0.8499284 -52.16   0.01007252    1.891    0.471
       261 -12.6577     22.9519     82.3878   1.1995260891e+02   5.7372437392e+01     1.028284    0.6309664  24.25  0.005915132    1.823    0.451
       262  -8.8298    184.5198    236.4696   1.0736678159e+02  -3.2430647324e+00    0.1335937    0.1186154  12.06 0.0001555059    1.014    0.014
       263 -12.2142     27.8433     71.7294   1.1537877878e+02   5.9080026362e+01     1.257528    0.4709696  21.06  0.005512573    3.069    0.674
       264  -8.9491    227.2533    231.4742   9.8060301702e+01  -8.9193960098e+00    0.2139283    0.1148678  29.03 0.0005158362    1.861    0.463
       265  -8.7771     16.7311     50.2091   1.1352902542e+02   6.4009693620e+01    0.1640846    0.1034943 -23.29 0.0006192256    1.379    0.275
       266  -8.9945    202.0458    228.9952   1.0251199665e+02  -4.7178146972e+00    0.1980806    0.1781415   5.21 0.0003752169    1.041    0.039
       267  -9.4629     50.3326    227.6257   1.3500966732e+02   1.9974284085e+01    0.2176779    0.1528639 -89.20  0.001264283    1.287    0.223
       268 -10.2885     46.2524    145.1658   1.2521078220e+02   4.0541142519e+01    0.5669094    0.3515921 -37.48  0.002584842    1.844    0.458
       269 -10.8735     34.4693    150.2731   1.2931943536e+02   4.0567249770e+01    0.4194399    0.2939579  25.94 -9.26335e-05    1.695    0.410
       270 -10.7793     39.2298    147.2228   1.2752803725e+02   4.0819406976e+01    0.4896525    0.3304426 -53.28  0.001737942    1.334    0.250
       271 -10.0259     38.1696    143.1302   1.2716402309e+02   4.1947302689e+01    0.2887795    0.2208755 -16.99 0.0004732842    1.661    0.398
       272  -9.3366      8.0756    150.9848   1.3646276253e+02   4.2755449943e+01    0.1937171     0.149394 -72.41 0.0004357367    1.035    0.034
       273  -9.1492     87.3285    148.9135   1.1430127488e+02   3.3813162216e+01    0.2572533    0.2078763  56.17 0.0007208629    1.327    0.246
       274 -10.1688     66.3653    148.0850   1.2003131042e+02   3.7224685950e+01    0.3322453    0.2845954 -50.47  0.001830278    1.125    0.111
       275 -11.8910     30.1140    140.9121   1.2909310165e+02   4.3312381685e+01    0.7220162    0.4303048 -77.09  0.003230079    1.651    0.394
