#   1 NUMBER                 Running object number                                     
#   2 MAG_AUTO               Kron-like elliptical aperture magnitude                    [mag]
#   3 X_IMAGE                Object position along x                                    [pixel]
#   4 Y_IMAGE                Object position along y                                    [pixel]
#   5 X_WORLD                Barycenter position along world x axis                     [deg]
#   6 Y_WORLD                Barycenter position along world y axis                     [deg]
#   7 A_WORLD                Profile RMS along major axis (world units)                 [deg]
#   8 B_WORLD                Profile RMS along minor axis (world units)                 [deg]
#   9 THETA_WORLD            Position angle (CCW/world-x)                               [deg]
#  10 FWHM_WORLD             FWHM assuming a gaussian core                              [deg]
#  11 ELONGATION             A_IMAGE/B_IMAGE                                           
#  12 ELLIPTICITY            1 - B_IMAGE/A_IMAGE                                       
         1 -10.6907     37.2944      9.8423   1.0663642496e+02   6.9345448668e+01    0.8556181    0.4364102 -48.20  0.002431665    1.764    0.433
         2 -10.9554     16.3665     66.2444   1.3208113139e+02   5.9809278002e+01     1.543263    0.2258105 -65.31  0.005253484    4.060    0.754
         3 -11.3453     23.9492     32.0866   1.2128470050e+02   6.6483274529e+01     1.990602     0.394025 -48.10  0.007255793    3.785    0.736
         4 -10.1222     10.5593     18.7108   1.2296331018e+02   7.0227424233e+01    0.8914969    0.3505735 -28.65  0.003580445    4.545    0.780
         5 -10.6775     18.4990      6.2837   1.1406388806e+02   7.1965204029e+01    0.8813404    0.6131461 -81.37  0.003817884    2.553    0.608
         6 -10.8071      6.5647     29.5990   1.2805314884e+02   6.8275662360e+01    0.6609457    0.3646532 -68.02  0.002636917    1.479    0.324
         7 -10.9329     21.9167     53.6285   1.2771628664e+02   6.2116530321e+01    0.8883644    0.4119544 -88.35  0.002853528    3.910    0.744
         8 -10.3754      5.3112      4.7929   1.2044527783e+02   7.3284340900e+01    0.4519303    0.3684362 -31.25  0.001494701    1.194    0.163
         9 -10.3685      4.6055     41.6095   1.3168410451e+02   6.5872475947e+01     0.754858    0.3527042 -77.60  0.003020546    1.992    0.498
        10 -10.6317     48.2156     82.8202   1.2516941714e+02   5.3238118783e+01     1.435539    0.3782861 -60.31  0.003131718    3.029    0.670
        11 -10.4303     89.6353     38.1769   9.9356009527e+01   5.6315929522e+01    0.8093495    0.3786626  33.81   0.00296159    2.977    0.664
        12  -9.6456      2.2966     14.3926   1.2559317656e+02   7.1614260339e+01    0.4592189    0.2311157 -75.13  0.002358502    2.286    0.563
        13  -8.8610     71.9104      8.5420   9.2178710337e+01   6.4331342484e+01    0.3175693    0.1860337 -16.29 0.0006321369    1.863    0.463
        14 -10.1716     69.5007     40.3594   1.0669407691e+02   5.9339466828e+01     1.003058    0.3852129 -43.15  0.002295382    2.308    0.567
        15  -8.7807     78.7980      3.1000   8.7143472022e+01   6.3782219435e+01    0.3941444    0.2396279 -24.25  0.001698638    1.497    0.332
        16  -9.7241     79.2434     23.8772   9.6847935924e+01   6.0660785387e+01    0.6708266    0.3588552  24.79  0.002025869    3.003    0.667
        17 -10.4848     73.4974     17.5458   9.5953834037e+01   6.2697476254e+01      1.43017    0.3874795 -32.18  0.004478084    4.172    0.760
        18 -10.1541     64.2743     13.0461   9.7114448169e+01   6.4966491161e+01    0.5010817      0.29573 -30.64  0.001922028    1.514    0.339
        19  -9.6217     63.1343     21.7179   1.0152815292e+02   6.3723540562e+01    0.4616466    0.2846455 -50.11 0.0008656348    1.678    0.404
        20 -10.1445     46.0234     29.4456   1.1129428960e+02   6.4697935367e+01    0.4888654    0.2415751 -57.25  0.001077009    2.084    0.520
        21  -9.0822     47.2593     19.1621   1.0660446080e+02   6.6451754323e+01    0.4824782    0.2383709 -24.88  0.002035126    3.039    0.671
        22  -9.9369     52.2292     13.1431   1.0181848735e+02   6.6805776155e+01    0.6974953     0.439761   3.38  0.003513201    2.368    0.578
        23  -8.3651    101.8523      7.9595   8.2930466189e+01   5.8412801490e+01    0.3260897    0.1929434 -33.28  0.001071446    1.618    0.382
        24  -8.3940    104.3995      2.2634   7.9619479086e+01   5.8503793940e+01    0.3043681    0.1967455  25.47  0.001416233    1.666    0.400
        25  -9.1023     96.2942     14.7483   8.7556651278e+01   5.8724089113e+01    0.8251281    0.2795358 -22.97  0.002630736    3.814    0.738
        26  -9.1239     95.9419      4.4349   8.2817578793e+01   6.0120172180e+01    0.5351924    0.3822994  58.45  0.001888335    1.540    0.350
        27  -8.3017     88.8738      2.4582   8.3797466185e+01   6.1844712352e+01    0.3887784    0.1758094 -34.24  0.001492731    2.079    0.519
        28  -9.8911    132.7809     16.4817   7.9473802547e+01   5.0131405488e+01    0.6007869    0.3648567   2.41  0.002131119    2.096    0.523
        29  -8.9421    104.4482     14.7729   8.5352531541e+01   5.6974740057e+01    0.6521021    0.3178755  -7.40  0.002259858    3.448    0.710
        30  -9.5682    119.0968     20.0857   8.3985398430e+01   5.2953973139e+01    0.6506564    0.3176199 -14.13  0.001561947    2.644    0.622
        31  -8.4445    120.2376      6.2544   7.7817931808e+01   5.4374338477e+01    0.2656466    0.1790692  45.63 0.0009913413    1.446    0.308
        32  -9.2002    125.0584     13.2090   7.9759488106e+01   5.2413783032e+01    0.3012747    0.2456579  -2.53 0.0008476748    1.227    0.185
        33  -9.3667    126.6952      9.0267   7.7650063257e+01   5.2501074397e+01    0.2889937    0.2588625   8.53 0.0007478288    1.074    0.069
        34  -9.0982    125.6067      5.1184   7.6205281389e+01   5.3193482058e+01    0.3460721    0.2135647  47.74  0.001448389    1.564    0.360
        35  -8.8874    112.1885     15.5819   8.3742987894e+01   5.5139169533e+01    0.3901146    0.2129987 -35.20  0.001122881    1.757    0.431
        36  -9.1700    113.9263     10.1028   8.0928328600e+01   5.5423955024e+01    0.3959447    0.2212438  34.56 0.0003453265    1.986    0.496
        37  -9.2562    102.9172     21.9957   8.8913282644e+01   5.6296910972e+01    0.7132197    0.2460233 -32.69  0.001491387    2.664    0.625
        38  -9.4946     85.0804     12.9479   9.0029925058e+01   6.1241783668e+01     0.431414    0.2712015 -56.69  0.001493028    2.328    0.570
        39  -7.9702     80.4594     12.5049   9.1275137526e+01   6.2191841847e+01    0.2676245    0.1575968 -51.27  0.001242488    2.207    0.547
        40  -8.9352    110.4251      6.3025   8.0049136967e+01   5.6677943075e+01    0.4797558    0.2306726  -6.24  0.001795347    2.843    0.648
        41  -8.8889    115.2014      4.2647   7.8034806858e+01   5.5790505967e+01    0.3241645    0.2230468 -42.77 0.0006113241    1.582    0.368
        42 -10.0299    132.2365      5.0823   7.4889416880e+01   5.1553267653e+01    0.6564808    0.3345822  23.45    0.0024961    2.658    0.624
        43  -8.0065     85.3091      6.3711   8.6785828735e+01   6.2085972829e+01    0.2994841    0.1626253  21.39  0.001252748    2.634    0.620
        44  -9.6873     63.7308      2.9875   9.2212488285e+01   6.6540449736e+01    0.3847144    0.2409225 -50.75  0.001852924    2.103    0.524
        45  -8.4489     32.0244      3.2846   1.0581799225e+02   7.1082082743e+01    0.3403362    0.1381987 -49.99  0.001567899    2.529    0.605
        46  -7.9587     77.8720    105.4251   1.2134884834e+02   4.4538247256e+01    0.2700032    0.1835835 -27.34  0.001341028    2.442    0.591
        47  -8.5381    221.5146    249.9861   1.1605558848e+02  -4.7723616619e-02    0.1259078   0.07016423   8.40 0.0008101192    2.519    0.603
        48 -10.8934    200.1413    248.5294   1.1892241239e+02   3.0634934700e+00    0.5467821    0.2497704  51.83  0.003343162    2.186    0.543
        49 -10.2322    169.7271    248.3497   1.2333094222e+02   7.3901026116e+00     0.232819    0.1863352  49.86  0.002022956    1.194    0.162
        50  -7.7070      1.3546    116.2398   1.4199967755e+02   5.0208801593e+01    0.1556489   0.07547905 -89.90 0.0007800908    1.650    0.394
        51  -7.7468    166.7424    114.8086   1.0290571358e+02   2.6343529671e+01     0.277993    0.1518036  37.27  0.000808877    2.016    0.504
        52 -10.0696     91.8533    113.0182   1.1929136344e+02   4.0836371293e+01    0.5128709    0.3192632  81.68  0.001693294    2.245    0.555
        53  -9.4080     64.8516    103.3501   1.2435116709e+02   4.6767215079e+01    0.4905043    0.3635057 -88.69  0.002971142    1.318    0.241
        54 -10.5524     62.8293     95.6525   1.2348148878e+02   4.8687062410e+01    0.9067706    0.4705994 -79.22  0.001577628    2.444    0.591
        55  -9.0117     64.1635     86.1021   1.2119466311e+02   5.0579581651e+01    0.4952771    0.3496444 -31.16  0.002719699    1.926    0.481
        56 -10.1080     65.6023    111.1440   1.2549126229e+02   4.5004527490e+01    0.6878253    0.3858406  72.41  0.003341115    2.332    0.571
        57  -9.1517     59.0644    109.3568   1.2686460671e+02   4.6212694689e+01    0.3010442    0.1869897 -75.57  0.001136398    1.489    0.329
        58  -8.9164     54.7799    112.4313   1.2842880884e+02   4.6074182094e+01    0.3676673    0.2174496  83.51   0.00197003    1.910    0.476
        59  -9.9217     14.2154    111.3875   1.3848462971e+02   5.0268386528e+01    0.4254391    0.1881823  82.72   0.00180413    2.329    0.571
        60  -9.0273     13.9829    105.0037   1.3791238498e+02   5.1630338545e+01    0.1733866    0.1666353  52.89 0.0006846729    1.385    0.278
        61  -8.0404     23.0195     69.0543   1.3039640137e+02   5.8684154621e+01    0.1774826     0.139244 -72.03 0.0003247415    1.006    0.006
        62 -10.5615     33.0190     63.4321   1.2598291219e+02   5.9031938203e+01     1.091875    0.4648813 -37.27  0.004467973    3.745    0.733
        63 -10.8851     21.0279    101.5387   1.3569899523e+02   5.1804165619e+01      1.14795    0.4497091  79.45  0.004471264    4.193    0.762
        64 -10.4770     19.9086     87.5871   1.3424498896e+02   5.4900559789e+01     1.057923    0.1789595 -64.05  0.004049578    3.606    0.723
        65 -10.5167     25.5832     78.1782   1.3115412082e+02   5.6481159294e+01    0.6917242    0.3494578  81.55  0.002079542    2.670    0.625
        66 -10.3161     34.5501     90.9430   1.3055558360e+02   5.2885619251e+01    0.7785903    0.2936618 -81.06  0.001763385    3.682    0.728
        67 -10.1884     36.4056     81.3602   1.2841892357e+02   5.4797155504e+01    0.9483167    0.4896493 -24.72  0.003483347    5.653    0.823
        68  -8.2233    158.6359    111.7891   1.0385322391e+02   2.8573755212e+01    0.2506618    0.2092523 -53.49 0.0006437014    1.274    0.215
        69  -9.6471     36.0024    111.5395   1.3305001960e+02   4.8305128277e+01    0.2482956    0.1777172  58.58  0.001660254    1.377    0.274
        70  -7.6197    144.7592    109.9743   1.0636802856e+02   3.1778697587e+01    0.1815405    0.1176768 -43.25 0.0006598327    1.583    0.368
        71 -10.8591     44.7480    102.6161   1.2954943192e+02   4.9314198749e+01    0.7521132    0.3541288  74.44  0.003092647    3.502    0.714
        72  -9.0622     39.8923    107.0917   1.3146982900e+02   4.8862355499e+01    0.1874438    0.1328156  81.20 0.0005343952    1.309    0.236
        73  -9.6088      6.1976    103.5870   1.3976868993e+02   5.2499438410e+01    0.3955954    0.1795503  73.55  0.001827556    2.263    0.558
        74  -8.3836    165.9120    103.9807   1.0049307025e+02   2.8364787754e+01    0.2660374    0.1967865 -39.14 0.0005457483    1.380    0.276
        75 -10.2493    149.4918    102.2556   1.0350323340e+02   3.2203426254e+01    0.7332018    0.2889332 -40.59  0.001378314    2.596    0.615
        76  -8.8970     93.0225    103.5157   1.1710600611e+02   4.2623991274e+01    0.5535496    0.3226412  22.32  0.002319444    3.167    0.684
        77  -8.1350      1.4710    104.6087   1.4105816419e+02   5.2605242155e+01    0.2353836   0.08088029 -76.65  0.001216323    2.199    0.545
        78  -8.0592    189.0299    105.4831   9.6390740868e+01   2.3022564903e+01    0.2034131    0.1896513 -16.12 0.0003420332    1.075    0.070
        79  -8.1027     73.7387    102.4378   1.2185319917e+02   4.5761814405e+01    0.2363087    0.1405211 -71.82 0.0006957559    1.702    0.412
        80  -9.8675    245.7238    100.0351   8.5833876184e+01   1.1474792385e+01    0.4254087    0.2813852 -54.67  0.001541008    2.157    0.536
        81  -9.2772    240.1107     97.2985   8.5981248039e+01   1.2982726180e+01    0.3548602    0.2019701  48.65 0.0006988355    1.754    0.430
        82  -8.5103    158.9760    101.3989   1.0127916315e+02   3.0321999021e+01    0.2593305     0.194224 -58.20 0.0006467819    1.522    0.343
        83  -9.4083     81.5467    100.4720   1.1942650393e+02   4.5049132723e+01    0.3682093    0.2294946 -82.80 0.0009770149    2.017    0.504
        84  -8.2169     82.0716     94.1452   1.1796216639e+02   4.6313060297e+01    0.3042762    0.2205628 -12.01  0.001504497    2.436    0.589
        85  -7.5369    192.8525    100.3623   9.4422037506e+01   2.2960541901e+01    0.2013501    0.1237119  41.47 0.0004327099    1.625    0.385
        86  -8.5770    126.2558     83.6449   1.0400126397e+02   4.0547072948e+01    0.5342323    0.3348806   6.83  0.001800776    4.145    0.759
        87  -9.2805    122.6388     96.8881   1.0829060368e+02   3.8691488682e+01    0.4138029    0.3293886  82.64  0.001466865    1.465    0.317
        88  -9.9562    123.5859     91.0465   1.0660200799e+02   3.9649906604e+01    0.5455042    0.4130138  45.35  0.001074848    1.359    0.264
        89  -9.4206     94.1824     97.1954   1.1544764952e+02   4.3752967774e+01    0.3237112    0.2171555 -65.98 0.0005156476    1.510    0.338
        90  -8.5628     96.0515     90.7837   1.1348623507e+02   4.4776109411e+01    0.3678412    0.2522093 -14.62  0.001634689    2.726    0.633
        91  -7.3559    171.3333     96.6765   9.7566880771e+01   2.8399466177e+01    0.1477666    0.1149698 -77.13 0.0007050575    1.707    0.414
        92 -10.6216      4.7071     86.2696   1.3842812843e+02   5.6274957545e+01     1.303862    0.3297381 -74.09   0.00421704    2.967    0.663
        93 -10.5630    177.6333    243.4635   1.2164808209e+02   6.7551376863e+00    0.3394734    0.2410228  72.60  0.002474741    2.126    0.530
        94 -10.3139    188.8117    245.6352   1.2024051107e+02   4.9396189657e+00    0.2577881    0.1217441  48.49  0.001666464    1.702    0.412
        95  -8.3484    151.3140    249.3535   1.2614602079e+02   9.8712518671e+00   0.09426063   0.06561588  25.57  0.000704559    1.734    0.423
        96  -9.6218    158.2711    247.3151   1.2491927611e+02   9.1152199870e+00    0.2117795    0.1268136 -33.47  0.001500366    2.701    0.630
        97  -8.8525    149.7339    246.9965   1.2615708149e+02   1.0348009795e+01    0.1699612    0.0914626  23.95 0.0009061539    3.495    0.714
        98  -9.2921     67.9033    245.5266   1.3821435670e+02   2.1134354697e+01    0.1508504    0.1127116  68.33  0.001375455    1.163    0.140
        99  -9.5052    167.1885    243.4042   1.2319572175e+02   8.2609822006e+00    0.1697091    0.1010265  36.18  0.001219702    1.399    0.285
       100  -9.7814    187.9548    233.1881   1.1893728107e+02   6.2842085569e+00    0.2747752    0.1689593 -43.90  0.001967097    2.263    0.558
       101 -10.2401     14.5807     44.7335   1.2846492404e+02   6.4571552400e+01    0.5833358    0.3024766 -33.70  0.003174684    2.409    0.585
       102  -8.1044      2.5120    234.7880   1.4717118991e+02   2.9330410656e+01    0.1173119   0.08971065  67.86 0.0007730078    1.308    0.235
       103  -9.3483    138.5359     92.5592   1.0348648040e+02   3.6304239022e+01    0.3384524    0.2571258 -77.16 0.0008398357    1.671    0.401
       104  -9.5935    140.3923     82.1336   1.0025861576e+02   3.7842600970e+01    0.8949081    0.3093974 -36.31  0.002957972    3.156    0.683
       105  -9.1350    157.4576     90.7258   9.8851806079e+01   3.2529998422e+01    0.3878553    0.2294434 -31.80  0.001707771    1.809    0.447
       106  -9.3343    110.9720     89.7631   1.0938994194e+02   4.2331435333e+01     0.658598    0.3672685  29.83  0.002721005    2.657    0.624
       107  -7.0669    134.3140    231.6458   1.2703468177e+02   1.4319673844e+01    0.1050505   0.06469022  65.37 0.0007045353    1.736    0.424
       108  -9.3277     87.4768     56.8024   1.0652742177e+02   5.3191603496e+01    0.7732947    0.2912371 -38.13  0.002549459    2.988    0.665
       109 -10.6021     55.1142     70.9388   1.2051099464e+02   5.5011298365e+01    0.6426195    0.3697325  62.80  0.001258957    2.459    0.593
       110  -9.4816     55.3080     63.1184   1.1851155577e+02   5.6666220146e+01    0.6312992    0.3263821  32.97  0.003164258    2.341    0.573
       111  -8.4215     45.7587    224.4382   1.4037135464e+02   2.6599312524e+01      0.14381    0.1030366  80.81 0.0003238021    1.230    0.187
       112  -9.5946     77.5017     48.7883   1.0699148073e+02   5.6438855903e+01    0.8387812    0.5112101  -1.45  0.003038508    4.245    0.764
       113  -8.6491     68.5972     60.7649   1.1358249643e+02   5.5377003387e+01    0.3120884    0.2313398 -69.43 0.0007961678    1.414    0.293
       114  -9.9814     61.8338     60.7996   1.1576575194e+02   5.6312272733e+01    0.3862244    0.2889913  29.93  0.001392182    1.615    0.381
       115  -8.8258    150.5357     89.2766   9.9948676198e+01   3.4322224827e+01    0.2452608    0.1970794 -61.31  0.000492744    1.382    0.276
       116 -10.0850     85.2528     86.5611   1.1538310229e+02   4.7427550435e+01     0.454842    0.3091521  83.55 0.0009387672    2.002    0.500
       117  -9.5692     87.1947     78.6740   1.1289573292e+02   4.8773532312e+01    0.5029619    0.3686773  -8.13  0.001663065    2.229    0.551
       118  -8.4754    163.6339     87.5478   9.6712795597e+01   3.1686924359e+01    0.2567434     0.170618 -55.24 0.0007835315    1.771    0.435
       119  -8.7933    157.5388     83.5049   9.6873524790e+01   3.3772479346e+01    0.3750396    0.2518197 -31.87  0.001168728    1.532    0.347
       120 -10.2362    103.8251     82.6752   1.0941213500e+02   4.5080772641e+01    0.4774278    0.2737973 -57.64 0.0009278989    1.817    0.450
       121  -9.5121    104.8934     72.3857   1.0629998161e+02   4.6954642134e+01    0.7878845    0.3591684 -32.19  0.002763364    3.302    0.697
       122  -8.7213    139.9619     75.8851   9.8577781271e+01   3.9078290257e+01    0.4372559    0.2128576 -45.05  0.001754483    2.057    0.514
       123  -8.0635    169.9391     83.1990   9.4246588187e+01   3.0965481467e+01    0.2260285    0.1977002 -69.33 0.0009877793    1.302    0.232
       124  -9.1705     74.0790     79.3055   1.1679793603e+02   5.0665683402e+01    0.6005529    0.2298844 -56.79    0.0019279    2.407    0.585
       125  -8.8203    149.8718     80.2531   9.7610035331e+01   3.6080920099e+01    0.4227151    0.2083279 -37.90  0.000716643    2.011    0.503
       126  -8.8996    118.9680     80.4582   1.0492164208e+02   4.2637112839e+01     0.332216    0.1990123 -50.01  0.000774259    1.645    0.392
       127  -8.0488    119.8676     76.1365   1.0348164534e+02   4.3295317231e+01    0.2454573    0.2037588 -44.28 0.0005560232    1.161    0.139
       128  -8.3024     68.8353     78.6536   1.1817254247e+02   5.1552612763e+01      0.33536    0.1507986 -52.77  0.001531938    1.955    0.488
       129  -7.9039    213.0627     78.7397   8.5343065065e+01   2.1463317514e+01    0.1942891    0.1788874  20.53 0.0002428316    1.061    0.057
       130  -8.0844    166.2075     78.8634   9.3779073983e+01   3.2558252452e+01    0.2210312    0.1967223 -60.15 0.0004095527    1.215    0.177
       131  -8.0777    184.1084     78.1134   9.0114442230e+01   2.8434937704e+01    0.2308146    0.1944164  14.39 0.0006252201    1.278    0.218
       132  -8.5533    156.9589     76.4818   9.5006703398e+01   3.5117988350e+01    0.4244926    0.2090381 -49.10  0.001141223    2.325    0.570
       133  -8.6362    156.4931     70.4573   9.3333504704e+01   3.6251867154e+01    0.4774249    0.2035294 -34.60  0.001330836    2.326    0.570
       134  -8.9838    130.0692     56.6654   9.4950220402e+01   4.4713626932e+01    0.6207201    0.2308756 -36.54  0.001589546    2.601    0.615
       135  -8.4914    130.7044     64.7114   9.7384065977e+01   4.3143932266e+01    0.3586246    0.2192394 -38.26  0.001035674    1.585    0.369
       136  -9.4413    127.2741     75.1610   1.0136796032e+02   4.1951888212e+01      0.41054    0.2852959 -61.33  0.000851588    1.676    0.403
       137  -8.6605    129.0562     69.3093   9.9198619316e+01   4.2663640072e+01    0.4753943    0.2781029  21.79  0.001706248    3.263    0.694
       138  -9.9070     81.7065     72.6076   1.1287310151e+02   5.0922306781e+01    0.4053985    0.2829311 -79.89 0.0009514064    1.816    0.449
       139  -9.2328     83.3300     64.6798   1.1017622868e+02   5.2302069306e+01    0.5311415    0.3442053 -19.22  0.002376312    2.540    0.606
       140  -8.4229    169.3801     71.4111   9.0992103021e+01   3.3028482392e+01      0.39689    0.1393867 -33.89 0.0009380713    2.779    0.640
       141  -8.3654    162.7168     72.9244   9.2773372073e+01   3.4369537824e+01    0.2675861    0.1907845 -51.57   0.00076564    1.532    0.347
       142  -8.6554    239.5995     70.4519   7.9291055315e+01   1.6423462539e+01    0.3907854    0.1503453  34.11  0.001189299    4.414    0.773
       143  -9.2925    146.9365     69.3195   9.5055110828e+01   3.8671575397e+01    0.4099655    0.2614902 -59.32 0.0009541184    2.002    0.501
       144  -9.8535     94.6666     68.2382   1.0792058063e+02   4.9650084859e+01    0.7726012    0.2643177 -49.33 0.0009607601    2.767    0.639
       145  -9.4850     96.9360     58.9974   1.0445473492e+02   5.1073093420e+01    0.8091599      0.46419 -22.73  0.003205624    2.828    0.646
       146  -9.2182    115.3008     71.9342   1.0342601967e+02   4.5026177854e+01    0.5929531    0.2799877 -39.11  0.001525469    2.130    0.531
       147  -9.1754    138.0399     66.4435   9.6190296676e+01   4.1202443190e+01    0.3366448    0.2254324 -46.14 0.0006512115    1.496    0.332
       148  -8.4545    138.5083     62.0208   9.4695852963e+01   4.1873386762e+01     0.285794    0.2018091  32.98  0.001045026    1.624    0.384
       149  -9.0406    121.1574     66.2097   1.0020513734e+02   4.4917032368e+01    0.3318315    0.2313329 -53.85  0.000562549    1.503    0.335
       150  -8.0544    122.0202     61.2386   9.8423659199e+01   4.5654066236e+01    0.2607656    0.2015796  -8.02 0.0007583349    1.618    0.382
       151 -10.1639     85.1178     48.1047   1.0435735007e+02   5.5292283788e+01    0.4042422    0.2984032 -73.54 0.0009554849    1.812    0.448
       152  -9.3672    109.7610     64.0593   1.0250068507e+02   4.7644391446e+01    0.3783238    0.2625416 -57.54 0.0006829168    1.552    0.355
       153  -8.7928    110.7894     58.1943   1.0035703608e+02   4.8548616574e+01    0.3555422    0.2528246  30.36  0.001112667    1.684    0.406
       154  -8.0092    147.0228     63.8043   9.3339167072e+01   3.9600882454e+01    0.2863948    0.2001994  35.17 0.0009657577    1.597    0.374
       155  -8.5939    156.6473     63.2875   9.1115261732e+01   3.7409770528e+01    0.4283756    0.2045739  52.48  0.001228692    2.085    0.520
       156  -7.4470    152.5059     60.5246   9.1120270304e+01   3.8855150302e+01    0.1481357    0.1450481 -26.58 0.0002254835    1.013    0.013
       157  -8.5952      9.2697     59.3807   1.3330415772e+02   6.1783044212e+01    0.1987117    0.1669094  76.45  0.001171806    1.278    0.218
       158  -8.6866    146.4672     59.0295   9.1947779902e+01   4.0536772970e+01    0.2885133    0.1949944 -47.47 0.0009232971    1.538    0.350
       159  -9.1039    147.6866     54.1713   9.0101043381e+01   4.1047116254e+01    0.4677752     0.239035 -26.11   0.00164797    2.148    0.534
       160  -8.7081    195.6192     57.2508   8.2067228799e+01   2.8690357515e+01    0.2562514    0.2175537  34.89  0.000259889    1.205    0.170
       161  -9.2621    141.9021     48.0770   8.9317119547e+01   4.3411589975e+01    0.5498313    0.2373997 -29.75  0.001796927    2.374    0.579
       162  -9.4333    138.8697     56.7602   9.2914433420e+01   4.2694164513e+01    0.3689174    0.2326374 -47.89 0.0009966453    1.660    0.398
       163 -10.1926     10.6823    207.0284   1.4503749440e+02   3.2789481230e+01    0.3358695    0.2107252  31.75   0.00264017    2.116    0.527
       164  -9.3523    118.3101     55.0588   9.7344671927e+01   4.7564149400e+01    0.5069793     0.296159 -45.20  0.001337064    1.672    0.402
       165  -8.9539    121.0925     47.0338   9.3871455470e+01   4.8367525874e+01    0.3129574    0.1988823 -35.72 0.0004788928    1.500    0.333
       166  -7.7141     46.6350     57.7150   1.1999737795e+02   5.8851800904e+01    0.1244672   0.08744251 -31.32 0.0002490512    1.691    0.409
       167  -9.0039     53.3718     38.7521   1.1185448080e+02   6.1949893693e+01    0.5875502    0.1755391 -41.50  0.002077512    3.525    0.716
       168  -9.5690     56.5467     43.0371   1.1216008291e+02   6.0677675046e+01    0.6033117    0.3635961 -13.22  0.002603583    3.247    0.692
       169  -9.7864     50.2121     54.7461   1.1796850116e+02   5.9064307726e+01    0.4036261    0.2749257 -80.71  0.001591166    1.799    0.444
       170  -8.4129     49.4387     48.9765   1.1657698300e+02   6.0364442972e+01     0.330699    0.2432587   5.88   0.00192906    1.892    0.471
       171  -9.4300     43.8753     53.2569   1.1976724131e+02   6.0108316412e+01    0.3846578    0.2365801 -48.47  0.001446531    1.409    0.291
       172  -8.8136    162.9372     54.5737   8.7085215121e+01   3.7265400501e+01    0.2995711    0.2118287 -38.53 0.0006928745    1.391    0.281
       173  -8.8900    105.4157     53.2300   1.0016982518e+02   5.0547549740e+01    0.5782208    0.2270243 -48.83  0.002093219    2.731    0.634
       174  -8.4738    105.6321     49.6652   9.8886284613e+01   5.1158569747e+01    0.3475577    0.2613993  12.35   0.00168049    1.743    0.426
       175  -7.9357    152.4112     53.3210   8.8815898966e+01   4.0044057794e+01    0.2142315    0.1347458 -42.10 0.0009409767    1.588    0.370
       176  -8.6458    157.2839     48.8590   8.6340944970e+01   3.9541832324e+01      0.37343    0.2246718 -56.32  0.001091848    2.134    0.531
       177  -8.7385    149.7315     47.7803   8.7528479958e+01   4.1567017291e+01    0.3747926    0.1791976 -39.84 0.0009618121    2.043    0.511
       178  -8.6656    139.2711     40.3755   8.7197073470e+01   4.5245320886e+01    0.3817655    0.2874511 -75.46  0.001795725    1.757    0.431
       179  -9.7448    130.5479     46.0988   9.1228950197e+01   4.6394591823e+01    0.8601515    0.3278488 -26.50  0.001729955    3.359    0.702
       180  -8.7275    132.9544     36.1010   8.7051942369e+01   4.7404704289e+01    0.3681332    0.2305943 -43.82 0.0004585994    1.639    0.390
       181  -9.4033    133.8715     31.0910   8.4966632611e+01   4.7921730769e+01     0.271438    0.2307924  40.08            0    1.189    0.159
       182  -7.8276    162.5693     46.7187   8.4591485311e+01   3.8542254591e+01     0.216626    0.1342484 -40.66 0.0009407541    1.608    0.378
       183  -8.8370    112.3364     45.1895   9.5480086972e+01   5.0572640558e+01    0.6893666    0.2859272 -27.42   0.00124265    3.226    0.690
       184  -8.4168     40.4508     35.2611   1.1558748253e+02   6.4207146590e+01    0.4544369    0.3414518  82.50  0.002637621    1.938    0.484
       185 -10.1359     37.7124     42.0747   1.1882912227e+02   6.3113308175e+01    0.4744978     0.317512  89.82  0.001780728    2.207    0.547
       186  -9.9304     35.4356     37.9140   1.1843085137e+02   6.4205373298e+01    0.2424939    0.1860867 -57.65 0.0003513742    1.109    0.098
       187  -9.7506    250.1832     42.8356   7.0738060558e+01   1.7236597221e+01    0.2627894    0.1820463 -23.97 0.0004685553    1.303    0.233
       188 -10.3762    189.0887    192.2169   1.1327222466e+02   1.0675744036e+01    0.5016573    0.3558843  86.63  0.002752695    2.821    0.646
       189  -6.9176     64.2846    200.7380   1.3583655560e+02   2.8161681526e+01    0.1040676   0.05838166  64.74 0.0001702257    1.486    0.327
       190  -9.9135     76.2136     31.8892   1.0119351456e+02   5.9818300353e+01    0.3604842    0.3204303 -81.22  0.001260209    1.420    0.296
       191  -7.9159    218.4851    188.0123   1.0785935689e+02   6.2193291898e+00    0.1489771    0.0891367   5.56 0.0004003329    2.249    0.555
       192  -9.2031     71.8025     25.8148   1.0019365314e+02   6.1622235525e+01     0.430098    0.2077426  36.12  0.001930801    2.487    0.598
       193  -7.4802    188.2037    176.4325   1.1093770909e+02   1.2825899146e+01    0.1707143     0.102658  53.32 0.0009405651    1.643    0.391
       194  -9.0379     84.6718     21.9469   9.4255595969e+01   5.9973077669e+01    0.2949634    0.2000602 -29.60  0.000737223    1.349    0.259
       195  -9.1810    153.2974     40.8064   8.4402683422e+01   4.1735645309e+01    0.3962753     0.225722 -33.23  0.001224105    1.688    0.408
       196  -9.5181    144.9963     37.6997   8.5006685854e+01   4.4250611902e+01    0.7094474     0.316865 -50.92  0.002361474    3.108    0.678
       197  -8.0391    122.6587     41.0980   9.1341208679e+01   4.9006453959e+01    0.3504411    0.2161444   1.50  0.001345243    2.744    0.636
       198  -9.1401    109.9700     32.8268   9.1453297960e+01   5.3131961176e+01    0.3925162      0.24445 -49.35 0.0009503821    1.781    0.438
       199  -8.7333    100.4992     36.9989   9.5691099699e+01   5.4419596682e+01    0.2913408    0.2122105 -70.74  0.001403872    1.964    0.491
       200  -8.9796    104.9150     41.1958   9.6035499984e+01   5.2805388276e+01    0.4197242    0.2180843 -48.78 0.0006571075    2.077    0.518
       201  -8.5192    106.3063     36.1470   9.3737303986e+01   5.3371462973e+01    0.3375942    0.2419372  25.58  0.001392432    1.654    0.395
       202  -7.6357    160.3647     39.2864   8.2501992950e+01   4.0171620614e+01    0.2157711    0.1327126 -36.72 0.0006954097    1.584    0.369
       203  -7.2511      7.6332     37.2319   1.2949547251e+02   6.6617270098e+01    0.1017674   0.07722364  71.42 0.0003378956    1.594    0.373
       204  -8.9582    228.4868    173.0470   1.0374240479e+02   6.1551146683e+00     0.169128    0.1127548 -23.21   0.00103944    1.610    0.379
       205  -8.6340    229.9953    167.9608   1.0259252435e+02   6.4553111132e+00    0.1692954    0.1527158 -80.69  0.001047513    1.744    0.427
       206  -8.1344     16.0787    152.1908   1.4130055331e+02   4.1914423049e+01    0.1459476     0.118341 -88.98  0.000477694    1.215    0.177
       207  -9.5255     60.3627     33.9371   1.0753914411e+02   6.1926429564e+01    0.3822529    0.2599103 -67.28 0.0008939687    1.947    0.486
       208  -9.0697     62.3146     27.3361   1.0421783884e+02   6.2860235845e+01    0.4857801    0.3054129  12.90  0.002345735    2.471    0.595
       209  -7.5814    153.3422     35.2932   8.2458365097e+01   4.2511571698e+01     0.158577    0.1108065  26.88  0.000702886    1.657    0.396
       210  -8.5887    118.9023     34.4752   8.9789805499e+01   5.0906072632e+01    0.2875729    0.2012635 -31.82 0.0007481464    1.359    0.264
       211  -7.9432    159.3093     34.3106   8.0973906169e+01   4.1129224329e+01    0.1571112    0.1119327  24.64 0.0003150055    1.622    0.384
       212  -8.5769    164.5215     94.3884   9.8347651865e+01   3.0315229727e+01    0.3320685    0.2169496 -55.42 0.0009305801    1.824    0.452
       213  -8.1175    250.3094     32.5051   6.7981844506e+01   1.8323201707e+01    0.2448663    0.1621758   8.43  0.001192544    1.802    0.445
       214  -9.2592    100.9706     31.7899   9.3511453168e+01   5.5190030772e+01    0.4325368    0.2268282 -43.45  0.001050979    1.884    0.469
       215  -9.8160     73.1175     59.4281   1.1176060697e+02   5.4986191352e+01     0.454451    0.2413775 -59.45 0.0007484275    1.947    0.486
       216  -7.3898    244.2918     32.6921   6.8636662386e+01   1.9707957952e+01     0.143758   0.09539032 -51.47  0.000171421    1.581    0.367
       217  -8.1819     45.2389     15.7314   1.0591697130e+02   6.7323419092e+01    0.2345383    0.1397322 -47.43   0.00130351    1.508    0.337
       218  -8.4589    133.3186    144.4852   1.1577898442e+02   2.7686552429e+01    0.3140739    0.1091777 -55.28  0.001164961    3.591    0.722
       219  -9.7737    235.9203    146.0776   9.7469664720e+01   7.8818027420e+00    0.3226441    0.1798961  50.11  0.001683113    1.803    0.445
       220  -9.7703     66.8585    144.3064   1.2990477777e+02   3.8016418970e+01    0.4313305    0.2532253  69.92  0.002163232    1.749    0.428
       221  -7.8586    191.1604     30.8707   7.4576636361e+01   3.3275108850e+01    0.2003397    0.1668508  17.41 0.0003755795    1.286    0.223
       222  -8.6132    152.0202     30.2607   8.0909229234e+01   4.3534923974e+01    0.2089934    0.2013595  21.12 0.0005942618    1.025    0.025
       223  -7.2358    202.2121    140.0246   1.0178041310e+02   1.5138088113e+01    0.1605075    0.1053287 -30.43 0.0004455184    1.620    0.383
       224  -8.4071    132.8938    138.6842   1.1482969642e+02   2.8804339261e+01    0.1882683    0.1740797 -43.94  0.000355073    1.217    0.178
       225  -8.2233    112.1233    133.6282   1.1836911332e+02   3.3394046628e+01    0.2692092    0.1818682  86.15  0.001143703    1.889    0.471
       226  -9.8818    140.7822    118.4233   1.0911933003e+02   3.1021725445e+01    0.6251799    0.3616357 -58.37  0.002540471    2.061    0.515
       227  -9.9770    139.5515    103.4856   1.0598380060e+02   3.4046391139e+01    0.8420572    0.3224326 -44.00  0.001479598    2.636    0.621
       228  -9.1558     91.3776     26.3928   9.4098428633e+01   5.7980089562e+01    0.3951975    0.2284697 -50.12  0.001705138    1.996    0.499
       229  -8.4132     92.2634     20.8137   9.1433896492e+01   5.8673216584e+01    0.2927518    0.2032756   5.39 0.0009284038    1.790    0.441
       230  -8.7148    144.2055     25.0747   8.0516255400e+01   4.6197013353e+01    0.4527749    0.2136804 -21.17  0.001684926    2.252    0.556
       231  -8.6245    139.2993     22.1165   8.0368498070e+01   4.7808512160e+01      0.44583    0.2409565 -65.26   0.00152433    3.441    0.709
       232  -8.2239    136.1365     26.8144   8.2840863968e+01   4.7969471180e+01    0.2600276    0.1849538 -37.77 0.0005526325    1.393    0.282
       233  -8.1248    151.0714     26.1094   7.9572059461e+01   4.4322217286e+01    0.3403161    0.2020579 -77.58  0.001016722    2.858    0.650
       234  -8.5882    128.2192     24.7429   8.3767788301e+01   5.0169675098e+01     0.499678    0.2425658 -22.64  0.001318119    2.162    0.537
       235 -10.6105    132.0410    121.2402   1.1161735430e+02   3.2186455505e+01     1.201856    0.6295546 -67.84   0.00454749    3.317    0.698
       236  -8.6559    129.4871    123.8152   1.1270371090e+02   3.2181366314e+01    0.2460042    0.2082522  46.94 0.0005557318    1.164    0.141
       237 -10.5657    133.4474    109.3500   1.0872216910e+02   3.4165070463e+01     1.465306    0.4289108 -51.89  0.004459668    4.292    0.767
       238 -10.2215    108.6808    112.5792   1.1515319874e+02   3.8135286394e+01    0.9892288    0.4158699 -53.45   0.00224174    2.366    0.577
       239  -9.6519    127.5214    102.4059   1.0846606349e+02   3.6662061640e+01    0.4505558    0.3584916 -53.98  0.001590372    1.253    0.202
       240 -10.8831    121.3220    110.2407   1.1169026053e+02   3.6319044162e+01     1.208502    0.6187398 -45.50  0.004181845    2.002    0.500
       241 -10.2962    108.3392     99.7289   1.1244294788e+02   4.0795325002e+01    0.9215752    0.5302172  70.04  0.003553052    2.770    0.639
       242  -8.7235    111.5619     20.7634   8.6115654866e+01   5.4582395896e+01    0.3114859    0.1356836 -28.22  0.001227989    2.210    0.547
       243  -7.4361    141.3660    131.2749   1.1165223214e+02   2.8567876385e+01    0.1324213    0.1039509  17.33 0.0007005336    1.671    0.401
       244  -9.4973     98.6727    128.7816   1.2053312915e+02   3.6552317881e+01    0.5789089     0.307862  70.31  0.002419675    2.969    0.663
       245  -8.6409     41.0229     20.6404   1.0984378832e+02   6.6966641105e+01    0.2231603    0.1433782 -39.99 0.0002992417    1.292    0.226
       246 -10.2967     70.2496    126.1383   1.2669762818e+02   4.1249063565e+01    0.6010442    0.4372379 -68.75  0.002169322    1.266    0.210
       247  -7.9041    139.6900     17.5339   7.8501039642e+01   4.8281429866e+01    0.2635147    0.1300842 -25.03  0.000650392    1.975    0.494
       248 -10.1021     58.4748    124.7793   1.2928798707e+02   4.3030314621e+01    0.6382005    0.3096567  78.03  0.002411444    3.157    0.683
       249  -8.4274    197.1166    127.8715   1.0010356032e+02   1.7903308754e+01    0.1964436    0.1791897  25.81 0.0002913221    1.004    0.004
       250  -7.6801    141.4977     12.4808   7.6159691919e+01   4.8413969538e+01     0.145698    0.1387408  15.68 0.0008103676    1.008    0.008
       251  -9.6929    117.0382    125.4959   1.1579026017e+02   3.4117583261e+01     0.442248    0.2950857  88.39  0.001418222    2.072    0.517
       252  -9.6853     27.1020    122.7889   1.3649384680e+02   4.6791375582e+01    0.5034607     0.214238  70.49  0.002281297    2.831    0.647
       253  -9.2828     41.1504    121.8076   1.3304275319e+02   4.5613326914e+01    0.4420267    0.1830327 -84.36  0.001979058    2.848    0.649
       254 -10.5223    243.1862    118.8496   9.0557143450e+01   9.7162013229e+00    0.2894647    0.2462993   8.99 0.0004685639    1.033    0.032
       255 -10.1532     78.0590    112.9973   1.2268484442e+02   4.2912464458e+01    0.5002463    0.2904143 -85.62  0.002043054    2.242    0.554
