#   1 NUMBER                 Running object number                                     
#   2 MAG_AUTO               Kron-like elliptical aperture magnitude                    [mag]
#   3 X_IMAGE                Object position along x                                    [pixel]
#   4 Y_IMAGE                Object position along y                                    [pixel]
#   5 X_WORLD                Barycenter position along world x axis                     [deg]
#   6 Y_WORLD                Barycenter position along world y axis                     [deg]
#   7 A_WORLD                Profile RMS along major axis (world units)                 [deg]
#   8 B_WORLD                Profile RMS along minor axis (world units)                 [deg]
#   9 THETA_WORLD            Position angle (CCW/world-x)                               [deg]
#  10 FWHM_WORLD             FWHM assuming a gaussian core                              [deg]
#  11 ELONGATION             A_IMAGE/B_IMAGE                                           
#  12 ELLIPTICITY            1 - B_IMAGE/A_IMAGE                                       
         1 -14.8156    160.9074     51.4056   7.5332891323e+01   3.8389949193e+01     1.066956    0.9549979  -9.42  0.003554475    1.331    0.249
         2 -14.8323    173.7376     22.4723   6.5399481501e+01   3.8911298859e+01    0.9111053    0.7254741  82.29  0.003848966    1.116    0.104
         3 -11.0627    101.4390    244.3769   1.3106722274e+02   9.9800180875e+00    0.1947698    0.1205056 -55.34 0.0007993076    1.878    0.468
         4 -20.2473     74.4083    175.4767   1.2791130518e+02   2.9577083733e+01     16.90419     7.456367 -64.42   0.06901857    2.181    0.542
         5 -11.5250     15.1734    217.7521   1.4547773731e+02   2.7184534463e+01    0.2702008   0.09670363 -69.65  0.001166358    2.344    0.573
         6 -15.9026     41.6676    152.1764   1.3277310289e+02   3.9504843240e+01     1.506334    0.8217676 -61.07  0.005966526    1.562    0.360
         7 -12.3277    211.4968    239.0082   1.0782193146e+02  -7.7631711639e+00    0.1831615    0.1238058 -36.91  0.001035772    1.607    0.378
         8 -10.3449     25.0009    213.5117   1.4327538282e+02   2.7052084741e+01    0.1419927    0.1053201  53.66 0.0009335091    1.309    0.236
         9 -10.6993     33.0725    211.7578   1.4152833219e+02   2.6528285570e+01    0.1593787    0.1283989  77.89            0    1.056    0.053
        10 -10.1571     16.4288    212.4108   1.4484950169e+02   2.8200348835e+01    0.1185284   0.08891705  81.47 3.582987e-05    1.010    0.010
        11 -12.0874     14.3630    198.1960   1.4415023085e+02   3.1524597386e+01    0.2312629    0.1476803 -66.24  0.001174326    1.467    0.318
        12 -10.7009      9.8106    211.3185   1.4603042829e+02   2.9098265015e+01     0.185834    0.1001656 -80.71 0.0004693329    1.501    0.334
        13 -13.3419     11.5182    206.0927   1.4532522492e+02   3.0062354199e+01    0.4416007    0.3720867   2.42  0.003069866    1.960    0.490
        14  -9.4017     11.4238    238.6640   1.4751868743e+02   2.3264169090e+01    0.2050086    0.1024424  89.21  0.001218465    1.675    0.403
        15 -12.7219    133.7092    196.1209   1.1699206370e+02   1.4448108956e+01    0.4257826    0.3283427 -72.73  0.002130363    1.456    0.313
        16 -11.7482    128.7861    195.6904   1.1806764992e+02   1.5476511974e+01    0.2350519     0.211392 -77.31  0.000376598    1.145    0.126
        17 -11.1026     23.8171    191.1469   1.4157668397e+02   3.2169591497e+01    0.2269239    0.1534643 -56.74  0.001234185    1.591    0.372
        18 -10.8754    161.3397    236.7936   1.1763999983e+02   1.1435757418e+00    0.1863128    0.1666906  88.15 0.0004090523    1.352    0.260
        19 -10.6311     15.3842    187.7499   1.4305848356e+02   3.3775049284e+01    0.1575904   0.09011006 -66.69 0.0003994843    1.518    0.341
        20 -13.2784    193.5084    170.4504   9.8330560115e+01   7.9205417228e+00    0.6425368    0.3407089 -57.43  0.001829067    2.551    0.608
        21 -11.3501    110.4478    241.0820   1.2883966559e+02   9.1499577882e+00    0.2513201    0.1612465  60.69 0.0009233057    1.501    0.334
        22 -12.3996    129.9047    240.1090   1.2469066076e+02   6.0417326625e+00     0.339777    0.2062888 -46.18 0.0009302093    2.000    0.500
        23 -10.6573    157.9360    244.3158   1.1949102354e+02   4.0941006964e-01    0.1752892     0.152055  33.61 0.0003900603    1.058    0.055
        24 -14.5011    163.4986    153.1688   1.0121667551e+02   1.8011788595e+01    0.7086137    0.4523652 -40.58  0.002038746    1.622    0.384
        25 -12.9110    187.2143    154.1651   9.6100385970e+01   1.2630227316e+01     0.572841    0.3453662  36.06  0.002390671    1.816    0.449
        26 -11.9409    191.8211    151.7144   9.4561871658e+01   1.2149452198e+01    0.3763709    0.2547822 -59.61 0.0009938673    1.736    0.424
        27 -12.1458    127.6857    228.9170   1.2358575301e+02   8.6093521162e+00    0.5968946     0.386236  24.68  0.002861396    1.952    0.488
        28 -13.4504    174.3290    148.6606   9.7692870014e+01   1.6625655161e+01    0.4611385    0.3278866 -55.62  0.001313443    1.500    0.333
        29 -13.5241    196.1729    228.4283   1.0904963787e+02  -3.5115722841e+00    0.3609788    0.1871222 -36.55  0.001684452    2.125    0.529
        30 -10.0714      8.3247    149.2887   1.4088783995e+02   4.3251738205e+01    0.1199824   0.07724849 -48.39 0.0003539353    1.609    0.379
        31 -13.2033     28.1228    145.2545   1.3534884310e+02   4.2544499402e+01    0.4254448    0.3437401 -49.25  0.001580557    1.274    0.215
        32 -11.1149    151.7983    228.8891   1.1841478221e+02   4.3068220675e+00    0.2033213    0.1775713  22.10  0.000460659    1.197    0.164
        33 -11.3582     10.9475    144.2962   1.3966584011e+02   4.4216621393e+01    0.2051887    0.1451851 -46.09  0.000447525    1.493    0.330
        34 -13.8395    160.3901    127.8595   9.5953517807e+01   2.4313670454e+01    0.5281715    0.4011887 -62.79  0.001557526    1.462    0.316
        35 -10.8624     27.3737    226.7440   1.4385619306e+02   2.3957001002e+01    0.1411299   0.09332316 -76.64 0.0003454003    1.364    0.267
        36 -10.6462     35.3725    244.2595   1.4369390493e+02   1.9424542017e+01    0.1443795   0.08745891  85.07 0.0006160361    1.414    0.293
        37 -11.2290    231.2753    113.8683   7.8525559857e+01   1.1102003976e+01    0.2505412    0.2128353  52.35 0.0007746634    1.288    0.224
        38 -11.4589    167.9591    112.9756   9.0461329040e+01   2.5720430630e+01    0.2620443    0.1956519 -82.04  0.001135112    1.748    0.428
        39 -10.7439      6.3267    224.7546   1.4755873314e+02   2.6609564018e+01    0.1152405   0.06189726  65.68 0.0006908422    1.537    0.349
        40 -13.0014    207.5268    220.7274   1.0538051307e+02  -4.1656642602e+00    0.2649958    0.2227956 -33.01  0.001008908    1.263    0.208
        41 -11.1503    205.5181    110.2180   8.2122301596e+01   1.7469062973e+01     0.272966    0.2105254  56.29 0.0006304167    1.334    0.250
        42 -12.2124     29.6147    105.0559   1.2831278660e+02   5.1812666717e+01    0.2665727     0.198649  -0.10 0.0005325667    1.610    0.379
        43 -12.5388     40.8012     94.6503   1.2242857382e+02   5.3071151618e+01    0.4309857    0.3190312   4.46   0.00194048    1.550    0.355
        44 -12.5262     48.3694     92.6479   1.1939886830e+02   5.2691651482e+01     0.317885    0.2653108 -13.39  0.001420427    1.229    0.186
        45 -13.7455    149.5037     65.1712   8.1583002556e+01   3.9068011534e+01    0.5242908    0.4407988  61.16 0.0009089083    1.130    0.115
        46 -11.4172    117.3366    245.0877   1.2793279816e+02   7.2317074007e+00    0.1636395    0.1553961 -46.07  0.001066131    1.327    0.247
        47 -13.4254    165.3231     42.6314   7.2100770430e+01   3.8518080587e+01    0.4584403     0.404524  81.99  0.000868357    1.069    0.065
        48 -11.1425     13.5236     59.9629   1.2378221894e+02   6.2452183206e+01    0.1673019    0.1356563 -23.42 0.0004225402    1.119    0.106
