#   1 NUMBER                 Running object number                                     
#   2 MAG_AUTO               Kron-like elliptical aperture magnitude                    [mag]
#   3 X_IMAGE                Object position along x                                    [pixel]
#   4 Y_IMAGE                Object position along y                                    [pixel]
#   5 X_WORLD                Barycenter position along world x axis                     [deg]
#   6 Y_WORLD                Barycenter position along world y axis                     [deg]
#   7 A_WORLD                Profile RMS along major axis (world units)                 [deg]
#   8 B_WORLD                Profile RMS along minor axis (world units)                 [deg]
#   9 THETA_WORLD            Position angle (CCW/world-x)                               [deg]
#  10 FWHM_WORLD             FWHM assuming a gaussian core                              [deg]
#  11 ELONGATION             A_IMAGE/B_IMAGE                                           
#  12 ELLIPTICITY            1 - B_IMAGE/A_IMAGE                                       
         1 -15.4848    123.7760     24.4235   7.5023431331e+01   5.0708225086e+01     5.565826     1.486228  49.76   0.02032559    3.050    0.672
         2 -14.7290    204.2086     45.8857   6.7489210201e+01   2.8956479221e+01     1.597201    0.9486552 -45.00  0.008028496    1.631    0.387
         3 -15.1146    216.2722     35.3036   6.3537826047e+01   2.7583092669e+01     2.618881     1.119236 -57.16  0.009994195    2.557    0.609
         4 -15.9543    193.0920      8.1362   5.9872518806e+01   3.6160788743e+01     4.086841     1.419109  67.78   0.01780885    2.371    0.578
         5 -15.0778    165.3032     55.7666   7.6198412693e+01   3.6916499617e+01      2.99528     1.611757 -79.68  0.003908089    4.233    0.764
         6 -13.5910    247.1243     34.2999   6.0148402938e+01   2.0886295126e+01    0.9348326    0.4457226 -85.92  0.004253218    2.543    0.607
         7 -16.5513    242.8130     91.1443   7.2621629602e+01   1.3037433589e+01     11.19401      2.97956 -37.39   0.03549038    3.773    0.735
         8 -15.1164    238.3349      5.4177   5.5191592577e+01   2.6305851931e+01    0.9549285    0.4496613 -77.24  0.003997689    2.141    0.533
         9 -13.4960    247.1942     45.9491   6.2501548085e+01   1.9257599456e+01    0.9553582    0.4279452 -43.40   0.00462277    1.949    0.487
        10 -14.5748    237.3597     14.1425   5.6982646600e+01   2.5516488836e+01    0.9052373    0.5082383  88.88  0.003046204    1.612    0.380
        11 -15.9795    177.8340     76.9901   7.9614434723e+01   3.0428767186e+01     5.840408     3.026632 -54.26  0.004691019    2.211    0.548
        12 -15.0412    247.4558      3.5099   5.4158569102e+01   2.4600894761e+01    0.6717489    0.4536277 -70.61  0.002839218    1.160    0.138
        13 -11.9008    134.0457      7.3016   6.7666297277e+01   5.0029914937e+01    0.4062465    0.3251105 -11.88  0.002187086    1.490    0.329
        14 -10.4895    117.8244      2.9433   6.9211335752e+01   5.4002270667e+01    0.1938912     0.138649  40.48 0.0006213716    1.270    0.213
        15 -11.3658     57.9148      2.6262   8.4320507936e+01   6.5606967492e+01    0.2637102    0.1021409  38.79  0.001344585    2.174    0.540
        16 -12.6468    183.1269    134.3425   9.3097094002e+01   1.7889631927e+01    0.8514917    0.4334482  68.15  0.002549444    3.942    0.746
        17  -9.2127    107.7298    233.3327   1.2858387691e+02   1.1095264686e+01    0.1348705   0.09108263  73.40 0.0002466177    1.590    0.371
        18 -11.7423    160.5585    128.3622   9.6625478300e+01   2.4271990193e+01    0.4599278     0.324422 -52.94  0.001622666    1.422    0.297
        19 -14.7362     18.4075    209.6164   1.4398676213e+02   2.8522316311e+01    0.9559742    0.6982871  81.96  0.003839918    1.042    0.040
        20 -11.6065    135.1235    119.8099   1.0063032345e+02   3.1816208113e+01    0.9004312    0.1980633 -48.16  0.002222057    4.671    0.786
        21 -10.5148    135.0000    112.5655   9.8781924667e+01   3.3446624985e+01    0.4874871    0.1859443 -45.74  0.001623571    2.573    0.611
        22 -11.8543    134.6395    105.8636   9.7086719871e+01   3.4971858234e+01     0.623318    0.3352768 -43.99  0.002249818    1.833    0.455
        23 -11.9175    214.6208    105.5411   8.0187843705e+01   1.6564383826e+01    0.2853356    0.2587222  31.06   0.00156307    1.320    0.242
        24 -12.5086    156.3327    101.5136   9.0681316187e+01   3.0944526147e+01    0.5405884    0.3380886 -55.73  0.002124481    1.760    0.432
        25 -11.0152    140.9375    102.1643   9.4508550004e+01   3.4347498134e+01    0.2840957    0.2170344  25.60  0.000628566    1.586    0.369
        26 -11.6485    215.1426     99.3340   7.8635530942e+01   1.7602111991e+01    0.4547944     0.176844 -47.13  0.001627783    2.446    0.591
        27 -11.9617    167.6259    113.3719   9.1255470448e+01   2.5867488089e+01    0.4385901    0.3231527 -75.28  0.001132324    1.696    0.411
        28 -11.5634    146.5175     96.8746   9.1709865894e+01   3.4157159443e+01    0.3713038    0.3164627  12.40 0.0007938559    1.418    0.295
        29 -14.8394     57.5376    175.1766   1.3190710994e+02   3.1922338870e+01     1.580425     1.283742  -9.80  0.007089636    1.882    0.469
        30 -10.7057    212.2933     94.4904   7.7954947995e+01   1.9135980812e+01    0.2923072    0.2308353 -10.78  0.001433965    1.765    0.433
        31 -10.8466    133.3235     94.2155   9.4209279288e+01   3.7677054713e+01    0.2909909    0.2432649  87.16 0.0003723449    1.423    0.297
        32  -9.1099    113.3580     95.2383   9.9795350654e+01   4.1715490776e+01    0.1480064    0.1157009  11.57 0.0004063695    1.586    0.369
        33 -10.3508    132.6073    140.1392   1.0623986940e+02   2.7675288310e+01    0.6004261    0.1464899 -52.64  0.001461189    4.800    0.792
        34 -11.7402    139.8972     85.8605   9.0211006711e+01   3.7831925099e+01     0.348285    0.3116302 -57.87 0.0007181977    1.151    0.131
        35 -10.4415    211.4968     80.0170   7.4623439320e+01   2.1881829412e+01    0.3057379    0.1863517  56.65  0.001222195    1.686    0.407
        36 -11.5288    215.9855     81.2604   7.4230567797e+01   2.0632935082e+01     0.450512    0.2522025 -60.52  0.001935082    2.000    0.500
        37 -10.3555    219.6996     78.2263   7.2965983866e+01   2.0301314630e+01    0.4131111     0.251069  52.61  0.001270395    1.788    0.441
        38 -10.5098    206.5598     81.9171   7.5861672028e+01   2.2703634462e+01    0.2686836    0.2062606  78.51 0.0007949971    1.341    0.254
        39 -13.0533    153.4629     77.3562   8.4665007198e+01   3.6229327078e+01    0.4081821    0.3170986 -35.23  0.001047791    1.347    0.257
        40 -10.4487    204.7147     59.6764   7.0741826495e+01   2.6798293087e+01    0.2145637    0.1853352  63.35 0.0005273863    1.208    0.172
        41  -9.4053    202.6487    196.2628   1.0251537569e+02   1.2351877108e+00    0.1345502    0.1121268  74.32 0.0003830515    1.614    0.381
        42 -12.5381    211.9483     63.9781   7.0733887370e+01   2.4423872678e+01     1.360437    0.5982843 -64.32  0.004384694    3.976    0.748
        43 -10.6234    130.6799     66.1106   8.6619911096e+01   4.3453782214e+01    0.2819964    0.2107029  45.04 0.0008946382    1.297    0.229
        44  -9.9125    218.6500     64.1877   6.9850537267e+01   2.2837823905e+01    0.2364711    0.1738274  85.49 0.0006891413    1.353    0.261
        45 -10.6196    191.3702    192.1994   1.0401274143e+02   4.1343647838e+00       0.5872    0.2962521 -65.22  0.001636695    5.625    0.822
        46 -13.0510     14.1855    192.7543   1.4344155743e+02   3.2700244688e+01    0.4021929    0.1927713  80.10  0.002021264    2.092    0.522
        47 -10.5212    189.9154     51.2845   7.0862971151e+01   3.1603329307e+01    0.3339421    0.2029301 -29.84  0.001095902    1.910    0.476
        48 -10.3650    178.0128     47.8658   7.1849151103e+01   3.4978393481e+01    0.3415357    0.2503642  16.99  0.001665084    2.078    0.519
        49 -11.3811    191.0569     43.8541   6.8817771646e+01   3.2381358145e+01    0.5518377    0.2911488 -63.33  0.002345641    2.355    0.575
        50 -10.4982    187.0000     37.9204   6.7904173164e+01   3.4155612263e+01    0.2838506    0.1954449 -26.44 0.0008853005    1.757    0.431
        51 -10.1559    189.7301     36.3202   6.7118017216e+01   3.3707695513e+01    0.2326816     0.165742  80.47  0.000704052    1.308    0.235
        52  -9.3084    167.3303     45.2907   7.2940695199e+01   3.7930417541e+01    0.1404378    0.1027924  35.90 0.0007018959    1.625    0.385
        53 -15.1856     49.1355    183.8721   1.3499562921e+02   3.0911400363e+01       2.0961     1.562214 -28.56  0.001749354    2.103    0.525
        54 -11.2680    218.4088    181.3615   9.6416243825e+01   1.1075561216e+00     0.272798    0.1752559  44.94  0.001326767    1.651    0.394
        55 -10.0435    170.1500     29.1678   6.8102907385e+01   3.9309012716e+01    0.2590007    0.1435314 -57.61  0.001195226    2.131    0.531
        56 -12.9931    226.5545    174.5735   9.3475739065e+01   8.6793042434e-01     0.959986    0.4822594 -22.65   0.00347347    3.165    0.684
        57 -12.2986    229.8665    166.9169   9.1263156425e+01   1.6768044370e+00    0.4834211    0.3031568 -48.40  0.001741239    1.608    0.378
        58 -11.9988      6.1624    170.3830   1.4314950740e+02   3.8532109105e+01    0.2945608    0.2071022  27.81  0.001292871    1.861    0.463
        59  -9.5538      3.6961    162.2683   1.4293268451e+02   4.0601706150e+01    0.1179157   0.07433288  73.38 0.0001753546    1.530    0.347
        60 -10.7164    218.7175     19.1900   5.9720979196e+01   2.9041783718e+01    0.2063612    0.1677087 -58.68 0.0005578385    1.192    0.161
        61 -12.4502     67.8390    144.3308   1.2433772962e+02   3.8091675767e+01    0.6927598    0.4166009  65.78  0.002970776    2.222    0.550
        62  -8.9714    214.2755    160.2778   9.2745720418e+01   5.9418754551e+00    0.1405198    0.1120297  -4.30 0.0002338055    1.496    0.332
        63  -9.9876      2.1197    158.3048   1.4290705207e+02   4.1637011648e+01     0.192441    0.1161792  11.60  0.001103842    2.563    0.610
        64 -11.7686    246.3069    163.8465   8.7739596827e+01  -7.3112488524e-01    0.4780449    0.2946563  -4.06  0.001993073    2.835    0.647
        65 -13.4479    187.9177     60.3581   7.3496135693e+01   3.0720667078e+01    0.9479267    0.5027069  32.62  0.003270609    3.824    0.739
        66  -9.8795    202.1446    248.1890   1.1189813578e+02  -7.4679522479e+00    0.1840041    0.1469178  13.18 0.0002915149    1.162    0.139
