#   1 NUMBER                 Running object number                                     
#   2 MAG_AUTO               Kron-like elliptical aperture magnitude                    [mag]
#   3 X_IMAGE                Object position along x                                    [pixel]
#   4 Y_IMAGE                Object position along y                                    [pixel]
#   5 X_WORLD                Barycenter position along world x axis                     [deg]
#   6 Y_WORLD                Barycenter position along world y axis                     [deg]
#   7 A_WORLD                Profile RMS along major axis (world units)                 [deg]
#   8 B_WORLD                Profile RMS along minor axis (world units)                 [deg]
#   9 THETA_WORLD            Position angle (CCW/world-x)                               [deg]
#  10 FWHM_WORLD             FWHM assuming a gaussian core                              [deg]
#  11 ELONGATION             A_IMAGE/B_IMAGE                                           
#  12 ELLIPTICITY            1 - B_IMAGE/A_IMAGE                                       
         1 -12.3238    245.2219     27.1327   6.1384964184e+01   2.1672673160e+01    0.8215926    0.3556804 -57.29  0.001348575    2.252    0.556
         2 -15.0229    245.6289     87.8438   7.4494889325e+01   1.2480603348e+01     6.584336     1.815919 -37.60   0.02172383    3.385    0.705
         3 -12.2104     75.4389     31.7763   9.4009812176e+01   5.9510019763e+01    0.7211743    0.3053009 -24.25  0.003109336    2.768    0.639
         4 -11.3641      5.0221     28.0173   1.2013055431e+02   6.8301255761e+01    0.6090591    0.3813552  38.27  0.004016611    2.446    0.591
         5 -11.7840    241.6191     14.7263   5.9157375396e+01   2.4001925956e+01     1.049962    0.4225386 -62.01  0.004357849    2.704    0.630
         6 -11.7702    247.2364     12.7724   5.8292914873e+01   2.3006018292e+01    0.9409652    0.4070542 -40.82  0.004776147    2.111    0.526
         7 -12.3707    228.8114      2.9347   5.7815926675e+01   2.8189578037e+01     1.007442    0.6532577 -82.55  0.006048182    1.326    0.246
         8 -11.9243    239.7969      2.4888   5.6837094163e+01   2.5797135382e+01     1.084717    0.3699732  79.09  0.004650275    2.838    0.648
         9 -11.5742    119.2705     15.2233   7.6180726900e+01   5.2727806614e+01    0.5626687    0.4198305 -45.22  0.001724276    1.622    0.383
        10 -11.4379      2.7777     14.0051   1.1601233288e+02   7.0581295606e+01    0.4280583    0.1562214 -37.17  0.002443263    2.067    0.516
        11 -12.2118    186.1933      6.6722   6.2911925915e+01   3.7780435766e+01    0.7579995    0.4238231 -38.20    0.0033398    1.904    0.475
        12  -9.2273     58.5342     10.1511   9.1003767802e+01   6.4782104479e+01    0.1629176     0.102008 -21.29  0.001011413    1.534    0.348
        13 -11.3009     70.2309      3.0040   8.4159376493e+01   6.3543322424e+01    0.4595589    0.2903074  63.63  0.002596406    2.300    0.565
        14 -10.6404    107.8537      1.4229   7.3853187033e+01   5.6391862938e+01    0.2797309    0.1145689  60.26 0.0003718807    2.151    0.535
        15  -9.4569    127.1484      1.4173   7.0043633297e+01   5.2175618235e+01    0.1856862    0.1061583  63.42 0.0003181549    1.511    0.338
        16 -13.2715    160.9561    198.2721   1.1495365886e+02   9.1149529423e+00     1.219372    0.8234439  74.69  0.005414867    2.161    0.537
        17  -9.6215    195.2476    249.4826   1.1664456352e+02  -5.9742420401e+00    0.2252911    0.2033619 -52.96  0.001361078    1.430    0.301
        18  -9.7673    124.6534    249.7314   1.3009134311e+02   5.9219603463e+00    0.2418468    0.1843818  61.34 0.0008051281    1.149    0.130
        19 -12.8263    152.8158    194.9163   1.1610440003e+02   1.1387376380e+01    0.8132543    0.4138789  47.49  0.003297986    1.868    0.465
        20 -12.1534     91.6713    182.3862   1.2775299751e+02   2.5334735274e+01    0.5435339    0.3555187 -85.44  0.001001911    1.704    0.413
        21 -11.7087     46.9769    179.4438   1.3745800779e+02   3.2371405709e+01    0.5748142    0.2466118  57.32  0.002500711    2.651    0.623
        22 -12.7938     34.2419    170.9458   1.3928997350e+02   3.5787568974e+01    0.9389496    0.4974802  84.19  0.003412243    2.070    0.517
        23 -10.7419    161.4821    155.9113   1.0632745549e+02   1.7984513672e+01    0.4960652    0.3600142 -89.78  0.001431223    1.950    0.487
        24 -10.3428    178.9057    153.4153   1.0189016241e+02   1.4737442390e+01    0.4587808    0.2966554 -69.22  0.001522357    2.255    0.557
        25 -10.3143     70.1817    171.9668   1.3117395889e+02   3.1064139818e+01    0.3005662    0.2054135 -79.53 0.0005110892    1.387    0.279
        26 -10.5904    240.7462    153.0296   8.9733306205e+01   1.9267986746e+00    0.3925295    0.2238021 -59.56   0.00159153    2.655    0.623
        27  -9.1449    142.7469    149.5856   1.0930861492e+02   2.3397035674e+01    0.2182134    0.1450793  55.91 0.0005718968    1.597    0.374
        28 -10.3772    129.5907    243.1221   1.2832407300e+02   6.2641064910e+00    0.3242454    0.2265276  60.80 0.0009551586    1.335    0.251
        29 -13.5980    246.7434    111.5969   7.9631399178e+01   8.1446511579e+00     3.047076    0.4984466 -41.44   0.00365325    4.964    0.799
        30 -11.7975    201.2254    233.1547   1.1287865380e+02  -4.5271215129e+00     0.990464    0.6059961 -66.15  0.004259695    3.566    0.720
        31 -10.7194     92.5290    137.5784   1.1945764723e+02   3.5839728803e+01    0.4933673    0.1604854  45.99  0.001614018    3.393    0.705
        32  -9.1949    140.4480    135.1668   1.0655519950e+02   2.7165131601e+01    0.2331578    0.1520472 -47.24  0.000683684    1.517    0.341
        33 -11.5717     83.2062    133.6758   1.2115143130e+02   3.8280671735e+01    0.5534496    0.4412148  17.09   0.00290915    1.584    0.369
        34 -10.7419    202.0533    113.0854   8.7549737884e+01   1.7732825921e+01    0.3267869    0.2101114 -47.21 0.0005815913    1.510    0.338
        35  -9.8901     36.0271    110.3355   1.2986463203e+02   4.9707699598e+01    0.2426762    0.1657001 -68.83 0.0007070308    1.327    0.247
        36 -12.6207    189.2323     88.1180   8.3666583689e+01   2.5514580228e+01      1.47069    0.8933083 -51.32  0.006353361    1.698    0.411
        37 -10.1772    136.5664     79.4990   9.2672335346e+01   3.9720064238e+01    0.3056266    0.2471929 -64.91  0.001516483    1.433    0.302
        38  -9.2757    100.0391     79.0229   1.0239600493e+02   4.7438364763e+01    0.2136552     0.205027 -20.30 0.0005115092    1.040    0.039
        39 -11.1913    167.0659     74.7599   8.4425795351e+01   3.3325599727e+01    0.4354754    0.2703553 -39.35  0.001934985    1.638    0.390
        40 -10.9933     16.2537     73.7464   1.2855091572e+02   5.9221466580e+01    0.4215274    0.2759601 -82.38  0.002297701    2.116    0.527
        41 -12.8433    224.4022    137.7038   8.9225299958e+01   8.0300592477e+00    0.7956567    0.5970498  74.31  0.003017876    1.723    0.420
        42 -11.4602     77.4672     57.2074   1.0243669623e+02   5.5339636829e+01     0.469217    0.3414136  44.30  0.001710027    1.533    0.348
        43 -10.6176     73.0935     54.8581   1.0308488306e+02   5.6432366661e+01    0.2751427    0.2680944  33.85 0.0009037503    1.284    0.221
        44 -12.3516     71.5965     49.9220   1.0189060245e+02   5.7477373762e+01    0.6844599    0.4558042  55.04  0.002754496    2.172    0.540
        45 -10.8381     22.0073     54.5467   1.2149961268e+02   6.2515011972e+01    0.3714325    0.2853884  88.09  0.002283529    2.305    0.566
        46 -11.8794    152.1168     45.9429   7.9132108917e+01   4.1492290031e+01    0.9120193    0.6758601 -16.05  0.004681179    1.618    0.382
        47 -13.9126    206.1586    133.6254   9.1692049607e+01   1.2764945138e+01     2.457277     1.269263  52.74  0.009856992    2.060    0.515
        48 -10.7595    203.0679     38.2054   6.8625808056e+01   3.0026326580e+01    0.4984732     0.262164 -55.98  0.001696701    2.047    0.511
        49 -10.3849    128.3406     38.1806   8.1793818609e+01   4.8110280938e+01    0.3799129    0.2536184 -59.48  0.001827615    2.073    0.518
        50 -11.0377    113.1310    227.6203   1.2955888585e+02   1.1974140664e+01    0.4908526     0.218257  52.07  0.002176832    2.085    0.520
        51 -10.3740    157.5068     25.0143   7.1954245977e+01   4.2815717587e+01    0.4718147     0.191086 -43.22  0.001922018    2.758    0.637
        52  -9.2293    211.4602     30.4689   6.5694270880e+01   2.9012170005e+01    0.1340521    0.1162929 -88.72 0.0001450851    1.034    0.033
        53 -11.3024    139.8904    226.1623   1.2394754697e+02   7.5950763992e+00     0.376969    0.2492593  72.71  0.001868554    1.923    0.480
        54 -11.2920      4.9986     23.0014   1.1837834594e+02   6.9090739697e+01    0.2531255    0.2160539  44.75  0.001961361    1.992    0.498
        55 -11.2149    109.7861     27.4210   8.2589042976e+01   5.3486441254e+01    0.3684759    0.3178227 -88.29 0.0007977908    1.525    0.344
        56  -9.8409     33.0015     25.9835   1.0737082335e+02   6.6197193759e+01     0.176853    0.1423157 -11.80 0.0007973947    1.084    0.078
        57 -11.4471    237.0651     23.4272   6.1379139547e+01   2.3955251163e+01    0.2784082    0.2219789 -53.96 0.0004141514    1.208    0.172
        58 -13.4575     83.1868    219.2610   1.3453627557e+02   1.8510917082e+01      1.55533    0.6348433  66.62  0.005102623    4.567    0.781
        59 -12.8563     89.7693    218.2144   1.3308570912e+02   1.7709099939e+01    0.9913697     0.495996  71.28  0.004129496    2.780    0.640
        60 -13.2762     73.9414    208.0324   1.3509959750e+02   2.2296638137e+01     1.526247    0.3478827  50.60  0.004684812    4.806    0.792
        61  -9.9332    178.0165    225.0527   1.1606948149e+02   8.9211061036e-01    0.2100963    0.1623623  73.05  0.001135203    1.716    0.417
        62  -9.5221    162.3284    222.6601   1.1884067140e+02   4.1768577844e+00    0.1389209    0.1022268  72.96 0.0007051642    1.736    0.424
        63 -12.0652     36.0972    217.0101   1.4342660815e+02   2.5384692544e+01    0.5345166    0.3562861  66.76  0.003465255    1.242    0.195
        64 -10.9393    158.4145     30.3208   7.3340995345e+01   4.1981187689e+01    0.5558643    0.2712837 -18.73  0.002286415    2.854    0.650
        65 -12.4641     32.0530    214.2806   1.4395053023e+02   2.6429801027e+01    0.6720396    0.4173449 -70.67  0.002886928    1.479    0.324
        66  -9.2063     51.8215    210.2442   1.3979934065e+02   2.4873180299e+01    0.2226085   0.09950363  70.04  0.000949381    2.770    0.639
        67 -11.6768    199.1183    202.9075   1.0789662596e+02   8.8889414452e-01    0.4613863    0.2991556  48.18  0.001712108    1.565    0.361
        68 -12.1578    182.5791    200.3897   1.1078773559e+02   4.4987727563e+00    0.6606601    0.2834211  48.01  0.002580313    2.336    0.572
