#   1 NUMBER                 Running object number                                     
#   2 MAG_AUTO               Kron-like elliptical aperture magnitude                    [mag]
#   3 X_IMAGE                Object position along x                                    [pixel]
#   4 Y_IMAGE                Object position along y                                    [pixel]
#   5 X_WORLD                Barycenter position along world x axis                     [deg]
#   6 Y_WORLD                Barycenter position along world y axis                     [deg]
#   7 A_WORLD                Profile RMS along major axis (world units)                 [deg]
#   8 B_WORLD                Profile RMS along minor axis (world units)                 [deg]
#   9 THETA_WORLD            Position angle (CCW/world-x)                               [deg]
#  10 FWHM_WORLD             FWHM assuming a gaussian core                              [deg]
#  11 ELONGATION             A_IMAGE/B_IMAGE                                           
#  12 ELLIPTICITY            1 - B_IMAGE/A_IMAGE                                       
         1 -12.7131      2.0268    124.9159   1.3476383149e+02   4.9370040701e+01     3.194075    0.2345577 -69.32  0.005560005   14.671    0.932
         2 -13.4552      2.3783     86.5924   1.2827664267e+02   5.7928988758e+01     4.896092    0.2917765 -63.57  0.009811195   12.355    0.919
         3 -13.2494      1.9165     15.3425   1.0793952300e+02   7.0545033171e+01     1.566255     0.383956 -44.20  0.007133153    3.705    0.730
         4 -12.8314      2.3606      2.6562   1.0230586495e+02   7.2093318764e+01     1.075451    0.4878994  31.61  0.004805699    2.330    0.571
         5 -12.1132    199.5877      6.1617   5.5019269492e+01   3.4814448489e+01    0.8515943    0.3014028 -25.55  0.003466008    4.610    0.783
         6 -13.4658    200.1050     25.0430   5.8950748874e+01   3.2628108296e+01    0.9877537    0.5659061 -32.90  0.005400831    2.061    0.515
         7 -11.7159    206.2642     19.4980   5.7126062071e+01   3.1920703656e+01    0.3928238    0.3103163  31.35  0.001220007    2.012    0.503
         8 -13.0572    213.0959     10.9402   5.4739985147e+01   3.1405118610e+01    0.6179357    0.4730567 -82.24  0.003249546    1.025    0.025
         9 -12.0068     47.2264     13.1761   8.7284275684e+01   6.5589345871e+01    0.5216183    0.1963854  39.61  0.002645546    2.286    0.563
        10 -12.2440     71.1920      6.9462   7.6968412891e+01   6.2201028575e+01    0.7561489    0.4619369  21.48  0.004615483    1.627    0.385
        11 -11.1038    134.1965      2.1307   6.1962245696e+01   4.9704346239e+01    0.3874526    0.1775013  64.93  0.002007753    1.750    0.429
        12 -11.5630     51.8710      5.1113   8.2313013745e+01   6.5638478473e+01    0.3706138    0.2143376  25.90  0.002321463    1.508    0.337
        13 -17.0283     12.6677    239.0671   1.4333578982e+02   2.1929994946e+01     2.181164     1.345041  71.51   0.01382437    1.319    0.242
        14 -14.8060    109.7147    225.2140   1.2179108586e+02   1.1621564119e+01     3.691921     2.542595  14.96   0.01745041    2.102    0.524
        15 -17.0140     70.2362    164.0723   1.2183919139e+02   3.2641233626e+01     6.911219     4.109958 -53.59   0.02504666    1.572    0.364
        16 -11.5371    125.4815    153.1855   1.0494258434e+02   2.5801414755e+01    0.9170883    0.5413986 -52.62  0.003802855    1.661    0.398
        17 -10.1216    107.5272    248.7540   1.2541912233e+02   7.0446284100e+00     0.256341    0.2164371  46.16 0.0009663787    1.086    0.079
        18 -14.8579    112.9535    198.4948   1.1687571533e+02   1.7168537114e+01     3.941885     2.744567 -23.20   0.01733107    2.181    0.541
        19 -16.3239     64.7412    193.8550   1.2781617171e+02   2.5977155514e+01      9.70149     4.229337 -62.08    0.0389611    2.099    0.524
        20  -9.6128      1.3612    209.0827   1.4340244697e+02   2.9613657990e+01    0.1992569    0.1189187  79.13 0.0009112931    1.420    0.296
        21 -10.4989     12.7914    148.2962   1.3489643024e+02   4.3037133550e+01    0.2801198    0.1366088 -60.68  0.001011113    1.630    0.387
        22 -15.0685     66.9381    234.0611   1.3220845231e+02   1.6282647836e+01     2.178096    0.9477776 -60.50  0.009989916    2.291    0.563
        23 -15.0435     47.4753    228.6701   1.3570457166e+02   2.0111077907e+01     2.246024     1.405036  68.89   0.01118854    1.493    0.330
        24 -10.7064      8.8131    117.5436   1.3165769751e+02   5.0646606971e+01    0.2669094    0.1559168 -45.88  0.001490894    1.508    0.337
        25 -10.0314    167.8633    112.5780   8.5099038975e+01   2.5897591775e+01    0.3118508    0.1938777 -61.14 0.0009014863    1.891    0.471
        26 -12.1412     79.6963    249.9237   1.3128147334e+02   1.1069788999e+01    0.7435834    0.3245918  42.47   0.00265683    1.973    0.493
        27 -12.8258     65.3551     84.9172   1.0560468900e+02   5.1966052043e+01    0.8475897    0.6745706  83.64  0.004450706    1.989    0.497
        28 -11.9030     58.9631     86.1282   1.0811673768e+02   5.2627002279e+01    0.5441149    0.3232599 -46.98  0.002705732    1.561    0.359
        29 -10.9484     87.0541    248.0062   1.2957194261e+02   1.0366744616e+01    0.4050314     0.231013  51.52  0.001354075    1.554    0.357
        30 -12.8729     70.2414     60.1057   9.6354179262e+01   5.5764594117e+01    0.9459164    0.4542683  29.23  0.004204589    2.294    0.564
        31 -12.6820     57.9451     54.3675   9.8729912237e+01   5.8587186177e+01     0.958795    0.4825622 -39.12  0.004800987    1.931    0.482
        32 -12.3735    112.5265    158.6958   1.0949936266e+02   2.6941241697e+01     1.105306    0.8501221  58.15  0.003766667    1.401    0.286
        33 -11.3666     29.1270     71.6305   1.1486424635e+02   5.8978027646e+01    0.4071658    0.2895626 -24.06  0.002257378    1.275    0.216
        34 -11.3369     37.7343     67.1782   1.1032132477e+02   5.8941939083e+01     0.388985    0.2452272  14.05  0.002187823    1.684    0.406
        35 -12.8052     68.2706     67.1365   9.9280341363e+01   5.4879082564e+01    0.9954003    0.3219829 -36.56  0.003524858    3.451    0.710
        36 -10.0841     17.9938     51.7216   1.1347146879e+02   6.3641775260e+01    0.1682572    0.1337181 -13.03  0.001178164    1.093    0.085
        37  -9.4887     32.6208     37.7629   1.0266443040e+02   6.4439361805e+01     0.152675    0.1018451 -42.81 0.0007554321    1.647    0.393
        38 -10.1391     14.4996    211.3090   1.4092870499e+02   2.7848113400e+01    0.2756577    0.1757089  37.07  0.001532985    1.735    0.424
        39 -12.8473    192.0766     34.2986   6.1943047093e+01   3.3296623002e+01    0.6991251    0.4437276  59.64  0.003755906    1.512    0.338
        40 -11.5254      9.5468    207.0206   1.4159492313e+02   2.9317325305e+01    0.4483425     0.427881 -28.98  0.003267372    1.513    0.339
        41  -9.3857      1.3007    196.7324   1.4248181978e+02   3.2436993725e+01    0.1698786   0.08500658 -71.34 0.0007314755    1.608    0.378
        42 -10.0338     40.0364     35.4880   9.8824803232e+01   6.3872094562e+01    0.1774436    0.1035898  28.76  0.001040966    1.615    0.381
        43 -10.9747     68.3408     31.3558   8.6997665238e+01   6.0200237304e+01    0.3089232    0.2532515  -5.37  0.002062212    1.163    0.140
        44 -11.2626    102.4844     25.9923   7.5431674644e+01   5.4353442244e+01    0.2051065    0.1991184 -23.48  0.001425551    1.209    0.173
        45 -12.7748    153.1182    191.7748   1.0614399650e+02   1.1330647641e+01    0.8550427    0.6507621 -32.39  0.004168165    1.448    0.309
        46 -12.5365    143.8421    193.8286   1.0869209790e+02   1.2618618394e+01    0.6374235    0.4904352  63.06  0.002296507    1.474    0.322
        47  -9.3592      1.4943    182.0162   1.4121694398e+02   3.5853413368e+01    0.1930464   0.09779447 -76.46 0.0006973538    1.566    0.362
        48 -11.8240    138.0787    177.7015   1.0693439796e+02   1.7457529782e+01    0.5736955    0.3199663 -51.97  0.002302645    1.786    0.440
