#   1 NUMBER                 Running object number                                     
#   2 MAG_AUTO               Kron-like elliptical aperture magnitude                    [mag]
#   3 X_IMAGE                Object position along x                                    [pixel]
#   4 Y_IMAGE                Object position along y                                    [pixel]
#   5 X_WORLD                Barycenter position along world x axis                     [deg]
#   6 Y_WORLD                Barycenter position along world y axis                     [deg]
#   7 A_WORLD                Profile RMS along major axis (world units)                 [deg]
#   8 B_WORLD                Profile RMS along minor axis (world units)                 [deg]
#   9 THETA_WORLD            Position angle (CCW/world-x)                               [deg]
#  10 FWHM_WORLD             FWHM assuming a gaussian core                              [deg]
#  11 ELONGATION             A_IMAGE/B_IMAGE                                           
#  12 ELLIPTICITY            1 - B_IMAGE/A_IMAGE                                       
         1 -13.4221    234.4375     25.9512   2.2610599733e-01   2.5584963834e+01    0.7917488    0.6220255 -46.73  0.003925406    1.106    0.096
         2 -10.1383    227.3805      9.6065   3.5718849185e+02   2.8571564093e+01    0.2175635    0.1570487 -55.16 0.0006890748    1.032    0.031
         3  -9.9969    125.3448    238.2271   5.9984403020e+01   9.2877649117e+00    0.3721073    0.1056358 -52.52  0.001519785    4.084    0.755
         4 -10.8600    100.9613    247.4009   6.6355806719e+01   1.0573417870e+01    0.5096533    0.2923845 -74.12   0.00275032    2.828    0.646
         5 -10.2486    102.8242    238.5657   6.5049483199e+01   1.1856803891e+01    0.3329742    0.1649169 -52.69  0.001097431    2.392    0.582
         6  -8.8887     75.0000    249.9968   7.2409095985e+01   1.2978862532e+01     0.185463    0.1119116 -67.58 0.0007190678    2.145    0.534
         7 -11.5185     76.0976    244.7396   7.1740217645e+01   1.3781570262e+01    0.2248868    0.2064572   8.59 0.0004111821    1.205    0.170
         8 -18.6867     16.0405    215.1875   8.4357576674e+01   2.5598861832e+01      7.34923     4.155398 -82.92   0.03205039    1.909    0.476
         9 -10.4082    192.2913    193.9225   3.9814743714e+01   8.1094954163e+00    0.5828524    0.3125506 -59.87  0.001937026    6.876    0.855
        10 -11.3799     68.9801    193.9336   6.8715359632e+01   2.4836204850e+01    0.3543997    0.2441834  68.35 0.0009499982    1.703    0.413
        11 -10.3122     55.2537    193.8840   7.2505878612e+01   2.6475667924e+01    0.3447002    0.2622094  65.94  0.001477471    1.368    0.269
        12  -8.4671     74.4421    194.4722   6.7282049200e+01   2.4035478997e+01    0.1394803    0.1215458  36.87    3.888e-05    1.031    0.030
        13 -12.1184     71.8222    185.6091   6.6964310735e+01   2.6380080979e+01    0.3509023    0.2635224  48.73 0.0005506088    1.284    0.221
        14  -9.1194    151.6558    185.6839   4.6619241643e+01   1.5010218723e+01    0.1411833   0.09443866  -6.04 0.0007048291    1.716    0.417
        15  -8.9671     78.2266    184.1373   6.4978559891e+01   2.5884738243e+01    0.1948739    0.1751219   8.06 0.0005665579    1.138    0.121
        16 -10.2396    116.0408    182.0356   5.4496004019e+01   2.0984536729e+01    0.2207687    0.1980039  12.93 0.0007521113    1.021    0.020
        17 -11.2912    179.5026    167.9583   3.7645120021e+01   1.4058142167e+01    0.6514902     0.423029 -38.52  0.003603573    1.459    0.315
        18  -9.8455    174.7219    179.9337   4.0767140638e+01   1.2711680939e+01    0.2198881    0.1756338  16.26 0.0006853726    1.168    0.144
        19 -11.4715    172.8282    174.5493   4.0180022807e+01   1.3906699516e+01    0.6021366    0.3730555 -31.40   0.00172216    1.545    0.353
        20 -12.7644    127.3910    229.9309   5.8534031515e+01   1.0415345690e+01    0.8745465    0.3899423  26.30  0.004282044    1.861    0.463
        21  -8.9385     70.4087    238.9510   7.2590152103e+01   1.5446344112e+01    0.1494086     0.120321 -60.27  0.000444877    1.537    0.349
        22  -8.5473     91.6942    176.3384   6.0121665833e+01   2.5808870759e+01    0.1490506    0.1055437  60.04 0.0007041029    1.677    0.404
        23 -10.6534    104.6080    171.9646   5.5876599334e+01   2.4882373953e+01    0.3050936    0.2997042  77.94 0.0008970491    1.137    0.120
        24 -10.1862     99.4946    169.3023   5.6847253585e+01   2.6260517929e+01    0.3296988    0.2462334  49.21  0.001662594    1.398    0.285
        25 -11.9128    233.6026    166.7493   2.8314765520e+01   6.9524666208e+00    0.3566736    0.2707713  43.75  0.002481549    1.841    0.457
        26  -9.9346    110.0372    223.2504   6.1677474914e+01   1.3708454740e+01    0.2043685    0.1906375 -46.77 0.0005036755    1.308    0.236
        27 -10.5061    111.0051    167.2828   5.3358988000e+01   2.4932259993e+01    0.3990275    0.2919074  87.94  0.001858546    2.064    0.515
        28  -9.1037    117.4942    159.0173   5.0137099493e+01   2.5711567626e+01    0.2055053    0.1461262 -53.31 0.0006479385    1.503    0.335
        29  -8.7759    128.2793    158.6893   4.7278517913e+01   2.3991729091e+01    0.1369718    0.1150388  72.93 0.0002083867    1.563    0.360
        30 -11.4662    110.0062    228.1829   6.2263575349e+01   1.2825087900e+01    0.3666162     0.308119   3.67  0.001615156    1.141    0.123
        31  -9.5913    113.7600    152.8868   4.9980062495e+01   2.7700942421e+01    0.4313155    0.2678298 -76.89  0.001426525    2.735    0.634
        32 -10.2876     91.0573    154.0232   5.6689424242e+01   3.1152559121e+01    0.2197533    0.2051824  41.18  0.001197678    1.045    0.043
        33 -11.5654    133.0991    145.2603   4.3382708622e+01   2.6011607805e+01    0.9918743    0.3719379 -54.72  0.001812554    3.394    0.705
        34 -11.6410     88.7859    144.5719   5.5661861816e+01   3.3817044837e+01    0.6765085    0.4659021 -24.02  0.002154683    1.882    0.469
        35 -11.6138     97.4426    227.4577   6.5122855871e+01   1.4472835064e+01     1.138993    0.3636235  32.35  0.004744924    2.387    0.581
        36 -11.0695    108.9353    145.2565   4.9821372799e+01   3.0267109399e+01    0.3115702    0.2995278  14.09  0.000672868    1.009    0.009
        37  -9.9752    147.1665    143.1555   3.9559585993e+01   2.3943878183e+01    0.1926834     0.175523  74.94  0.001073234    1.356    0.262
        38 -10.0290     99.1932    140.0378   5.1605344249e+01   3.3178014570e+01    0.2632971     0.215904  35.13  0.000459561    1.174    0.148
        39  -9.8045    108.2959    137.4761   4.8401622554e+01   3.2184490158e+01    0.2774739    0.2302668 -43.61 0.0006270907    1.233    0.189
        40  -9.3813    127.0958    137.1135   4.3177710794e+01   2.8846178501e+01    0.2145581    0.2111535  -2.43 0.0003862148    1.043    0.041
        41  -9.4852     24.9112    137.0999   7.6434381066e+01   4.4040199018e+01    0.3727345    0.1595004  33.19  0.001492714    2.115    0.527
        42 -11.5929    104.6965    131.5486   4.8177233895e+01   3.4222471235e+01    0.6393255     0.454237 -16.48  0.001621778    1.901    0.474
        43 -11.3719     90.4253    131.5517   5.2561514130e+01   3.6752899437e+01    0.3582856    0.2765439 -44.14 0.0002075554    1.349    0.259
        44 -10.6951     43.5793    130.6459   6.8725697328e+01   4.3882877904e+01    0.4448134    0.3526716 -54.26  0.001458767    1.284    0.221
        45  -9.1957     39.0504    128.1446   7.0059763075e+01   4.5076663514e+01    0.3638605    0.1556375  40.66  0.001039152    2.229    0.551
        46 -11.1388    135.8272    127.0507   3.8707555087e+01   2.9353877075e+01    0.7208366    0.2146674 -52.78   0.00194448    4.711    0.788
        47  -9.3608    160.7950    127.7887   3.3195648324e+01   2.4468249845e+01    0.1940561    0.1729236 -77.56    0.0010855    1.370    0.270
        48  -8.9597     71.3786    232.3685   7.1816638200e+01   1.6570958445e+01    0.1707715    0.1319406 -10.67 0.0005536094    1.533    0.348
        49 -10.4567    112.0359    125.6417   4.4711288920e+01   3.4232439387e+01    0.3906349    0.3056378 -16.23  0.001039599    1.549    0.354
        50  -9.4032     80.1001    126.7914   5.4949759535e+01   3.9693389940e+01     0.290631    0.2151681  81.91  0.001290562    1.735    0.424
        51 -10.2594     45.8718    123.9076   6.6803921961e+01   4.5436799125e+01    0.4369394    0.3217125   8.26  0.002070879    1.527    0.345
        52 -11.1069    116.6650    121.4649   4.2423828974e+01   3.4290168543e+01     0.350583    0.2835153  52.81  0.001445081    1.298    0.230
        53 -10.3510     98.9133    121.1151   4.7574706350e+01   3.7767815763e+01     0.315125    0.2576246   7.08 0.0008311136    1.426    0.299
        54  -9.0307     76.4634    120.5014   5.4860950967e+01   4.1900593236e+01    0.1550428    0.1500288  54.19 2.064063e-05    1.023    0.023
        55  -9.1867    101.2400    222.0500   6.3618908192e+01   1.5015837532e+01    0.2141857    0.1652481 -36.04 0.0007802477    1.477    0.323
        56 -14.5107     70.1705    148.3233   6.2239961528e+01   3.5722279430e+01     2.952497     1.743819 -85.88   0.01177719    2.349    0.574
        57  -9.9050    107.9275    116.0154   4.3616974997e+01   3.7240243221e+01    0.2261011    0.2246512  13.99 0.0003197119    1.010    0.010
        58  -9.4843    243.6470    114.3124   1.7289992844e+01   1.2915263643e+01    0.1129306   0.07725279 -56.24 0.0007045166    1.729    0.422
        59 -10.5018     40.8792    113.3933   6.6997269839e+01   4.8894504250e+01    0.4475574    0.2382586  32.54 0.0009595708    1.801    0.445
        60  -9.6091     94.3092    110.1429   4.6381664280e+01   4.1266546590e+01    0.3081312    0.2384706  66.77   0.00092407    1.531    0.347
        61 -11.3121    116.2240    109.0023   3.9460479395e+01   3.7157647715e+01    0.5100836    0.2399448  42.94  0.001922562    2.112    0.527
        62 -10.2624    134.5131    105.4993   3.3762753943e+01   3.4092994326e+01    0.4279866    0.1416454 -47.35  0.001362832    3.106    0.678
        63 -11.2187    114.1635    229.2819   6.1435608797e+01   1.2127456347e+01    0.4170049    0.2829078 -41.78  0.002417958    1.683    0.406
        64  -9.7433     63.2070     97.9744   5.4574530150e+01   4.9870586548e+01    0.3571469    0.1715751  53.38  0.001200771    2.812    0.644
        65  -9.5864    194.4954    224.4790   4.4212288500e+01   3.4277768173e+00    0.2150732   0.09994393 -38.47  0.001199461    2.125    0.529
        66 -10.8092     58.3767     93.1580   5.5336268101e+01   5.1879031175e+01      0.37363    0.2292188  51.47  0.001552824    1.836    0.455
        67 -10.1857    102.9991     92.0910   3.8741740533e+01   4.3666098164e+01    0.4941979    0.3088472  77.59  0.001712265    3.058    0.673
        68 -11.7823    160.5630    223.3266   5.0570260765e+01   7.4776741706e+00    0.4037627    0.2354071  13.01  0.002268994    1.601    0.375
        69 -10.4415    175.0065    223.0602   4.7654881367e+01   5.8171712726e+00    0.1877197    0.1457465  -0.29 0.0006858914    1.028    0.027
        70  -8.9080    194.3489    218.7196   4.3379875770e+01   4.2395710964e+00    0.1510516   0.08964794 -26.62 0.0007754338    1.526    0.345
        71  -9.6412     97.6233     84.5531   3.8200581730e+01   4.6469181576e+01    0.3214252    0.2489894  82.90  0.001209761    1.661    0.398
        72 -11.0754     52.9445     82.4367   5.4824319932e+01   5.5450523465e+01    0.6427909    0.2579096  46.92  0.002116658    2.982    0.665
        73  -8.6664    117.6011     80.4841   3.1091058652e+01   4.2863623175e+01    0.1515607    0.1439263 -78.69 0.0001354265    1.056    0.053
        74 -10.2131     56.4783     76.5819   5.1510690323e+01   5.6327533541e+01    0.4710275    0.2379043  49.37  0.001223923    2.317    0.568
        75  -8.4647     87.4834     75.4369   3.8721818655e+01   5.0622627408e+01    0.1547315    0.1473825  64.34 0.0002313044    1.052    0.049
        76  -9.3090     81.0988    214.7871   6.7766836353e+01   1.8894339974e+01    0.1976639    0.1510397  41.78  0.000436077    1.196    0.164
        77 -10.9551    106.1700    214.2608   6.1506100123e+01   1.5871293339e+01    0.3625336    0.2912669 -53.39  0.001426743    1.466    0.318
        78 -12.8780    186.6917     64.1291   1.3310829940e+01   3.0085747854e+01     1.559756    0.9406217  36.81   0.00552077    2.466    0.595
        79 -13.4152    203.4041     52.1735   8.4768801808e+00   2.8317837203e+01    0.8997629    0.7533163 -38.81   0.00381904    1.156    0.135
        80 -12.7544    209.4751     47.4597   6.7895303358e+00   2.7726685859e+01    0.5402665    0.4323595 -41.42  0.001478775    1.132    0.117
        81  -9.2077    133.5027     69.4823   2.3872959564e+01   4.1213660822e+01    0.1481851    0.1393364 -80.28 0.0008102747    1.027    0.026
        82  -9.3953     70.0930     67.5856   4.2660868471e+01   5.5923662518e+01    0.2359027    0.2100902 -64.11 0.0003570165    1.214    0.177
        83  -8.7505    165.1867    210.9082   4.7801217245e+01   8.8660609463e+00    0.1509823   0.09058464 -42.05 0.0006295842    1.772    0.436
        84  -9.6232    118.3220    201.3159   5.6836730176e+01   1.6764494099e+01    0.1384227   0.09638634  -8.73 0.0003415354    1.662    0.398
        85  -8.6202    144.0368     61.0136   1.9164851737e+01   4.0138234472e+01    0.1706629    0.1593528 -83.03 0.0003287912    1.017    0.017
        86  -9.6990     63.8355     58.7874   4.2126203347e+01   5.9055545026e+01    0.2209501    0.2012066  19.60 0.0008037202    1.102    0.092
        87  -9.6099     38.4950     53.9690   5.2987149385e+01   6.4485504384e+01    0.2170755    0.1411488 -53.26 0.0005810923    1.560    0.359
        88 -11.4671     20.0860     43.8287   6.0739151768e+01   6.9133770875e+01    0.3152869    0.2675968 -58.26 0.0005877195    1.229    0.186
        89  -9.3291     48.6205     39.1885   4.1252734862e+01   6.5927055418e+01    0.2542295    0.1807505  47.59  0.000893733    1.435    0.303
        90 -10.5531     69.1046    243.6678   7.3264159618e+01   1.4727161316e+01    0.2854606    0.1973906   2.64  0.001708798    1.625    0.385
        91  -9.9656    210.8309    198.7674   3.7352786772e+01   5.1668977733e+00    0.2110019    0.1558068 -10.80 0.0005470206    1.068    0.064
        92  -9.9125     60.6799     21.3915   2.6526235284e+01   6.6396110715e+01    0.2598118    0.2165219  67.05 0.0007209413    1.275    0.216
        93  -9.0414    189.3812     14.7949   6.1238695400e-01   3.5671775084e+01    0.1566252    0.1126487 -22.15 0.0007321839    1.616    0.381
