#   1 NUMBER                 Running object number                                     
#   2 MAG_AUTO               Kron-like elliptical aperture magnitude                    [mag]
#   3 X_IMAGE                Object position along x                                    [pixel]
#   4 Y_IMAGE                Object position along y                                    [pixel]
#   5 X_WORLD                Barycenter position along world x axis                     [deg]
#   6 Y_WORLD                Barycenter position along world y axis                     [deg]
#   7 A_WORLD                Profile RMS along major axis (world units)                 [deg]
#   8 B_WORLD                Profile RMS along minor axis (world units)                 [deg]
#   9 THETA_WORLD            Position angle (CCW/world-x)                               [deg]
#  10 FWHM_WORLD             FWHM assuming a gaussian core                              [deg]
#  11 ELONGATION             A_IMAGE/B_IMAGE                                           
#  12 ELLIPTICITY            1 - B_IMAGE/A_IMAGE                                       
         1 -11.8524    211.2399     31.5899   6.0233783393e+01   2.8331248716e+01    0.7752133    0.4877861 -42.26  0.003734473    1.605    0.377
         2 -10.1750     67.7259     13.1190   8.5466074452e+01   6.2584065111e+01    0.2365903    0.1843155  18.86 0.0004530417    1.150    0.131
         3 -11.7590     67.1719     21.2522   8.8926340383e+01   6.1629649722e+01    0.7320415    0.4688247 -20.72  0.002881175    1.425    0.298
         4  -8.6934     72.9339     17.2262   8.5412043948e+01   6.1265881785e+01    0.8632596    0.5962379 -60.19  0.004346946    3.078    0.675
         5 -12.5514     71.1909     29.9362   9.0912981881e+01   5.9816388904e+01    0.8992946    0.6435795 -10.52  0.003486874    1.323    0.244
         6 -10.8369     40.6629     21.4840   9.8591923912e+01   6.5018231962e+01    0.4787818    0.1397012 -40.25  0.002113902    2.908    0.656
         7 -11.0773     43.1620      4.2208   9.0525875184e+01   6.7050381471e+01    0.3167891    0.2635258   7.69  0.002191292    1.233    0.189
         8 -11.7388     50.3975      9.9427   9.0251711941e+01   6.5431508684e+01    0.3847483    0.2889052  10.40  0.001506083    1.171    0.146
         9 -11.7788     68.0947      4.2944   8.1640402022e+01   6.3532200645e+01    0.6389275    0.3064943  27.31  0.003249077    2.183    0.542
        10 -12.7679     56.5204      2.8612   8.4971205384e+01   6.5431592024e+01    0.6195059    0.3334843  44.69  0.003574837    2.097    0.523
        11 -12.3257     44.1280     16.0560   9.5136557565e+01   6.5401109423e+01     0.884277    0.5217113  48.04  0.004931073    2.807    0.644
        12 -11.9818     29.4657     25.4086   1.0437433128e+02   6.5541257687e+01    0.9360653    0.3769748 -30.37  0.003313526    2.522    0.603
        13 -12.8855    131.7008      3.9471   6.5008454322e+01   5.1047963866e+01     1.426119    0.4117212  56.20  0.005436267    2.713    0.631
        14 -11.9290    130.3949     19.8042   7.0777888575e+01   4.9756889857e+01      1.27196    0.2459594  54.11  0.003924574    3.952    0.747
        15 -11.7607    117.1071     15.2629   7.2223929003e+01   5.3185904484e+01    0.4735032     0.311726  71.12  0.002106334    1.996    0.499
        16 -12.6451    112.3266     22.3303   7.5973728142e+01   5.3397977504e+01    0.7670917    0.6117655 -37.59  0.002218468    1.426    0.299
        17 -13.7979    100.6554      6.4201   7.2989890903e+01   5.7488072496e+01    0.7263684    0.5860152 -36.46  0.001903313    1.496    0.331
        18 -12.0739    112.1810      7.6783   7.0608506012e+01   5.5005672671e+01    0.9663834    0.4135633  61.67  0.004086624    2.633    0.620
        19 -11.0089    168.6021     24.0318   6.4657531135e+01   4.0085436161e+01    0.8199096    0.2396171  48.17  0.002713033    3.214    0.689
        20 -11.5325    147.5089     25.5981   6.9098390975e+01   4.5094400702e+01    0.8207762    0.4879718  28.60  0.003075373    1.995    0.499
        21 -12.4044     92.8868      8.1604   7.5752673483e+01   5.8819689183e+01    0.5291021    0.3682418  39.51  0.002067892    1.287    0.223
        22  -9.6254    242.5006     19.9810   5.3666598294e+01   2.2074112929e+01     0.591516    0.2926369  89.30  0.002526721    2.460    0.594
        23 -11.4655    201.5085     18.4231   5.8065842419e+01   3.2372528234e+01     1.064228    0.4097429  62.45  0.004254975    2.245    0.555
        24 -11.0718    210.7903     13.6140   5.5639159050e+01   3.0565752412e+01    0.4328634    0.3839091 -59.05   0.00217528    1.145    0.127
        25 -11.6225    247.7336     13.4188   5.1662987561e+01   2.1613771355e+01    0.5522869    0.3393565 -16.53  0.001993546    2.241    0.554
        26 -11.6366    221.2840     12.2400   5.4086801112e+01   2.8104961395e+01    0.9396021    0.3350849  71.23  0.003625423    2.662    0.624
        27 -11.0769     30.5608     14.1944   9.9716760928e+01   6.7125827341e+01    0.5452158      0.19039 -31.05   0.00224284    2.818    0.645
        28  -9.5458    159.8187     24.0811   6.6239391520e+01   4.2269683722e+01    0.7156763    0.5232883  23.65  0.002486525    1.549    0.355
        29 -11.1570      9.4900     19.3022   1.1028259536e+02   6.8076640306e+01    0.5081939    0.2495164  10.60  0.003165734    2.396    0.583
        30 -11.5063     25.4961      5.0555   9.8045553264e+01   6.8879323427e+01    0.5941566    0.2512369 -34.22  0.003430712    1.922    0.480
        31 -11.5358     18.9044      5.1520   1.0090416055e+02   6.9467949801e+01    0.4761392    0.3953017 -55.51  0.003573743    2.034    0.508
        32 -11.9821     18.8888     13.3124   1.0418141265e+02   6.8304986678e+01    0.4517698    0.3017594  12.79  0.003075561    1.556    0.357
        33 -12.1920      3.0752     17.5212   1.1235839849e+02   6.8757989451e+01    0.2492283    0.1402176 -33.90  0.000416673    1.325    0.245
        34 -13.2220      4.1605      9.8965   1.0921945213e+02   6.9879081386e+01    0.7621628    0.2879865 -49.55 0.0006723245    2.246    0.555
        35  -9.4260    156.0128     11.0503   6.2832238328e+01   4.4605506741e+01     0.218162    0.1708084 -18.63 0.0004871149    1.423    0.297
        36 -10.1867    155.6186     16.1708   6.4519091630e+01   4.4178715400e+01    0.3621565    0.2173074  19.86  0.001629593    2.210    0.547
        37 -10.7035    146.8895     12.3021   6.4881228921e+01   4.6693707384e+01    0.3347786    0.2430725 -55.49 0.0008015329    1.718    0.418
        38 -10.7392    148.0320     18.3476   6.6635056717e+01   4.5789007560e+01    0.4422317    0.2303706  24.92  0.001766516    2.737    0.635
        39 -10.6895    151.4261     14.7051   6.4816223605e+01   4.5354312382e+01    0.3755079    0.2151059 -41.32  0.001639228    1.989    0.497
        40 -11.4677    129.2084     14.1197   6.9063737423e+01   5.0637022888e+01     1.268381    0.3454873  48.43  0.004542274    2.993    0.666
        41  -9.2743    167.9937      7.9714   5.9917236531e+01   4.1941272354e+01     0.237257    0.1568941 -39.49  0.001050133    1.671    0.402
        42 -10.6607    163.6947      5.5400   5.9855196962e+01   4.3240369359e+01    0.3880524    0.2245484 -28.62  0.001261839    1.898    0.473
        43 -10.8002    170.3035     14.3048   6.1448426955e+01   4.0727874434e+01    0.4705638    0.2366648 -46.36  0.001401434    2.334    0.572
        44 -11.2087    165.2246     11.7039   6.1484601782e+01   4.2264023526e+01     0.424431    0.2967817 -67.91  0.001896513    1.784    0.439
        45  -9.8249    169.2089      4.4113   5.8670256038e+01   4.1974310236e+01    0.2813592    0.1760576  84.62  0.001259938    1.775    0.437
        46 -10.0430    166.3511      1.7077   5.8291864654e+01   4.2930039607e+01    0.2368322    0.1728396  77.11 0.0007716931    1.326    0.246
        47 -11.3657    200.2186      5.3917   5.4779518042e+01   3.4082433952e+01    0.6224139    0.3087588 -40.05  0.002309976    2.082    0.520
        48 -10.1777    193.0826      6.5024   5.5960986598e+01   3.5769806970e+01    0.5096017    0.1704164  51.59  0.001919449    2.760    0.638
        49 -10.6879    186.5773     13.7989   5.8848582816e+01   3.6668998008e+01    0.4544933    0.2323047  64.39  0.001761381    1.723    0.420
        50 -11.1706    188.2115      9.9040   5.7535242166e+01   3.6659160276e+01    0.5297921    0.2934428 -44.78  0.002386609    1.955    0.489
        51 -10.5282    140.9903     10.4136   6.5381961078e+01   4.8284104701e+01    0.3938707    0.2425316 -66.06  0.000890201    2.635    0.620
        52 -11.6035     82.5528      5.9616   7.7826025445e+01   6.0934676887e+01    0.5794588    0.2914544 -30.37  0.001921711    2.020    0.505
        53 -10.8447     77.3666      8.9328   8.0625136079e+01   6.1514530144e+01     0.291705    0.2152564  -4.01 0.0008677691    1.215    0.177
        54  -9.8584     77.4577      4.4944   7.8754031645e+01   6.1970553416e+01    0.2097987    0.1351169  -3.86 0.0006183335    1.508    0.337
        55 -11.8766    231.0447      9.2781   5.2342988318e+01   2.6044291321e+01     0.975177    0.4675992  86.33  0.004220618    2.336    0.572
        56 -12.1788     13.3533      8.7559   1.0477232459e+02   6.9410057808e+01    0.3832749    0.2927415 -24.50 0.0006789879    1.111    0.100
        57 -10.7604    157.5303      4.9671   6.0669337014e+01   4.4812653272e+01    0.4639142    0.2541134 -17.55   0.00193672    2.133    0.531
        58 -10.4608    154.3486      4.6986   6.1113110411e+01   4.5614779805e+01    0.2757141    0.2160991  70.92 0.0009032594    1.227    0.185
        59 -11.1554    207.9111      3.1304   5.3302788089e+01   3.2380830977e+01    0.3919818    0.2360859 -49.85   0.00117343    1.726    0.421
        60  -9.7031    211.6942      3.6769   5.3021415847e+01   3.1384533078e+01    0.2069992    0.1745726  52.89 0.0007325697    1.251    0.200
        61 -11.9354    246.8956      2.6638   4.9360447662e+01   2.3004427508e+01     0.488765    0.2170991  57.56  0.000891705    2.261    0.558
        62 -10.7168    176.4822      4.1722   5.7542566345e+01   4.0176870607e+01    0.4880392    0.1809004  71.17 0.0009194909    2.671    0.626
        63 -11.7053    136.4354     30.5680   7.3097492324e+01   4.7096415624e+01    0.9766938    0.3732466 -23.09  0.003532454    3.184    0.686
        64 -10.6070    224.2961      2.0017   5.1299096657e+01   2.8452571137e+01    0.3070979    0.1652151  65.57  0.001416026    1.651    0.394
        65 -10.1199    191.7857      1.7288   5.4835142518e+01   3.6557970526e+01    0.2631328    0.1698927  80.74 0.0004113016    1.472    0.321
        66  -9.7743    229.8537      1.4340   5.0626063976e+01   2.7164540415e+01    0.1927715    0.1132627  74.71 0.0007099591    1.519    0.342
        67  -9.8568    217.4936      1.4691   5.1859450965e+01   3.0171893452e+01    0.2666466    0.1156275  71.24  0.001172652    2.041    0.510
        68  -9.5985    183.2956      1.3483   5.5813569430e+01   3.8727382245e+01    0.1762327    0.1144048  78.00 0.0003329708    1.453    0.312
        69  -9.9752     36.6692     26.6919   1.0205582100e+02   6.4646898996e+01    0.2047119    0.1614795 -13.55 0.0008785017    1.087    0.080
        70 -12.2517    245.5600    109.2253   7.4476926569e+01   8.3444878825e+00    0.8004016    0.4664183 -36.66  0.003688226    1.623    0.384
        71 -11.6463    240.8594     99.9651   7.3032875871e+01   1.0895398294e+01    0.5360119    0.4201844 -78.61  0.001474612    1.595    0.373
        72 -10.6816     36.9761    109.5723   1.2275884107e+02   4.8619897942e+01    0.3583587    0.1859694  53.33  0.001485465    2.506    0.601
        73 -10.7926     66.4891    109.0035   1.1481719816e+02   4.5491152287e+01    0.3037628    0.1553101 -35.07  0.001299632    2.731    0.634
        74  -9.2619     27.7223    119.3832   1.2661465595e+02   4.7344846832e+01    0.1199903   0.07688829  83.63 0.0007003014    1.718    0.418
        75  -9.5958     73.9583    107.5664   1.1250867162e+02   4.4815261912e+01    0.1867352    0.1312401  35.53  0.001027325    1.603    0.376
        76 -10.5271    230.7116    105.2932   7.5989768415e+01   1.2329316104e+01    0.2791555    0.2581675  11.75  0.001073409    1.135    0.119
        77 -10.8196    133.9389    102.9757   9.5657656737e+01   3.5320032261e+01    0.4011018    0.2075199 -46.76  0.001513156    1.934    0.483
        78 -11.0651     47.7511    102.9214   1.1869048702e+02   4.8981078807e+01    0.4188884    0.1877204 -37.68  0.001802257    2.985    0.665
        79 -10.9690     49.7937     97.8119   1.1712154623e+02   4.9856972649e+01    0.3156513    0.1789775 -32.75  0.001240796    2.225    0.551
        80 -10.2837    184.6354    101.3539   8.3658095740e+01   2.4016030967e+01    0.3745209    0.2422881   5.41  0.001355954    2.838    0.648
        81  -9.0796    105.7300    102.6445   1.0282938448e+02   4.0872208124e+01    0.1435087    0.1086855 -20.34 0.0006995859    1.637    0.389
        82  -9.5426     80.9884    102.0070   1.0936405650e+02   4.5018531568e+01    0.2062604    0.1609168  81.22  0.001122908    1.628    0.386
        83  -9.6182     75.8102    101.8225   1.1074520254e+02   4.5797827276e+01    0.1834162    0.1540559  88.99  0.001077837    1.368    0.269
        84 -11.3571      4.1024     99.6624   1.2979747165e+02   5.3204746601e+01    0.3272221    0.1819275 -63.80  0.001641187    1.322    0.244
        85 -10.8547    177.5508     99.4950   8.4655535063e+01   2.6070000848e+01    0.2739674    0.2325738 -51.40 0.0008334357    1.226    0.184
        86 -11.4204    174.4500     96.3774   8.4488860055e+01   2.7398152917e+01    0.4149725    0.3669977   7.54  0.001476104    1.266    0.210
        87  -9.8912     34.6035     99.0290   1.2156582231e+02   5.1086971102e+01    0.1800946    0.1574279  76.75 0.0006125089    1.296    0.228
        88 -10.4125    226.6313     95.5406   7.4289439638e+01   1.4912800615e+01    0.5377955    0.2417311 -38.02  0.001987651    2.136    0.532
        89 -11.4281    158.4932     96.1802   8.7975882905e+01   3.1217328360e+01    0.4641564     0.373617  79.29  0.002224491    1.498    0.332
        90 -10.7635    193.5211     92.2089   7.9461638348e+01   2.3507572688e+01    0.4412301    0.3002135 -38.30  0.002000692    1.481    0.325
        91 -10.3252    188.4467     93.9948   8.0942301284e+01   2.4433213689e+01    0.3113559    0.2321772  53.30 0.0008327505    1.322    0.243
        92 -10.6826    220.9287     92.2177   7.4430266549e+01   1.6825233289e+01    0.4088679    0.2696989 -72.24  0.001427459    2.221    0.550
        93 -10.7570     33.4232     92.4598   1.2068047905e+02   5.2576070882e+01    0.3115429    0.1873994  37.12  0.001869934    1.994    0.499
        94 -11.0041     37.6732     91.3398   1.1925487619e+02   5.2429651609e+01    0.4056219    0.2282616  51.54  0.002184657    2.408    0.585
        95 -10.5694    213.4345     90.0612   7.5189514170e+01   1.8999362154e+01    0.4851067     0.324767  15.86   0.00143013    2.297    0.565
        96 -11.0443      2.3279     89.4371   1.2881358953e+02   5.5401157674e+01    0.3414589    0.2309331 -66.44  0.002261508    1.106    0.096
        97 -10.6245      2.4939     83.9917   1.2793883507e+02   5.6496537616e+01     0.266268    0.1746848 -80.55 0.0008877321    1.450    0.310
        98 -11.8158      5.4430     79.2772   1.2633096764e+02   5.7284113588e+01    0.7047156    0.2527577 -70.58  0.003405276    2.573    0.611
        99 -11.3627    200.6393     89.7045   7.7434074612e+01   2.2195347617e+01    0.5359029    0.3027633  62.22  0.001770817    1.935    0.483
       100 -10.3426     87.8157     90.0668   1.0455576966e+02   4.6499640685e+01    0.3295325    0.1812552 -49.66 0.0009318009    1.680    0.405
       101 -10.9757     51.8896     87.3177   1.1428344109e+02   5.1841294973e+01    0.5026612    0.3530845  10.73  0.002954699    1.849    0.459
       102 -11.1497     58.2351     84.2793   1.1170626360e+02   5.1751217601e+01    0.4222568    0.2714527 -16.48   0.00157232    2.202    0.546
       103 -11.6152     14.4670     88.3777   1.2529525409e+02   5.4879432380e+01    0.2985383      0.27788 -55.14   0.00240138    1.210    0.174
       104 -10.7878     98.2684     77.3197   9.8116148451e+01   4.7331912431e+01    0.2559877    0.2378207 -69.90  0.001040914    1.228    0.185
       105 -11.0611    106.3574     86.3304   9.8391322592e+01   4.4117060735e+01    0.5456938    0.4397559   6.13  0.002891864    1.478    0.324
       106 -11.0378    102.6511     80.7951   9.7871579817e+01   4.5882051314e+01    0.4182247    0.2885677 -29.83    0.0014058    1.523    0.344
       107 -11.2821     17.8485     81.5093   1.2311012997e+02   5.6056233208e+01      0.24975    0.1997099  -8.24 0.0004701622    1.547    0.354
       108 -10.5914     28.9006     76.9961   1.1890604485e+02   5.6144906211e+01    0.2201852    0.1719781 -64.57 0.0008137105    1.186    0.157
       109 -12.3711     24.4130     82.9916   1.2146463773e+02   5.5276223875e+01    0.6399856    0.3817462 -82.44  0.003590978    2.102    0.524
       110 -11.2333     29.5160     82.0208   1.1976445391e+02   5.5071300817e+01    0.3024841    0.2624472 -43.95  0.001540263    1.126    0.112
       111 -10.2155    242.1953     85.4038   6.9322955146e+01   1.2929651660e+01    0.3199672    0.2274415 -41.86  0.001104109    1.340    0.253
       112 -11.2373    238.8618     82.6436   6.9157619874e+01   1.4138270851e+01    0.6532852    0.3558216 -33.30  0.002859113    1.799    0.444
       113 -10.3767    222.0508     85.0176   7.2422952752e+01   1.7750502056e+01    0.5160947    0.3659744  82.18  0.002372199    1.763    0.433
       114 -11.2371    217.3706     82.6771   7.2614237395e+01   1.9272453164e+01     0.601302    0.3529674 -41.66  0.002037311    1.678    0.404
       115 -10.4927    219.7922     74.4953   7.0113343261e+01   2.0004133100e+01    0.4407661    0.3069888 -25.48  0.001757781    1.565    0.361
       116  -9.4851    223.2986     74.6643   6.9592081431e+01   1.9119153222e+01    0.2311588     0.164266 -73.96 0.0005226005    1.753    0.429
       117 -10.0097    205.4971     86.2335   7.5624028700e+01   2.1594289022e+01    0.2847389    0.1416689 -40.61 0.0009908584    1.992    0.498
       118 -10.2685    146.6327     86.3451   8.8034503612e+01   3.5818467225e+01    0.3084834    0.2191849  10.30  0.001321732    2.016    0.504
       119  -9.9803     42.5555     86.7308   1.1689442535e+02   5.2928711394e+01    0.2412996   0.09133192 -53.47 0.0009274805    2.074    0.518
       120 -10.0741    166.0413     86.0320   8.3492216734e+01   3.1331950568e+01    0.2471372    0.1901616 -78.09 0.0006562382    1.700    0.412
       121 -10.5248    118.9971     86.0927   9.4923463087e+01   4.1760190218e+01    0.3929209     0.197295  38.30  0.001374856    2.161    0.537
       122  -9.6004    187.1229     89.8541   8.0103914485e+01   2.5499886406e+01    0.2360549     0.207422 -73.81  0.000691488    1.258    0.205
       123 -10.8694    248.8011     84.0317   6.8018872724e+01   1.1639256212e+01    0.3272352    0.2589982 -73.11  0.001040814    1.434    0.303
       124 -11.4632    188.6801     80.5630   7.7280231926e+01   2.6739381893e+01    0.5164037    0.4158263 -68.15  0.002450578    1.431    0.301
       125 -10.6384    140.3209     84.4525   8.9025479166e+01   3.7591825669e+01    0.3011163    0.2239396 -65.46  0.001394311    1.699    0.412
       126 -11.1443    154.1932     87.6669   8.6625699498e+01   3.3833170800e+01    0.5070333    0.2720854  53.52  0.001908549    1.902    0.474
       127  -9.7434    229.3227     83.2011   7.0779440220e+01   1.6299656705e+01    0.2268145    0.1860514 -15.66  0.001136664    1.363    0.266
       128  -9.5989    182.0246     83.4796   7.9404353315e+01   2.7885529744e+01    0.2272401    0.1501668  55.59 0.0004393649    1.495    0.331
       129  -9.2291    203.3762     82.2807   7.4970608018e+01   2.2788009973e+01    0.1591354    0.1153617  26.93 0.0007010664    1.708    0.415
       130 -10.7659    192.2373     72.8537   7.4489429580e+01   2.7145204381e+01    0.4413019    0.4300728  13.23  0.002428385    1.074    0.069
       131 -10.2825     41.1989     81.7666   1.1621958799e+02   5.4085117534e+01    0.1749213    0.1182158 -39.55  0.001064184    1.371    0.271
       132 -10.3145    160.6638     80.9012   8.3241368241e+01   3.3550768009e+01    0.4430476    0.2144715  49.13  0.001706143    2.006    0.502
       133 -10.8630    135.4910     79.9999   8.8939540511e+01   3.9490575637e+01    0.3170055    0.2184612 -32.36 0.0008901889    1.498    0.332
       134 -10.9658    138.3343     77.0531   8.7374379982e+01   3.9409042157e+01    0.2697561    0.2118868  48.06 0.0003767229    1.270    0.212
       135  -9.8933    123.9922     80.4923   9.2016424317e+01   4.1835546773e+01    0.2118121    0.1237216  23.96 0.0008102882    2.557    0.609
       136 -10.0222     63.3112     79.6334   1.0904304916e+02   5.2085773101e+01    0.2911213    0.2180509 -89.44  0.001601271    1.969    0.492
       137 -10.0844     58.4716     77.0383   1.0985323429e+02   5.3198562089e+01    0.2040762    0.1695646  -8.42 0.0007052894    1.330    0.248
       138 -10.9928    176.0365     76.1329   7.8586544472e+01   3.0643258916e+01    0.8762577    0.4028674 -56.23   0.00267807    3.743    0.733
       139 -10.1325    170.5233     70.4768   7.8118826298e+01   3.2966999480e+01    0.3143024    0.2000303  61.84  0.001109414    1.648    0.393
       140 -10.8637    167.6918     76.6672   8.0493167897e+01   3.2603055424e+01    0.6586661    0.3744763  72.95   0.00237626    2.720    0.632
       141 -11.4277     68.1590     75.7912   1.0657368482e+02   5.2234930096e+01    0.4421161    0.2893119 -54.12  0.001469268    1.456    0.313
       142 -11.9104     59.0557     69.5802   1.0771579055e+02   5.4607894692e+01    0.4507689    0.3750526  14.07  0.001321275    1.336    0.251
       143 -10.7427     52.0134     71.1231   1.1033911897e+02   5.5117643542e+01    0.2879702    0.2213788  17.61  0.001605537    1.501    0.334
       144  -9.5833     43.7663     78.1998   1.1463412791e+02   5.4562896248e+01    0.1684394    0.1221465 -34.81  0.001051965    1.323    0.244
       145 -10.0273    238.0750     76.1769   6.7697091835e+01   1.5337404757e+01    0.2549954    0.2091332 -33.42 0.0009058957    1.208    0.172
       146 -10.4050    234.1878     72.8438   6.7455386796e+01   1.6776182356e+01    0.4646433    0.2439761 -39.66  0.001983631    1.811    0.448
       147  -9.7013    197.8723     77.1456   7.4608670897e+01   2.5020288212e+01    0.2365787    0.2091718 -70.98  0.001222173    1.207    0.171
       148 -11.7424     82.0922     74.8423   1.0211893017e+02   5.0446190154e+01    0.2390683    0.2097402 -33.66 0.0002847003    1.027    0.026
       149  -9.7055    144.8152     75.3822   8.5310558267e+01   3.8251846396e+01    0.2198718     0.134675  40.15 0.0006421111    1.683    0.406
       150 -10.9593    125.4580     75.0813   9.0048629027e+01   4.2546134990e+01    0.4960099    0.2262767  50.76  0.001923074    2.326    0.570
       151 -10.3933     47.0377     68.3297   1.1119231917e+02   5.6201411983e+01    0.2599483    0.1794925 -47.35  0.001473657    1.201    0.168
       152 -11.3191     35.5792     56.3119   1.1177322799e+02   5.9623611111e+01     0.365452    0.2795084  11.06  0.002509548    1.493    0.330
       153 -11.9589     42.8372     49.7391   1.0740826567e+02   6.0135965111e+01    0.5364046    0.2368298  28.40  0.002159299    2.604    0.616
       154 -10.7813     38.2211     43.7365   1.0719880712e+02   6.1662339979e+01     0.388598    0.2894003 -74.79  0.002354141    2.201    0.546
       155 -11.2117     31.7706     42.9375   1.0926928782e+02   6.2400907311e+01    0.3063124    0.2805505  37.31  0.002069939    1.485    0.327
       156 -11.7879     21.3862     71.5104   1.2005785206e+02   5.7822065592e+01    0.7079302    0.4264559 -14.23  0.004240348    2.212    0.548
       157 -10.6779     26.9559     64.7300   1.1677024463e+02   5.8739418241e+01    0.4802043    0.2054073 -31.71  0.002236436    2.957    0.662
       158 -10.7796     42.2128     68.9795   1.1289638817e+02   5.6560833929e+01    0.3514746    0.2637445  37.99  0.001677388    1.630    0.387
       159 -12.0478     35.6275     62.8291   1.1347219402e+02   5.8377862644e+01    0.6587027    0.4304127  41.30  0.004080938    1.977    0.494
       160 -11.6193    224.1013     45.3068   6.2002955373e+01   2.3291130484e+01     0.825597    0.6269199 -51.73  0.002954278    1.302    0.232
       161 -10.7324    233.2328     45.7321   6.0889075014e+01   2.0990356278e+01    0.5969318    0.4058748 -45.72  0.002181278    1.422    0.297
       162 -10.4573    250.1492     73.8405   6.5411024115e+01   1.2900216027e+01    0.2520822    0.1915489 -38.36 0.0004141686    1.243    0.196
       163 -11.5042    250.2553     67.3081   6.3850943103e+01   1.3856827280e+01    0.7422667    0.2124802 -30.03  0.002281347    4.019    0.751
       164 -12.3000    246.5672     56.6934   6.1816170407e+01   1.6263150608e+01    0.9313697    0.5355288 -72.18  0.002374949    2.416    0.586
       165 -11.5651    235.3350     56.3252   6.3214261215e+01   1.8981316648e+01     0.622131    0.3729416  56.70  0.002203478    1.665    0.399
       166 -10.8953    238.1365     51.8274   6.1739304289e+01   1.8953347293e+01    0.3054803    0.2825911 -81.79  0.001171194    1.024    0.023
       167 -10.5936    214.7190     71.7987   7.0247682293e+01   2.1685183089e+01    0.3938032    0.2828823  22.20  0.001595643    1.871    0.466
       168 -11.6330    115.9943     69.6816   9.0929309602e+01   4.5464109349e+01    0.5163288    0.2978857 -33.93   0.00232566    1.755    0.430
       169  -9.8142    207.0961     61.1818   6.8706712854e+01   2.5247291230e+01    0.2468067    0.2074171 -19.61 0.0009603095    1.320    0.242
       170 -10.2908    206.6847     70.4882   7.1256547266e+01   2.3897783535e+01     0.355121    0.2358547 -48.06  0.001385742    1.559    0.359
       171 -10.7772    205.2142     65.4247   7.0156467082e+01   2.5066966867e+01    0.3621872    0.3069322 -83.08 0.0009906011    1.269    0.212
       172 -11.0822    202.8592     71.6789   7.2240057812e+01   2.4666309702e+01    0.4167424    0.2756465 -54.22 0.0005593796    1.682    0.406
       173 -10.3215    198.5221     70.6767   7.2741827438e+01   2.5918707447e+01    0.2519778    0.2391305  62.42 0.0005872139    1.031    0.030
       174  -9.1039     98.2992     72.2610   9.6632783917e+01   4.8295903559e+01    0.1340272    0.1038549  -2.41 0.0003251878    1.510    0.338
       175 -12.0648    125.3764     69.6172   8.8427199637e+01   4.3556198883e+01    0.6100889    0.3904792  60.48  0.002743281    1.912    0.477
       176 -10.7883    102.5626     70.3125   9.4836075291e+01   4.7902245364e+01    0.3245547    0.1986806 -54.60  0.001492989    1.936    0.484
       177 -10.6372     32.7321     69.8352   1.1611826561e+02   5.7260651376e+01    0.3861526    0.1646949 -45.09  0.001985498    1.928    0.481
       178 -10.1870    226.4245     68.6307   6.7574246889e+01   1.9300455101e+01    0.4519815    0.1320155 -34.86  0.001452968    3.240    0.691
       179 -10.4574    153.0063     44.6988   7.4064396014e+01   4.1278595006e+01    0.4293155    0.3223628   9.37  0.001725381    1.600    0.375
       180 -10.9990    162.8059     67.4146   7.8866203503e+01   3.5373430039e+01     1.007948    0.3831173 -49.91  0.003016935    3.855    0.741
       181 -11.9179    160.1433     49.9857   7.4200902996e+01   3.8771270725e+01    0.9547094    0.5502385 -39.33  0.004208547    1.809    0.447
       182 -10.7634    165.7029     62.4284   7.6780058046e+01   3.5480051818e+01    0.4191099    0.3076547  53.36  0.001417143    1.310    0.237
       183 -11.4942    166.4361     55.8275   7.4668084191e+01   3.6336933537e+01     0.649139    0.5117973 -46.22  0.003281084    1.350    0.259
       184 -10.5896     77.4467     69.8283   1.0208798114e+02   5.2109352611e+01    0.4642462    0.1856926  32.39  0.001882548    2.991    0.666
       185 -10.7004    180.1889     68.8818   7.5699801691e+01   3.0825747102e+01    0.6054667    0.2155928  55.86   0.00197102    2.717    0.632
       186 -10.4785    139.3754     68.1592   8.4464953090e+01   4.0761150200e+01    0.4087956    0.2601936  29.02  0.001772839    1.894    0.472
       187 -10.4703    133.0126     67.8629   8.5945226643e+01   4.2227075699e+01    0.3576088     0.347068  50.21  0.001899019    1.084    0.078
       188 -11.8612    151.6788     66.6573   8.1111373069e+01   3.8174126242e+01    0.5630932    0.2561422  48.94  0.002161061    2.109    0.526
       189 -11.9083    148.5063     64.5160   8.1194036153e+01   3.9280520321e+01    0.6389496    0.4524148 -70.01   0.00282139    2.044    0.511
       190 -10.9420      7.1609     71.8312   1.2449964564e+02   5.8674427825e+01    0.2734992    0.1972707 -69.45  0.001977322    1.237    0.192
       191  -9.7776    189.9934     65.0270   7.2743402650e+01   2.8977346238e+01    0.2437284     0.178941  26.88  0.001045828    1.658    0.397
       192 -11.0092     10.8392     63.3250   1.2166548491e+02   6.0130426590e+01     0.390421    0.1452446 -58.05  0.002081235    1.947    0.486
       193 -12.7427     19.5422     58.4912   1.1772899451e+02   6.0496672260e+01    0.4634386     0.271366 -33.41  0.002667303    1.611    0.379
       194 -10.3524     12.2886     56.3403   1.1965232470e+02   6.1385402855e+01     0.253874    0.1818363  36.59  0.001812603    1.852    0.460
       195  -9.7102    234.2187     63.7204   6.5194290056e+01   1.8159445212e+01    0.1919054    0.1686129  20.22 0.0008956851    1.356    0.262
       196  -9.6862    185.5343     64.4872   7.3425190796e+01   3.0190524066e+01    0.2095286    0.2054958  80.70 0.0007009931    1.021    0.021
       197 -10.4009    185.3988     61.1887   7.2519619706e+01   3.0744328581e+01    0.3330608    0.1964199 -46.89 0.0009431756    1.823    0.451
       198 -10.0020     54.1149     63.1982   1.0753390325e+02   5.6419752679e+01    0.3137248     0.165955 -58.87  0.001549406    2.117    0.528
       199 -10.5501     57.2692     59.9625   1.0558422356e+02   5.6660852951e+01    0.2780297    0.2122523  23.11  0.001752021    1.453    0.312
       200 -11.1603    221.4697     56.3802   6.5201046110e+01   2.2365781011e+01    0.6004179     0.414783 -86.98  0.001929091    1.735    0.424
       201 -10.5960    215.6365     60.1079   6.7052637159e+01   2.3264718798e+01    0.4744086    0.2322743  61.23  0.001928453    2.012    0.503
       202 -10.9666    212.4621     54.9568   6.6196789222e+01   2.4826315271e+01     0.693761    0.3398024 -63.27  0.002284039    3.566    0.720
       203 -10.1368    195.5373     47.2949   6.6836744636e+01   3.0228316487e+01     0.380719    0.2754389 -11.47  0.001819281    1.722    0.419
       204 -11.1202    200.0525     58.8034   6.9244025783e+01   2.7391609130e+01    0.6452829    0.3917002 -76.08  0.002490754    2.585    0.613
       205 -10.2609    202.4481     53.5770   6.7423084541e+01   2.7562359846e+01    0.6391543    0.1365024 -32.38  0.001744892    4.613    0.783
       206 -10.2932    200.6973     45.7536   6.5576796051e+01   2.9128050542e+01    0.4748991    0.1633787 -31.94  0.001647885    2.958    0.662
       207 -11.7394    206.3533     43.3473   6.4049563751e+01   2.8021177359e+01    0.6224416    0.5394523  37.11  0.003421886    1.267    0.211
       208 -11.0208    178.1945     59.9334   7.3532059396e+01   3.2759913590e+01    0.5408003    0.3834969   6.37    0.0016146    1.966    0.491
       209 -12.3226    185.2558     48.1275   6.8829406372e+01   3.2734080885e+01    0.8354384    0.6406196  25.01   0.00412728    1.549    0.354
       210 -11.1001    171.4833     50.0509   7.1942810690e+01   3.5943581682e+01     0.554593    0.1929131 -37.65   0.00191742    2.866    0.651
       211 -11.7287    180.7087     38.6781   6.6902312103e+01   3.5196933845e+01    0.6505018    0.3736703 -67.68  0.002509936    2.735    0.634
       212 -10.0602    186.9872     38.2533   6.5713673058e+01   3.3651750148e+01    0.3169599    0.1975447  57.16  0.001266034    1.480    0.324
       213 -10.5005    174.2433     57.3711   7.3559322883e+01   3.4150670583e+01    0.4170938    0.2801081 -13.81  0.001022696    1.881    0.469
       214 -11.0246    175.6474     52.9313   7.1988770316e+01   3.4470147490e+01    0.3040774    0.2803068  68.93 0.0007488702    1.070    0.065
       215 -10.4775    175.5454     49.4613   7.0991048438e+01   3.5006631972e+01    0.2721815    0.2248736  73.16  0.000101433    1.244    0.196
       216  -9.8186     78.8479     60.7038   9.8933772548e+01   5.3608537186e+01    0.3111544    0.1879981  53.32  0.001167062    2.331    0.571
       217 -10.0538     85.2783     59.2682   9.6510217981e+01   5.2868242587e+01    0.2608068    0.1881576 -15.14  0.001410956    1.508    0.337
       218 -10.1092    191.7508     58.6457   7.0645730547e+01   2.9524850701e+01    0.3160714     0.258867  77.39  0.001607511    1.272    0.214
       219  -9.8474    138.5078     58.9810   8.1847486728e+01   4.2502090057e+01    0.2886511    0.1914793  35.66  0.001339276    1.574    0.365
       220 -11.2979     67.2587     61.8500   1.0292218140e+02   5.5043499678e+01    0.2756258    0.2340716 -12.14 0.0008314455    1.149    0.130
       221 -10.4517      3.5596     57.6095   1.2282969430e+02   6.1640384839e+01    0.2869295    0.1862024  85.04  0.001785268    2.363    0.577
       222 -10.3536    134.7041     51.9070   8.0523387746e+01   4.4487293928e+01    0.4138303    0.2541893  27.42  0.001801238    1.991    0.498
       223 -11.5333    141.1010     51.1052   7.8746451755e+01   4.3151770352e+01    0.4643375    0.3446439  32.25  0.001275945    1.385    0.278
       224 -10.9064    146.1229     48.0863   7.6638027099e+01   4.2432092438e+01    0.4235297     0.288441  60.76  0.001239497    1.525    0.344
       225 -11.6955    150.2030     52.1032   7.6990115505e+01   4.0861261547e+01    0.6827955    0.4679483   2.31  0.003052479    1.980    0.495
       226 -10.7091    115.6938     50.6578   8.4959997967e+01   4.8766063813e+01    0.4317073    0.3118927   5.06  0.002164071    1.647    0.393
       227 -10.6348    123.0956     54.5687   8.4292061450e+01   4.6601747467e+01    0.2506711    0.2357187  61.67  0.000771591    1.196    0.164
       228 -11.4052    119.6161     53.7926   8.4948549952e+01   4.7456948746e+01    0.5655746    0.2947125 -47.05  0.002385656    2.238    0.553
       229 -10.9286     99.7793     54.2151   9.0570003096e+01   5.1260847938e+01     0.295411    0.2043632  34.38 0.0006214582    1.468    0.319
       230 -10.4878     71.0848     53.8015   9.9218101286e+01   5.5979210842e+01    0.3103047    0.1755579 -37.54  0.001401743    1.587    0.370
       231 -10.9327     76.3210     51.9013   9.6931942843e+01   5.5549428856e+01    0.3460817    0.2722974 -60.35  0.001499331    1.671    0.402
       232 -11.8565     85.4104     52.6927   9.4353525787e+01   5.3995443989e+01    0.4701125    0.3595648  13.69  0.002704744    1.380    0.276
       233 -10.8695     60.9111     52.6245   1.0216711034e+02   5.7552368711e+01    0.3855028    0.2125947 -51.21  0.001810007    1.859    0.462
       234  -9.8656     55.5284     49.9241   1.0312008940e+02   5.8696067340e+01    0.2399458    0.1576544  35.28  0.001421532    1.743    0.426
       235  -9.1681    128.7717     53.9588   8.2647326803e+01   4.5479341058e+01    0.1812664    0.1176103 -31.63 0.0003398758    1.562    0.360
       236 -10.1391    105.1285     53.6571   8.8857702281e+01   5.0359732333e+01     0.283272    0.2017068  11.13   0.00131439    1.666    0.400
       237 -12.0254     25.5906     52.9368   1.1428267035e+02   6.1098225425e+01    0.2339155    0.1827372 -20.08  0.000555786    1.270    0.213
       238  -9.7995     29.2327     48.9995   1.1194253309e+02   6.1530671615e+01    0.1747333    0.1400643 -35.27 0.0004444621    1.036    0.035
       239  -9.9256      7.0755     48.5560   1.1960932801e+02   6.3154242764e+01     0.185405    0.1231399 -49.43 0.0007373206    1.108    0.097
       240 -10.2103     94.3811     47.9891   9.0074139786e+01   5.3255390139e+01     0.306126     0.193668  40.08  0.001586221    1.607    0.378
       241  -9.8363    129.5235     46.8044   8.0130104388e+01   4.6419680955e+01    0.2068749    0.1388261 -29.39  0.001008272    1.522    0.343
       242 -10.4376     56.4791     45.8175   1.0147992603e+02   5.9297106465e+01     0.390449     0.214568  22.91  0.002073894    2.119    0.528
       243 -10.9056    141.6912     43.5359   7.6181897823e+01   4.4133310255e+01    0.4236102    0.3294542  56.44  0.001720005    1.276    0.216
       244  -9.0911    100.0130     46.0000   8.7749931533e+01   5.2553283406e+01    0.1964411    0.1493122  60.87  0.001048754    1.717    0.418
       245 -10.3147     97.6696     42.5395   8.7235848903e+01   5.3521079772e+01    0.3334193    0.2222627 -31.22  0.001348231    1.445    0.308
       246 -10.0818    100.0131     37.9502   8.4947626477e+01   5.3771924586e+01    0.3321101    0.2431942  -7.85  0.001684425    1.415    0.293
       247 -10.4323    249.6987     43.3774   5.8299843284e+01   1.7393501286e+01    0.3187507    0.1996103  66.72  0.001598211    1.591    0.372
       248  -9.8159    249.8862     39.2065   5.7310743226e+01   1.7909664232e+01    0.2724067    0.1585908 -51.80 0.0008374094    1.659    0.397
       249 -10.7238    118.4013     41.9503   8.1320151479e+01   4.9531464591e+01    0.4582292    0.2711152 -38.93  0.002036664    1.767    0.434
       250  -9.8081    106.7333     43.5637   8.5010710461e+01   5.1652373163e+01    0.2739415    0.2074331 -59.22  0.001428314    1.836    0.455
       251  -9.9811     67.1214     43.6021   9.7152789952e+01   5.8279426670e+01    0.2036934     0.152794 -42.80 0.0006830609    1.349    0.259
       252  -9.9004    213.8317     42.5743   6.2742186210e+01   2.6234011671e+01    0.2647206    0.2139921  29.90  0.001005657    1.481    0.325
       253 -10.8546     87.3459     41.1181   8.9822134695e+01   5.5558732819e+01    0.3431033     0.268431 -55.00  0.001957557    1.699    0.411
       254  -9.6558     22.6151     43.2124   1.1266400131e+02   6.3104502293e+01    0.2596098    0.1399647 -48.78  0.001557013    1.451    0.311
       255  -9.5839      9.3621     42.3079   1.1722950106e+02   6.4164714700e+01    0.2213245   0.09154581 -43.97 0.0008694012    1.776    0.437
       256 -11.1715     15.8404     39.7264   1.1415115439e+02   6.4213145779e+01    0.4864718    0.3295161 -10.57  0.003429087    1.572    0.364
       257  -9.8248    191.6095     27.1842   6.1858252513e+01   3.3871107123e+01    0.3860138    0.2207045  -7.77   0.00159661    2.632    0.620
       258 -10.7217    194.6377     39.0504   6.4694257118e+01   3.1590114588e+01     0.572944    0.3594202 -62.69   0.00254182    1.973    0.493
       259 -10.8013    194.6820     31.0915   6.2479908347e+01   3.2606221471e+01     0.542711    0.2556112 -27.78  0.002108974    2.322    0.569
       260  -9.8053    161.2558     41.3429   7.1321553129e+01   3.9729608321e+01    0.2458673    0.1972342  47.74 0.0009631061    1.170    0.145
       261  -9.8280    161.8464     37.4893   7.0017295774e+01   4.0103157461e+01    0.2279807    0.1963727 -46.15  0.000874906    1.260    0.206
       262  -9.3072     76.8643     40.8473   9.3014972571e+01   5.7296834156e+01    0.1553147    0.1515497 -28.70 0.0005511029    1.306    0.234
       263  -9.1633    242.5359     40.4327   5.8450274661e+01   1.9474315986e+01    0.1411043     0.118798 -70.76 0.0002553238    1.116    0.104
       264  -9.7393    130.3118     40.0862   7.7709385776e+01   4.7219153926e+01    0.1870848    0.1742846  -3.41 0.0004565024    1.072    0.067
       265  -9.7321    173.3529     38.8245   6.8253155361e+01   3.7043620109e+01    0.2518445    0.1828143  70.57 0.0005408426    1.404    0.288
       266  -9.5392    142.5810     38.5079   7.4350959883e+01   4.4625890969e+01    0.2013003    0.1297774 -38.45 0.0005437073    1.653    0.395
       267 -11.5174    147.5102     34.9475   7.2128396174e+01   4.3932070517e+01    0.7611669    0.3277536  60.05  0.002955021    2.340    0.573
       268 -10.4415     46.0182     36.7728   1.0212977068e+02   6.2039179792e+01    0.3981377    0.1478689 -38.87  0.001608244    2.303    0.566
       269 -11.6198     54.7919     36.8490   9.9034603535e+01   6.1000539407e+01    0.6884854    0.3909194  40.80  0.003840484    2.137    0.532
       270 -10.8921     55.0351     29.9477   9.6472293723e+01   6.2053641976e+01    0.2259198    0.1827922   8.81 0.0003319419    1.190    0.160
       271  -9.9769     51.4451     30.5113   9.7963855078e+01   6.2411852090e+01    0.2312642    0.1491397 -23.61  0.000757659    1.377    0.274
       272 -10.9126    201.8357     36.4419   6.2868798535e+01   3.0095915260e+01    0.4517108     0.320168 -67.16  0.002216924    1.597    0.374
       273 -11.0938    123.5426     35.4693   7.7798646909e+01   4.9345579647e+01    0.5218356    0.4374999 -63.08  0.002902369    1.553    0.356
       274 -10.2950    109.8427     36.9150   8.1847354165e+01   5.2010125070e+01    0.4135785    0.1818709 -35.15  0.001329623    2.269    0.559
       275 -10.4844    222.0489     36.4574   6.0038375914e+01   2.4992452414e+01    0.3355467    0.2360141  61.22   0.00133765    1.362    0.266
       276  -9.7396    201.2181     25.2426   5.9932533376e+01   3.1654225768e+01    0.2392189    0.1802716 -44.69 0.0006156481    1.375    0.273
       277 -10.0076     38.3394    240.6842   1.3616034114e+02   2.2160790506e+01    0.1124829   0.05445066  68.59 0.0007048106    1.703    0.413
       278 -11.3701    217.5836     29.0049   5.8726002512e+01   2.7059612222e+01    0.4524469    0.3083009 -62.92  0.001749214    1.561    0.359
       279  -9.8226    204.0890     29.1107   6.0568261008e+01   3.0453848442e+01    0.2910942     0.237345  46.98  0.001596363    1.274    0.215
       280 -10.9169     15.5037    239.6460   1.3946409377e+02   2.4841170054e+01    0.2800493   0.08626452  56.08  0.001609882    2.448    0.592
       281 -10.3046     53.7210    237.7776   1.3358952611e+02   2.0799339790e+01    0.1718928   0.05579378  50.92 0.0008905115    2.385    0.581
       282  -9.7163     12.8023    232.3959   1.3947091963e+02   2.6349888556e+01    0.1172002   0.08531329  46.24 0.0009535008    1.656    0.396
       283 -11.2082     81.1451     33.3689   8.8966836722e+01   5.7754764136e+01    0.7298564    0.4970755  49.16  0.002599289    1.766    0.434
       284  -9.4620    110.4914    224.4979   1.2274349830e+02   1.5006685060e+01    0.1224515   0.09814633  64.14 0.0008106005    1.012    0.012
       285 -10.9054     61.7764     31.3849   9.4638267781e+01   6.0950127036e+01    0.2227953    0.1783976   5.08 0.0006202729    1.157    0.136
       286 -11.5927     65.9925     30.4917   9.2863837971e+01   6.0496612041e+01    0.3270904    0.2774993 -15.75  0.001423896    1.086    0.079
       287 -10.5369     88.7182     33.7039   8.6747921571e+01   5.6428913638e+01    0.3052025    0.2388683  15.64   0.00180359    1.215    0.177
       288 -10.5061     93.8029     31.2692   8.4339542290e+01   5.5867178345e+01    0.4381923    0.1916045  53.30  0.001824418    2.844    0.648
       289 -10.7797     51.2315     24.9699   9.5978505315e+01   6.3274622142e+01    0.8275289    0.2478256  27.73  0.002851593    5.457    0.817
       290 -10.0001     52.5036    224.4817   1.3276899102e+02   2.3292278148e+01    0.1108654   0.08182871  74.86  0.000101335    1.010    0.010
       291  -9.6809    126.4924    216.4756   1.1882648824e+02   1.3768606534e+01    0.1939138    0.1164751 -73.70 0.0006656064    2.090    0.522
       292 -10.4834     26.1660    212.6514   1.3620441533e+02   2.8489346835e+01    0.2228004    0.1414416 -69.85  0.001605758    1.561    0.359
       293 -10.0103    248.3189    203.3233   9.4063775220e+01  -6.4244453590e+00    0.1327297   0.08551779  12.43 0.0007044657    1.672    0.402
       294 -10.0912    245.4863    187.4653   9.1527495286e+01  -3.7843473012e+00     0.132703    0.1122467  13.99 0.0005333576    1.024    0.024
       295  -9.6339     37.3804    179.6139   1.3154282229e+02   3.3698476048e+01    0.1841844    0.1127761  24.94  0.001074577    2.541    0.606
       296 -10.3514     55.2936     17.5040   9.1581422807e+01   6.3805419948e+01    0.2125432     0.163484 -17.54  0.000803737    1.101    0.091
       297 -10.2514     24.5490     34.0259   1.0917231734e+02   6.4553078855e+01    0.2365708    0.1462743 -56.96  0.001477377    1.783    0.439
       298 -11.5282    245.8110    177.4638   8.9478536137e+01  -2.4179093339e+00    0.2590499    0.2321054   3.31 0.0008966206    1.057    0.054
       299 -11.4022    236.6163     32.2564   5.7197804686e+01   2.1963704057e+01    0.9413663    0.2906285  68.01  0.003283973    3.278    0.695
       300 -11.6327    229.6056     29.0370   5.7245337355e+01   2.4076391850e+01    0.6286933    0.4616933 -84.26  0.003387007    1.371    0.271
       301 -11.5704    247.1108    171.9747   8.8131795660e+01  -1.8589478078e+00    0.3183466     0.179731 -43.32  0.001522204    2.027    0.507
       302 -11.0233     13.8508    165.0128   1.3471048259e+02   3.8958418285e+01    0.2208726     0.135554  56.38  0.001373692    1.593    0.372
       303 -11.2890    249.3062    162.1234   8.5698476103e+01  -8.0959007333e-01    0.3753217    0.2039359 -37.08  0.001501633    1.841    0.457
       304 -12.2986    109.3203     29.6863   7.9418954816e+01   5.3097365583e+01    0.6649029    0.3039016  58.48  0.001658585    2.763    0.638
       305 -10.8226    249.5746    155.5934   8.4263012282e+01   1.2876825910e-01    0.2983456    0.2301091 -38.62  0.001073348    1.354    0.261
       306  -9.9250      2.5340    161.4242   1.3656819114e+02   4.0609083487e+01    0.1835762    0.1166692 -56.43  0.001289534    1.717    0.418
       307 -10.2943     77.0031    156.0031   1.2045859819e+02   3.3771317931e+01    0.2721692    0.1338875  74.56 0.0009558328    4.107    0.757
       308  -9.5609     12.5919     34.0964   1.1374348272e+02   6.5414949042e+01     0.159697    0.1319957  14.08 0.0009640618    1.474    0.321
       309 -11.1618    181.8163     28.1543   6.3664547523e+01   3.6252306016e+01     0.753386    0.4827873 -82.73  0.002952844    2.066    0.516
       310 -10.2668    178.7332     30.8753   6.4964775258e+01   3.6703017372e+01    0.4024962    0.1603484  57.68  0.001516615    2.200    0.545
       311  -9.2632    164.5633     33.5681   6.8291473732e+01   3.9937084063e+01    0.1421227    0.1331651  77.62 9.124764e-05    1.097    0.088
       312  -9.7101    160.7403     32.8316   6.8790056710e+01   4.0980934605e+01    0.2169756    0.1788192  35.92 0.0006376853    1.204    0.170
       313 -11.5526    170.7899     30.6039   6.6255734532e+01   3.8747790904e+01    0.6412168     0.302169  72.42  0.002404103    2.615    0.618
       314 -10.7117     33.3299    155.9056   1.2991789925e+02   3.9032206956e+01    0.1718746     0.162763  80.35 0.0002795723    1.304    0.233
       315 -10.7353    153.2565     28.5035   6.8885406551e+01   4.3356669971e+01    0.3621417    0.2391645 -19.07  0.001160093    1.695    0.410
       316 -11.0962    229.5317    153.8513   8.7437521204e+01   4.4352285213e+00    0.3121223    0.2466856 -44.32 0.0007970767    1.380    0.276
       317 -10.4105     16.1036     31.1862   1.1151170377e+02   6.5674273849e+01      0.16801    0.1433814 -40.47 0.0004401267    1.241    0.194
       318 -10.0514    244.8241     25.7897   5.4763701190e+01   2.0818926663e+01    0.3819709    0.2134016  76.78  0.001856591    1.790    0.441
       319  -9.8180    250.3159     29.3309   5.4996380615e+01   1.9090185865e+01    0.2105338    0.1775071 -27.15 0.0006386412    1.347    0.258
       320 -10.3219    247.3324     29.2982   5.5305256570e+01   1.9790543627e+01     0.224168    0.2105615 -78.92 0.0009969539    1.101    0.092
       321 -12.5568     19.4559    148.3500   1.3201248968e+02   4.1908925360e+01    0.6032999    0.3415401 -49.55  0.003669681    2.013    0.503
       322 -10.0776     88.6025     27.7447   8.4578994111e+01   5.7278102890e+01    0.3019864     0.147031 -26.64  0.001423449    2.062    0.515
       323 -10.7985     89.6486     21.5457   8.1914720439e+01   5.7896024880e+01    0.3357081      0.20773   7.10  0.001716524    1.906    0.475
       324 -11.3318      5.4024     26.5695   1.1428948240e+02   6.7140075970e+01    0.3787657    0.2404948   2.25  0.002036495    1.755    0.430
       325 -11.1055     11.8676     25.5114   1.1137684861e+02   6.6912811351e+01    0.4254014    0.1646178 -32.63  0.001912366    2.387    0.581
       326  -9.4134     15.5191     21.4251   1.0853621166e+02   6.7319266062e+01    0.1598855   0.08158342 -43.72 -2.019763e-05    1.516    0.340
       327 -11.6589     98.2919     21.9291   7.9573823543e+01   5.6245920993e+01    0.3004996    0.2353475  26.69 0.0007801572    1.152    0.132
       328  -9.5154    218.1145     22.0593   5.6898061447e+01   2.7770017682e+01    0.2301633    0.1493252 -67.87  0.001127127    1.685    0.406
       329 -11.7856    242.2336    148.0137   8.3887928291e+01   2.7706307650e+00    0.4352486    0.2970182 -43.86  0.002198356    1.572    0.364
       330 -12.6749    235.2832    143.8395   8.4189716072e+01   4.8775808930e+00    0.6933642    0.5311161 -81.90  0.003354378    2.053    0.513
       331 -11.0606     39.1687    146.8406   1.2760411684e+02   4.0366937679e+01    0.2510244     0.222261 -80.86   0.00117913    1.149    0.130
       332 -10.6080     38.4139    143.2429   1.2731937533e+02   4.1215955584e+01    0.2321494    0.1753983 -75.39  0.000571555    1.076    0.071
       333  -9.9169    242.4483     12.9698   5.2067099375e+01   2.2904731637e+01    0.2845407    0.1631108  73.23  0.001458199    1.621    0.383
       334  -9.9869      4.9823    147.2828   1.3489360735e+02   4.3291666795e+01    0.1474815    0.1153762 -86.19 0.0006998166    1.073    0.068
       335  -9.3643    181.7785     22.3642   6.1999502548e+01   3.6944725848e+01    0.1995602    0.1163863  55.99 0.0005511016    1.536    0.349
       336 -11.1565    247.8871    144.9134   8.2230300570e+01   2.1186217249e+00    0.3079016    0.2558813  28.55  0.001654048    1.188    0.158
       337  -9.1254    228.2738     21.3778   5.5533745457e+01   2.5337926155e+01    0.1325574    0.1020609  30.29 0.0007000626    1.696    0.410
       338 -11.8260    245.8297    140.0954   8.1513834906e+01   3.2986739889e+00    0.4059772    0.3064541  45.05  0.001946204    1.352    0.261
       339 -10.6904      6.7763    142.8981   1.3411726662e+02   4.4059517651e+01    0.2777635    0.1424627  55.97  0.001710503    2.085    0.520
       340 -11.4307    212.6503    138.1800   8.7094784263e+01   1.0734895770e+01    0.5138184    0.4102539   7.84  0.002443517    1.449    0.310
       341 -10.3575      2.6625    139.0822   1.3461348491e+02   4.5142937346e+01    0.1591547   0.06786086 -64.55 0.0004725784    1.786    0.440
       342 -10.1932     54.4980    137.0501   1.2276699259e+02   4.0808475550e+01    0.1950067    0.1064528 -66.24  0.000592885    1.585    0.369
       343 -11.4442    236.0367    135.1752   8.2102673144e+01   6.1444538377e+00    0.4077215    0.2775784  21.46  0.001274663    1.794    0.442
       344 -10.3191      4.5271    135.5204   1.3387353790e+02   4.5746188283e+01    0.1838366    0.1060267  30.53  0.001219203    2.202    0.546
       345 -12.4289     13.1452    129.8737   1.3137975395e+02   4.6294130220e+01    0.5895871    0.3108389 -79.51  0.003540979    1.591    0.372
       346 -11.1378    249.7016    132.1867   7.9088217650e+01   3.7638892053e+00    0.3959037    0.2744052 -14.81  0.001966202    1.600    0.375
       347 -10.0679    159.0040     15.2917   6.3641264770e+01   4.3438588658e+01    0.2103433    0.1908807  62.21 0.0003684641    1.050    0.048
       348 -10.9438    242.4714    129.2939   7.9646272824e+01   5.7413012712e+00    0.3557792    0.1887166  45.23  0.001559872    1.917    0.478
       349 -10.8902    224.0428    128.9998   8.2828784708e+01   9.8008408326e+00    0.2669579    0.2128035  46.42 0.0007925815    1.254    0.202
       350 -11.0028    226.6537    125.5294   8.1541481778e+01   9.8144428835e+00    0.3949665    0.2977597 -56.38  0.001067352    1.550    0.355
       351  -9.9392    184.9663     18.1682   6.0314872664e+01   3.6606098689e+01    0.3085719    0.2042016 -79.38  0.001075842    1.836    0.455
       352  -9.8831     72.7029    128.9680   1.1702726121e+02   4.0295553710e+01    0.1852681    0.1555711 -68.21 0.0006558688    1.054    0.052
       353  -9.5490    232.5534     18.0107   5.4251179566e+01   2.4691461556e+01    0.1888783    0.1267046 -35.84 0.0005405687    1.528    0.346
       354  -9.6050     79.4834     15.9671   8.2818879372e+01   6.0348873161e+01    0.2826846    0.1594242 -50.37  0.001091244    3.184    0.686
       355 -11.3032     56.8764    126.0631   1.2044925493e+02   4.2936631994e+01    0.3367406    0.2919569 -28.93  0.002200548    1.425    0.298
       356 -10.8611     25.5019    127.9964   1.2831459547e+02   4.5694565499e+01    0.1801951    0.1613592 -39.96   0.00135051    1.388    0.279
       357 -10.2982     66.4379    124.5052   1.1779056582e+02   4.2104632817e+01     0.288361    0.1823837 -28.47  0.001395933    2.438    0.590
       358 -10.3099     17.6738    122.3194   1.2942817454e+02   4.7540180528e+01    0.2202145   0.09202219 -73.53 0.0006982078    2.027    0.507
       359  -9.5444     19.9727    119.5111   1.2851559376e+02   4.7955614470e+01    0.2137042    0.1430509 -45.42  0.001298443    1.595    0.373
       360 -10.0945    246.9557    121.7162   7.7156133042e+01   6.0191849731e+00    0.1950774    0.1883104   3.28   0.00115092    1.043    0.041
       361 -10.1877     92.5610     15.7990   7.8846517569e+01   5.8051407859e+01    0.2077235    0.1588035  36.57 0.0002008842    1.216    0.178
       362 -10.2920    217.1750    120.1331   8.1991015568e+01   1.2895719712e+01    0.3167756    0.2116333 -21.57  0.001185416    1.727    0.421
       363  -9.9845     28.5209    101.9827   1.2372706085e+02   5.0986195986e+01    0.2975174    0.2088221  79.07   0.00186739    1.703    0.413
       364 -10.8988      5.6301    118.2367   1.3176582002e+02   4.9258782108e+01     0.508187     0.160192 -66.57  0.002549327    2.232    0.552
       365 -10.3932     10.5187     99.8491   1.2815961239e+02   5.2766887175e+01    0.1967476    0.1864296  71.20   0.00108251    1.298    0.229
       366  -9.4631    178.4880     14.5652   6.0251978773e+01   3.8637854670e+01    0.1396167     0.123746  64.08 0.0001156601    1.013    0.012
       367 -10.5779     22.5850    107.7447   1.2620059997e+02   5.0245408421e+01    0.2077867    0.1617633  30.32  0.001118611    1.617    0.381
       368 -12.2712     17.4912    101.9305   1.2664335223e+02   5.1853948771e+01    0.6868882    0.3428518 -73.92  0.003846986    1.793    0.442
       369 -11.8682     22.1453     95.6610   1.2439326864e+02   5.2823175377e+01     0.472251    0.3473453 -49.00  0.003281057    1.228    0.185
       370 -11.4490      8.3824    109.6446   1.3004682792e+02   5.0867694910e+01    0.4103599    0.1522391 -49.26   0.00190191    2.493    0.599
       371 -11.0936     11.9016    104.8789   1.2852067795e+02   5.1627565022e+01    0.2416361    0.1828832 -60.10 0.0009349524    1.119    0.106
       372 -10.1643     13.1683    117.1468   1.2984529509e+02   4.8967467976e+01    0.1712238     0.124571 -58.41 0.0009981546    1.226    0.184
       373  -9.4664     17.6394    116.6702   1.2870301756e+02   4.8737505389e+01    0.1174835   0.06927833 -45.01 0.0007041095    1.797    0.444
       374 -11.5423    237.7597    113.3835   7.6738298495e+01   9.3849644905e+00    0.3598394    0.3193612 -53.33 0.0009254529    1.186    0.157
       375 -11.9811    226.4488    112.6769   7.8515151573e+01   1.2058307240e+01    0.6722983    0.4335583  64.71  0.002884021    1.835    0.455
       376 -11.5035    231.8113    111.6182   7.7327658234e+01   1.1015578192e+01    0.3952091    0.2989462  70.36  0.001416712    1.566    0.362
       377 -11.9202    207.4562    112.4125   8.1935951203e+01   1.6530006806e+01      0.57803    0.3354909 -52.55  0.001575845    2.038    0.509
       378 -11.1571    201.4899    107.9462   8.1969433432e+01   1.8751516109e+01    0.4623495    0.1536248 -35.77  0.001423082    3.130    0.680
       379  -9.4621     97.6795    114.6641   1.0777974897e+02   3.9679544406e+01    0.1410712    0.1081106 -20.23 0.0007049873    1.706    0.414
       380 -11.6821    194.7744    112.6430   8.4478821713e+01   1.9494719455e+01    0.4007076    0.3613918  49.05   0.00209449    1.093    0.085
       381 -10.6109    132.9770    111.5121   9.8067735002e+01   3.3759874662e+01    0.3521056    0.2613806 -29.99  0.001685968    1.520    0.342
       382  -9.8849    245.2004     93.2052   7.0738820862e+01   1.1005072260e+01    0.2357008    0.1897616 -53.34 0.0004534027    1.263    0.208
       383 -10.5976    232.9980     99.0282   7.4083260605e+01   1.2846123396e+01    0.3976915    0.2955095  74.05  0.001716205    1.596    0.373
       384 -11.4876    245.0783     97.0921   7.1683643796e+01   1.0410330900e+01    0.7846564    0.4364157  78.01  0.002921309    3.169    0.684
