#   1 NUMBER                 Running object number                                     
#   2 MAG_AUTO               Kron-like elliptical aperture magnitude                    [mag]
#   3 X_IMAGE                Object position along x                                    [pixel]
#   4 Y_IMAGE                Object position along y                                    [pixel]
#   5 X_WORLD                Barycenter position along world x axis                     [deg]
#   6 Y_WORLD                Barycenter position along world y axis                     [deg]
#   7 A_WORLD                Profile RMS along major axis (world units)                 [deg]
#   8 B_WORLD                Profile RMS along minor axis (world units)                 [deg]
#   9 THETA_WORLD            Position angle (CCW/world-x)                               [deg]
#  10 FWHM_WORLD             FWHM assuming a gaussian core                              [deg]
#  11 ELONGATION             A_IMAGE/B_IMAGE                                           
#  12 ELLIPTICITY            1 - B_IMAGE/A_IMAGE                                       
         1 -14.4582     68.7272    144.1372   9.9628549190e+01   3.7558724913e+01     5.057729     2.297232  62.32   0.01480819    4.659    0.785
         2 -13.0989    198.7415     42.2166   4.2048513272e+01   3.0461289445e+01     1.064936    0.9142395 -65.73  0.003265657    1.055    0.052
         3 -13.6426    208.3316     33.0937   3.8730668178e+01   2.9445730850e+01     1.354593    0.9084816 -18.33  0.001422054    2.064    0.515
         4 -13.0593    232.9589      7.1597   3.0889588397e+01   2.7103670739e+01    0.9356886    0.7519421  72.25  0.006027866    1.377    0.274
         5 -11.8421     51.6354      4.5045   6.0865271258e+01   6.7862795375e+01    0.4551367    0.2831388   7.11  0.002670123    1.658    0.397
         6 -10.9545    184.9039    211.2990   8.3323315874e+01   2.3889317409e+00     0.350161    0.2072549  -0.69  0.001444632    2.810    0.644
         7 -10.5946    140.3666    250.2605   9.8521141969e+01   2.7202198926e+00    0.6033643    0.1365473  39.20  0.002108395    3.520    0.716
         8 -10.6689    139.5928    246.1973   9.8147418423e+01   3.5288070140e+00    0.2665137    0.1579922 -47.27  0.001443623    1.977    0.494
         9 -13.5169     44.0875    196.7778   1.1328490208e+02   2.7708670999e+01     2.022694    0.7874676  58.54  0.003127833    3.003    0.667
        10 -17.3724     13.8740    242.4863   1.2285076691e+02   2.1176513680e+01     6.245202      2.28995  26.51   0.02781722    3.911    0.744
        11 -10.1422     41.5709    208.0524   1.1491512381e+02   2.5414032324e+01    0.4155106    0.2635333  64.40  0.001543093    1.425    0.298
        12  -9.8793     31.0427    202.5041   1.1675525140e+02   2.7872846562e+01    0.3640619    0.2021651  60.71  0.001380737    1.656    0.396
        13 -11.0886    192.9558    194.7653   7.8634787256e+01   4.0122384377e+00    0.9865771    0.5330803 -64.96  0.002966073    5.772    0.827
        14 -16.3843      6.5509    204.6716   1.2214644739e+02   2.9833611916e+01     15.92506     1.170713 -75.79  0.008195596    9.234    0.892
        15 -11.4987    121.9865    198.1039   9.4977211386e+01   1.5830442862e+01    0.4664797    0.3320297 -79.94   0.00226069    1.781    0.438
        16 -10.1466     60.0743    197.6810   1.0964992022e+02   2.5485806695e+01    0.2294351    0.1859465  87.00  0.000318459    1.118    0.106
        17  -8.8192     21.4713    195.9359   1.1834070488e+02   3.0386077679e+01    0.2524171    0.1229801  82.01  0.001215892    2.055    0.513
        18  -8.4175     24.2137    193.4954   1.1752958009e+02   3.0674659775e+01    0.1682182    0.1397359  68.54 0.0006854842    1.101    0.092
        19  -8.8961     64.8923    191.7382   1.0779752511e+02   2.6240046618e+01     0.266318    0.1551561  77.90  0.001203955    2.050    0.512
        20 -10.7258    107.6054    203.8035   9.9237918182e+01   1.6987612414e+01    0.2976328    0.1979361 -64.05  0.001158395    1.612    0.379
        21 -10.4004     43.5173    178.2991   1.1145629688e+02   3.2203900668e+01    0.4948226    0.3489531 -23.40  0.001882408    2.226    0.551
        22 -12.7527     56.1285    185.6718   1.0919663731e+02   2.8859205067e+01    0.8044286    0.7556763  84.07  0.002980708    1.129    0.115
        23 -10.5350    147.7574    187.6830   8.7127536485e+01   1.3503615992e+01    0.4789242    0.3269506 -71.82  0.002006239    2.044    0.511
        24  -9.7858     49.5185    180.5203   1.1021818111e+02   3.0942750550e+01    0.2570526    0.1795146  80.21 0.0006152804    1.396    0.284
        25  -9.5081     89.0832    211.0240   1.0451939060e+02   1.8310676669e+01    0.2129755    0.1847548 -84.73 0.0005898662    1.154    0.133
        26  -9.1168     79.6693    183.1109   1.0299104889e+02   2.6195182373e+01    0.2383301    0.1824101  58.39 0.0006157833    1.268    0.211
        27  -8.7546     69.0388    182.7343   1.0561192130e+02   2.7831240977e+01    0.1928262    0.1740211  66.25  0.000488808    1.064    0.060
        28 -10.1261     99.4330    180.8931   9.7660952341e+01   2.3604424529e+01    0.2738423    0.2599338 -63.68 0.0005814011    1.101    0.092
        29  -9.0179     37.8350    181.1877   1.1317514001e+02   3.2148876467e+01    0.1924517    0.1525613  74.59 0.0003003732    1.123    0.109
        30  -8.3134     89.4979    180.4206   1.0009967745e+02   2.5329805110e+01    0.1459937    0.1313074  71.93 0.0001399923    1.050    0.047
        31 -10.3680    187.0117    175.3789   7.6024347065e+01   8.7477361307e+00    0.3626997    0.3054721 -50.43  0.001142762    1.284    0.221
        32 -13.4106     47.3780    108.6425   9.9360501151e+01   4.9290991759e+01     2.004753     1.266506  76.97  0.008733744    2.455    0.593
        33  -9.1386     34.8382    166.3605   1.1229585402e+02   3.6119216036e+01    0.3664834     0.193827  65.70   0.00128159    2.146    0.534
        34  -8.3163     29.8437    164.6609   1.1339803332e+02   3.7058377717e+01    0.1706663    0.1092999  45.74  0.000318802    1.588    0.370
        35  -9.6541     35.8769    158.4882   1.1107954411e+02   3.7976896136e+01    0.2444428    0.1806785  78.34  0.000681464    1.310    0.237
        36  -9.7192     32.3659    156.1978   1.1174429085e+02   3.8916497189e+01    0.2164208    0.1918142  60.43 0.0009416189    1.179    0.152
        37  -9.6978     64.0553    157.0998   1.0316319250e+02   3.4911499612e+01    0.2986796    0.1961742 -72.69 0.0007785411    1.469    0.319
        38 -11.4291     89.6062    151.8752   9.5119196662e+01   3.2372115972e+01    0.7057776    0.4851772 -24.18  0.003049649    2.099    0.524
        39 -10.7066    134.2109    146.7660   8.2049746671e+01   2.5349335611e+01    0.9535988    0.2713726 -53.12  0.002565833    4.072    0.754
        40  -9.8792    132.7535    139.7581   8.0819949056e+01   2.7284149500e+01    0.4462305     0.189126 -55.12  0.001475454    2.667    0.625
        41 -11.2430     54.9891    146.6653   1.0405171301e+02   3.8763949733e+01    0.7587929    0.5921551 -49.66  0.004103025    1.293    0.227
        42  -8.9847    174.8034    148.8292   7.2907005806e+01   1.6548751421e+01    0.2077757    0.1800426 -71.69 0.0005553458    1.337    0.252
        43 -10.5160     38.5990    146.3013   1.0870744770e+02   4.0767852762e+01     0.324561    0.2465485  60.80 0.0007592221    1.373    0.272
        44  -9.2330    143.9963    146.2570   7.9481055700e+01   2.3474517205e+01    0.2798924    0.1740883 -83.15 0.0008971844    3.502    0.714
        45 -10.1224    103.2007    138.0348   8.8431199840e+01   3.3456919510e+01    0.6044621    0.3681198 -22.01  0.002149815    2.925    0.658
        46 -10.1298    105.8495    130.9147   8.6057330619e+01   3.4710822098e+01    0.3774324    0.3340133 -68.56  0.001206546    1.145    0.126
        47 -11.6022     90.5230    137.6988   9.1993886312e+01   3.5778032216e+01    0.2992725    0.2625519 -39.00  0.001464796    1.189    0.159
        48 -11.2442     43.6685    130.2708   1.0470538858e+02   4.4291993136e+01    0.5018021    0.2859422 -86.38  0.002174209    2.163    0.538
        49  -9.6130    112.0286    129.1188   8.3884153325e+01   3.3962576341e+01    0.3453905    0.2824416   2.29 0.0009826507    1.536    0.349
        50 -10.7497    118.5335    123.5322   8.0704071131e+01   3.3999221277e+01    0.5589318    0.3931431 -19.83   0.00233266    1.960    0.490
        51 -10.2782     99.2131    124.9201   8.6561818545e+01   3.7404992326e+01    0.3271501    0.2642857 -14.75 0.0006943386    1.524    0.344
        52  -9.8199    135.7472    129.0321   7.7478871008e+01   2.9148749431e+01    0.6018231    0.1304082 -52.20  0.001191904    7.188    0.861
        53  -8.9331     91.2052    124.0322   8.8734979841e+01   3.9055836934e+01    0.2586694    0.1888463  56.98 0.0005349109    1.561    0.359
        54  -8.8981    135.0000    119.9842   7.5396043679e+01   3.1368264367e+01     0.259845    0.0889807 -45.96  0.000631733    2.862    0.651
        55  -9.1945    108.0579    118.1402   8.2307078176e+01   3.7358208610e+01     0.225394    0.2180673 -41.68 0.0003846579    1.022    0.021
        56 -11.4338     69.9612    171.7267   1.0381588475e+02   3.0408401066e+01    0.4376238    0.2931918 -33.77  0.002034444    2.051    0.512
        57  -9.8442    231.3316    113.7092   5.4381910924e+01   1.1876022680e+01     0.263247    0.2309546 -52.31 0.0007372209    1.075    0.070
        58 -11.3858     74.1138    167.1136   1.0201305447e+02   3.0958712953e+01    0.4585025    0.3609097 -64.24 0.0007482389    1.211    0.174
        59  -9.0589    205.3488    110.2324   5.7785217623e+01   1.7805474925e+01    0.2885708    0.2068411  46.37  0.001105391    1.538    0.350
        60 -10.6842    114.8360    109.7936   7.8181467089e+01   3.7939190864e+01    0.4557562    0.2206159 -37.58  0.001630855    2.333    0.571
        61  -8.3417    139.0500    106.0019   7.0660840099e+01   3.3555439979e+01    0.1847362    0.1826291 -64.12 0.0003810356    1.008    0.008
        62  -8.3820    147.8293    174.2153   8.4518170190e+01   1.6412100723e+01    0.1961871    0.1717183 -10.58   0.00027919    1.261    0.207
        63  -9.2562    134.6979    106.1681   7.1814710581e+01   3.4490000177e+01    0.3271161    0.1358154 -50.15   0.00108445    2.580    0.612
        64 -11.8594     82.4357    158.8691   9.8387381207e+01   3.1766381362e+01    0.9026734    0.6388501  81.46  0.004222677    1.685    0.406
        65  -8.0897     84.2959    173.6757   1.0037036306e+02   2.7790477056e+01    0.1514414    0.1062499  73.19 0.0002847682    1.623    0.384
        66 -12.9920     70.9276    153.6898   1.0068281152e+02   3.4809927040e+01    0.6550729    0.5483035 -62.61  0.001330971    1.128    0.113
        67  -9.3989    240.3236    102.3313   5.0583599919e+01   1.2093098710e+01    0.1304207    0.1038617  -3.69 0.0007050238    1.702    0.413
        68  -8.7967    127.8922     94.9751   7.0459369930e+01   3.8380717988e+01     0.248377    0.1923751 -89.41  0.000933868    1.727    0.421
        69 -10.3884    240.2937    169.0076   6.4700312428e+01   6.7049917193e-01    0.1917906    0.1532974 -28.54 0.0003684943    1.072    0.067
        70  -9.8858    142.4985    208.4515   9.1956854078e+01   1.0118567424e+01    0.2679685    0.1398949 -51.53 0.0008516808    2.080    0.519
        71  -9.5127    155.6572     87.7911   6.1682147242e+01   3.3403999489e+01    0.3968612     0.262874 -68.83  0.001547618    2.046    0.511
        72  -8.8114    115.8777     85.1252   7.0832180188e+01   4.3043308997e+01    0.2309545    0.2096042  80.09  0.000765467    1.239    0.193
        73  -8.8529    158.2533     82.9984   5.9775089593e+01   3.3684969750e+01     0.198268    0.1288674 -39.73 0.0004226088    1.529    0.346
        74  -8.1087     70.6307     82.2379   8.4372273981e+01   5.2261001410e+01    0.1367514    0.1112798  64.78 0.0003960101    1.608    0.378
        75  -9.2881     57.9909     67.0670   8.4296658053e+01   5.7356812491e+01    0.2027521    0.1815439 -18.71 0.0003304595    1.012    0.012
        76 -12.7702    187.9137     50.6454   4.5644658655e+01   3.1841361496e+01    0.8731195    0.8485026  -5.82 0.0009016889    1.247    0.198
        77 -11.5687    193.5056    204.5260   8.0350586028e+01   2.1667363225e+00    0.5163715    0.2516716  18.77  0.001867892    3.443    0.710
        78 -10.0280    164.4962    211.0416   8.7564961782e+01   5.8512241388e+00    0.2257919    0.1757038  32.72  0.001202845    1.184    0.156
        79 -11.3228     22.8309     34.0578   8.7828998617e+01   6.7815659879e+01    0.3193507    0.1974322  35.74  0.001861779    1.963    0.491
        80  -8.6342     69.0179     52.7122   7.5077764645e+01   5.8324176846e+01    0.1901564    0.1652181  21.97 0.0006269126    1.119    0.106
        81 -11.6771    111.0442    197.5768   9.7483810181e+01   1.7803258001e+01     1.001065    0.5938922  -6.05   0.00284572    6.065    0.835
        82  -9.3664    198.0213     23.5407   3.7548576280e+01   3.2987465127e+01    0.2144313    0.1852448  -8.22 0.0007877033    1.568    0.362
        83 -10.7001    111.1275    203.1780   9.8320605956e+01   1.6546606940e+01    0.3211733      0.22897  62.58 0.0008238668    1.513    0.339
        84  -9.2030    189.5259     14.9879   3.6345944535e+01   3.5933243991e+01    0.1800619    0.1222602 -35.23 0.0009049762    1.569    0.362
        85  -9.3986     46.1744    210.7899   1.1415129557e+02   2.4245636417e+01    0.3183819    0.1838199 -68.11 0.0007429898    1.671    0.402
