#   1 NUMBER                 Running object number                                     
#   2 MAG_AUTO               Kron-like elliptical aperture magnitude                    [mag]
#   3 X_IMAGE                Object position along x                                    [pixel]
#   4 Y_IMAGE                Object position along y                                    [pixel]
#   5 X_WORLD                Barycenter position along world x axis                     [deg]
#   6 Y_WORLD                Barycenter position along world y axis                     [deg]
#   7 A_WORLD                Profile RMS along major axis (world units)                 [deg]
#   8 B_WORLD                Profile RMS along minor axis (world units)                 [deg]
#   9 THETA_WORLD            Position angle (CCW/world-x)                               [deg]
#  10 FWHM_WORLD             FWHM assuming a gaussian core                              [deg]
#  11 ELONGATION             A_IMAGE/B_IMAGE                                           
#  12 ELLIPTICITY            1 - B_IMAGE/A_IMAGE                                       
         1 -12.3255    248.2909    174.5427   7.6165814425e+01  -2.1773306678e+00     1.931114    0.7447568 -30.21  0.008092513    2.535    0.606
         2 -11.8515     11.4231     45.0912   1.0824979172e+02   6.5821172704e+01    0.8135584    0.6574164  62.78  0.005546816    1.802    0.445
         3 -11.9547      4.6987     58.3192   1.1430275634e+02   6.3428200041e+01      1.25167    0.5595143 -74.90  0.006141174    2.378    0.580
         4  -8.1686    109.6628    237.3096   1.1299924173e+02   1.1849515795e+01     0.126686   0.07562101  63.80 0.0006308728    1.683    0.406
         5 -13.1084    242.9793    232.7949   8.7870812839e+01  -8.8239821415e+00         2.71     1.293014 -24.16   0.01479988    2.254    0.556
         6  -9.2262     75.9538    222.2243   1.1784294969e+02   1.9517710385e+01     0.174466    0.1444672   7.29  0.001101069    2.058    0.514
         7  -8.0756     92.3153    225.3645   1.1502906412e+02   1.6576462559e+01    0.1078451   0.09644842 -10.96 0.0007040082    1.767    0.434
         8  -9.0088     68.6281    219.7382   1.1900810000e+02   2.0995943571e+01    0.1643145   0.09741735 -88.20 0.0009514752    1.709    0.415
         9  -8.1652     90.9924    213.4900   1.1402679351e+02   1.9007969390e+01     0.192074     0.106609  43.49 0.0007281007    1.579    0.367
        10  -9.0844     75.0100    212.0014   1.1704271117e+02   2.1619056927e+01    0.2085786    0.1181912  66.31 0.0008913373    1.706    0.414
        11 -11.1218    249.5706    147.4919   7.0219425270e+01   1.6156170386e+00     1.119978    0.1785641 -36.88  0.003021598    5.360    0.813
        12 -10.7883    117.1745    247.1109   1.1264725721e+02   9.0943330064e+00    0.4310266    0.2397231  58.80  0.002467828    1.714    0.416
        13  -8.6339     92.5162    190.5162   1.1095516372e+02   2.3415437608e+01    0.1341748    0.1126357  70.12 3.394182e-05    1.033    0.032
        14  -7.5527    105.3339    176.6777   1.0611823904e+02   2.4302371065e+01    0.2540653   0.09482018  48.41  0.000948852    2.618    0.618
        15 -10.4479     88.8799    164.7924   1.0813298553e+02   2.9634038677e+01    0.4386218    0.2307227 -85.06  0.001690852    2.941    0.660
        16  -9.9649     81.3172    163.1511   1.0969879049e+02   3.1169670489e+01    0.4698266    0.1414589 -49.59  0.001543067    3.965    0.748
        17  -8.5156     97.3013    162.6608   1.0576818347e+02   2.8762897428e+01    0.1475483    0.1017293  76.83 0.0005980204    1.668    0.401
        18  -9.7991    129.4907    150.5136   9.5677341025e+01   2.5677073026e+01    0.3540172    0.2275937 -19.10  0.001339214    2.882    0.653
        19 -10.7611    107.9581    148.9016   1.0068938173e+02   3.0085352360e+01    0.4237102    0.2447581 -51.69  0.001893227    1.727    0.421
        20  -9.6217    118.8685    143.6749   9.6896240735e+01   2.9271170853e+01    0.3302997    0.1736495  62.98  0.001154328    2.944    0.660
        21 -11.7620     91.1237    141.8853   1.0367708385e+02   3.4603525036e+01    0.6127925     0.421336  57.85   0.00303005    1.539    0.350
        22  -9.8085    102.7642    138.4093   9.9953895055e+01   3.3447416434e+01    0.2677864    0.1379133  40.71  0.001110426    1.980    0.495
        23  -9.1834    211.6568    137.8413   7.4726363488e+01   1.0744199841e+01    0.3154125    0.1348255 -29.80  0.001112216    2.664    0.625
        24  -7.7874    108.6703    186.6920   1.0687894873e+02   2.1602953045e+01    0.1272814    0.1094002  -6.14 0.0003000322    1.661    0.398
        25 -11.6445    126.7188    133.1013   9.2602117560e+01   3.0139172840e+01     0.731438    0.4806631  82.89  0.002829669    2.533    0.605
        26 -10.2619    109.6569    133.7165   9.7162496415e+01   3.3298953046e+01    0.3895723    0.2452231  87.28  0.001476783    2.713    0.631
        27  -8.2155    224.3334    134.3075   7.1558407407e+01   8.6908408070e+00    0.1506459    0.1090681   8.60 0.0007040881    1.669    0.401
        28 -10.6101     93.5591    126.8851   1.0003206917e+02   3.7756982016e+01     0.426603    0.2717777 -85.02  0.001782434    2.243    0.554
        29 -10.6624     93.5140    132.2424   1.0115985369e+02   3.6493220356e+01     0.435151    0.2908835  -3.86  0.001714008    3.012    0.668
        30  -9.5770    145.1952    132.3080   8.7812516764e+01   2.6459386373e+01    0.2459141    0.1984479  25.14 0.0009872526    1.399    0.285
        31 -10.5138    106.7660    140.1382   9.9262645176e+01   3.2330319917e+01    0.4494032    0.2412165 -71.24  0.001685288    2.607    0.616
        32 -10.2679    237.3331    127.7849   6.7787616287e+01   7.1109360979e+00    0.2513074    0.2131274  32.42  0.001406455    1.236    0.191
        33  -9.7489    147.3306    126.6761   8.5933020796e+01   2.7217750738e+01    0.3698334     0.228619  11.67  0.001195768    3.509    0.715
        34 -11.5285    102.5971    122.6704   9.6614634775e+01   3.7174105811e+01    0.6136426    0.3492181 -55.16  0.002644783    1.702    0.413
        35 -10.4641    144.2090    115.8429   8.3963420025e+01   3.0251349585e+01    0.3366507    0.2830765 -50.87  0.001646402    1.196    0.164
        36 -11.7396    140.2424    114.5103   8.4609107614e+01   3.1420598438e+01     1.095293    0.5315807 -24.64   0.00281179    5.211    0.808
        37 -10.2725    149.2047    119.3357   8.3636472401e+01   2.8382866522e+01    0.3757497    0.2438645 -15.23  0.001401997    2.496    0.599
        38 -11.0120    118.5745    120.5740   9.1781857161e+01   3.4625912971e+01    0.5561603    0.3529398  81.13  0.002009121    2.924    0.658
        39 -10.2384    243.9940    122.4871   6.5468867011e+01   6.6287125071e+00    0.6271141    0.1397692  51.49  0.001838807    4.921    0.797
        40  -9.3533    121.3034    116.1214   8.9951422237e+01   3.5090658825e+01    0.2593759    0.1968678 -30.15  0.001203723    1.496    0.331
        41  -9.8713    127.5063    111.0100   8.6984954014e+01   3.4949112824e+01    0.2626565     0.230121  10.81 0.0008606635    1.314    0.239
        42  -8.2432     84.3265    122.3154   1.0163805857e+02   4.0353499208e+01    0.1447553    0.1107624 -26.05 0.0007044003    1.671    0.402
        43 -11.3546    237.0203    117.4045   6.5394291023e+01   8.8837622930e+00    0.5202532    0.3522849  32.82   0.00253997    1.688    0.408
        44 -10.5202    146.6402    106.4772   8.0866100980e+01   3.1701228339e+01     0.480116    0.2697406  67.52  0.001526864    2.923    0.658
        45 -10.9639    245.7278    111.0303   6.2512977977e+01   8.1193789485e+00    0.5777222    0.3585702  46.06  0.002653455    1.767    0.434
        46  -8.6082    118.9722    101.0000   8.6600169266e+01   3.8955740943e+01    0.2582236   0.08875962  44.07 0.0008097878    2.994    0.666
        47 -10.7647    153.6858     99.8396   7.7314174406e+01   3.1435567560e+01    0.6392453    0.2980969 -28.87  0.002051273    2.965    0.663
        48 -10.6794     10.2795     31.7004   1.0466469063e+02   6.8527847190e+01    0.2933488    0.1985558  20.76  0.001967683    1.763    0.433
        49  -8.3393     95.4963    243.4825   1.1620757174e+02   1.2930101528e+01    0.1192859   0.08900432  58.94 5.011459e-06    1.039    0.037
