#   1 NUMBER                 Running object number                                     
#   2 MAG_AUTO               Kron-like elliptical aperture magnitude                    [mag]
#   3 X_IMAGE                Object position along x                                    [pixel]
#   4 Y_IMAGE                Object position along y                                    [pixel]
#   5 X_WORLD                Barycenter position along world x axis                     [deg]
#   6 Y_WORLD                Barycenter position along world y axis                     [deg]
#   7 A_WORLD                Profile RMS along major axis (world units)                 [deg]
#   8 B_WORLD                Profile RMS along minor axis (world units)                 [deg]
#   9 THETA_WORLD            Position angle (CCW/world-x)                               [deg]
#  10 FWHM_WORLD             FWHM assuming a gaussian core                              [deg]
#  11 ELONGATION             A_IMAGE/B_IMAGE                                           
#  12 ELLIPTICITY            1 - B_IMAGE/A_IMAGE                                       
         1 -10.6816      2.0168     50.4990   1.0525806765e+02   6.5328222600e+01    0.7604742    0.1236746 -62.17  0.002366015    5.294    0.811
         2 -12.0852    203.7559     40.7600   4.2652816555e+01   2.9410681805e+01     1.041226    0.6730857  62.66   0.00445106    1.525    0.344
         3 -11.7046    212.2422     35.9834   4.0481223949e+01   2.8088626388e+01    0.8742321    0.5608259  78.94  0.004712676    1.566    0.361
         4 -11.3505    231.6857     19.0010   3.4727175945e+01   2.5867225333e+01    0.5465083    0.5084494  22.24  0.003298145    1.488    0.328
         5 -10.7268    228.0051     16.1589   3.4422425688e+01   2.6970673974e+01    0.4529272    0.3507117  32.15  0.002243515    1.912    0.477
         6 -11.3758    219.3076     28.3693   3.7945683482e+01   2.7450217006e+01    0.9419422    0.3496099  61.00   0.00340743    2.580    0.612
         7  -9.6708      2.0000     12.0839   9.2016253490e+01   7.2390043061e+01    0.5400273   0.05211527 -49.74  0.001428817    8.974    0.889
         8  -8.8697      1.9114      3.3618   8.7926422213e+01   7.3720493598e+01    0.3052855   0.08562753 -41.94  0.001442698    2.860    0.650
         9  -8.7231    249.2906      1.6748   2.9921619750e+01   2.4141359609e+01    0.2788437    0.1304454  85.47  0.001535231    2.071    0.517
        10  -8.3592     48.6647    225.1640   1.1662056986e+02   2.0915723031e+01    0.1559503   0.09818042 -65.42 0.0004002637    1.638    0.390
        11 -12.0636     84.5008    225.9844   1.0930995598e+02   1.6100732594e+01     1.343334    0.8552258  69.50  0.007299142    1.734    0.423
        12 -12.1330      5.2086    183.3457   1.2244839530e+02   3.4389557247e+01      1.57442    0.5473486 -82.34  0.003600908    2.579    0.612
        13 -13.2498     56.8619    247.0141   1.1678255196e+02   1.5643917660e+01     3.788523    0.8356056  31.78    0.0046823    5.835    0.829
        14 -13.8507      6.4310    142.7060   1.1875312307e+02   4.3803054944e+01       6.4703     1.566781 -80.25   0.01930605    5.157    0.806
        15 -13.2220     10.5062    209.2744   1.2306176219e+02   2.8258838150e+01     1.301676    0.8172426  72.90    0.0079863    1.324    0.245
        16 -10.2474     58.6642    178.6297   1.0959114966e+02   3.0033011260e+01    0.4423361    0.2718713 -39.35   0.00165561    2.143    0.533
        17 -10.1083     64.3250    173.0329   1.0744164991e+02   3.0647284784e+01    0.3276146    0.2567872 -34.15 0.0006170642    1.579    0.367
        18 -10.2845     44.2464    217.5625   1.1688086799e+02   2.3012247653e+01    0.5457755     0.325709 -58.12  0.003136766    1.837    0.456
        19 -10.9854     58.6113    133.7535   1.0277564317e+02   4.1070904695e+01     0.797825    0.3299624 -71.66  0.002766084    3.105    0.678
        20 -11.2073     81.4469    157.3033   1.0051749450e+02   3.2089036135e+01    0.7844814    0.6685745 -44.03  0.002159425    1.223    0.182
        21 -10.6665     73.7440    153.9269   1.0202530854e+02   3.4036464868e+01    0.7039351     0.377749  59.46  0.002820852    2.522    0.604
        22 -11.6142     68.3618    144.5684   1.0189438582e+02   3.7103391641e+01    0.8322725    0.5732473  73.20  0.003117843    1.816    0.449
        23 -11.6915     61.3466    159.6311   1.0628294187e+02   3.4294519953e+01    0.5250161    0.2977735 -42.68  0.001366486    2.044    0.511
        24  -8.4552     32.6340    155.8099   1.1334441239e+02   3.8461427461e+01    0.1931525    0.1094247 -82.00 0.0009493977    1.691    0.409
        25  -8.1555    124.3182    152.9993   8.8280598401e+01   2.5875627730e+01    0.2152117    0.1933448 -57.05  0.000608611    1.126    0.112
        26  -8.8605     96.3999    142.7899   9.3639162505e+01   3.3284921453e+01    0.2902068    0.2384366 -50.89  0.001021747    1.170    0.145
        27  -8.6297     99.3080    140.3245   9.2307485497e+01   3.3393099277e+01    0.3649155    0.2415068 -16.61  0.001471615    2.351    0.575
        28 -10.5293     84.7113    141.3158   9.6633867730e+01   3.5531236732e+01    0.3344146    0.2567609 -46.66 0.0004781525    1.270    0.213
        29 -13.4849     38.4165    193.6817   1.1599677156e+02   2.8898775927e+01      2.86041     1.205056  66.48   0.01151841    3.169    0.684
        30  -8.7800     74.5217    135.6718   9.8453454987e+01   3.8453515234e+01    0.2951123    0.2339803  69.81 0.0001718835    1.461    0.316
        31  -9.2608    107.3751    131.3486   8.8040751186e+01   3.4131572104e+01    0.4577988    0.3059713  31.80   0.00204819    1.607    0.378
        32  -9.3580     95.4734    127.7565   9.0620985971e+01   3.7096014534e+01    0.2814028    0.2573172 -24.87 0.0004110761    1.127    0.112
        33  -9.6622     25.6935    212.9391   1.2028870159e+02   2.6012330450e+01    0.2104183    0.1546383  84.50 0.0008985091    1.134    0.118
        34 -10.1192     74.6188    163.4341   1.0335888243e+02   3.1577822108e+01    0.3051014    0.2744827   7.00 0.0003524495    1.321    0.243
        35  -8.1650    105.9156    119.9064   8.5705334850e+01   3.7110231814e+01    0.2286128    0.1977311 -18.56 0.0003057683    1.236    0.191
        36  -7.6742    205.7014    110.3255   5.9713451355e+01   1.7873840242e+01    0.1483076    0.1116734 -66.58 0.0005243412    1.631    0.387
        37 -13.3200      6.8033    241.0179   1.2546281595e+02   2.2235932755e+01     1.844752     1.090227 -85.15   0.01276031    1.477    0.323
        38  -7.7464     41.5264     92.4378   9.9815367997e+01   5.3085353877e+01    0.1364718    0.1176627 -45.29  0.000142187    1.012    0.011
        39 -11.3790     30.1338    205.9033   1.1884674898e+02   2.7065071230e+01    0.4336559    0.3752725 -38.04  0.001073611    1.599    0.375
        40  -9.7200      2.2852     64.4330   1.0848203243e+02   6.2372507684e+01    0.4629724    0.1062361 -67.48  0.001512804    4.614    0.783
        41  -9.8394     13.4173     60.5213   1.0287545374e+02   6.2581609065e+01    0.2572057    0.1905543 -59.65 0.0009749099    1.291    0.225
        42  -9.6724     48.2253    218.0234   1.1610177388e+02   2.2449987256e+01    0.2726129    0.2024712 -42.43  0.001426593    1.864    0.464
        43 -10.7691    101.8296    240.2955   1.0731087727e+02   1.0867651352e+01    0.4643254    0.2046479  36.29   0.00222153    1.992    0.498
        44 -10.3589    113.7107    238.1624   1.0463073556e+02   9.5147665108e+00    0.2979699     0.231458  39.62 0.0009421945    1.117    0.104
        45 -10.4305    204.8461     51.7062   4.5240097458e+01   2.7673363343e+01    0.3684274    0.2332182  41.26  0.001785812    1.984    0.496
        46  -8.8306    133.2242     40.2396   5.4219682678e+01   4.6387787264e+01    0.2732146    0.2201022 -73.91 0.0005476351    1.539    0.350
        47  -8.0146    133.8098     32.8634   5.1652470341e+01   4.7184617702e+01    0.1818436     0.157726 -67.73 0.0003846102    1.326    0.246
        48  -9.7069      1.8160     23.8015   9.6936998299e+01   7.0442379970e+01    0.3074142    0.1057656 -52.94  0.001481467    2.515    0.602
        49 -11.6596    135.0890    231.2312   9.9276432275e+01   7.5038131303e+00     0.726592     0.480593  36.13  0.004046367    1.320    0.242
        50  -9.0182     59.8007    232.0600   1.1497970560e+02   1.8163266878e+01    0.2150373    0.1830609 -61.97  0.000517076    1.393    0.282
        51 -12.1291    112.2121    229.9228   1.0392491029e+02   1.1277841714e+01     1.231808    0.3068861  40.04   0.00439264    3.275    0.695
        52  -8.2641     53.5341    230.2623   1.1607387121e+02   1.9296669989e+01    0.2191749     0.109202 -79.06  0.001143224    2.105    0.525
        53  -8.9483    119.8028    223.4783   1.0145992890e+02   1.1347663843e+01    0.3937782    0.1890856 -38.74  0.001650503    2.994    0.666
