#   1 NUMBER                 Running object number                                     
#   2 MAG_AUTO               Kron-like elliptical aperture magnitude                    [mag]
#   3 X_IMAGE                Object position along x                                    [pixel]
#   4 Y_IMAGE                Object position along y                                    [pixel]
#   5 X_WORLD                Barycenter position along world x axis                     [deg]
#   6 Y_WORLD                Barycenter position along world y axis                     [deg]
#   7 A_WORLD                Profile RMS along major axis (world units)                 [deg]
#   8 B_WORLD                Profile RMS along minor axis (world units)                 [deg]
#   9 THETA_WORLD            Position angle (CCW/world-x)                               [deg]
#  10 FWHM_WORLD             FWHM assuming a gaussian core                              [deg]
#  11 ELONGATION             A_IMAGE/B_IMAGE                                           
#  12 ELLIPTICITY            1 - B_IMAGE/A_IMAGE                                       
         1 -14.2884    165.4565     51.5177   7.4991428663e+01   3.7506085965e+01     1.970876     1.312094  22.24  0.006928364    2.343    0.573
         2 -13.9299    179.0952     35.1586   6.8344283224e+01   3.6417921084e+01    0.8632799    0.7627149  81.46  0.003052531    1.013    0.013
         3 -13.2195    183.2522     28.4451   6.6026485206e+01   3.6245443536e+01     0.541799    0.4520507  74.63   0.00130941    1.068    0.064
         4 -12.4044    189.9478     14.7956   6.1804339253e+01   3.6202157602e+01    0.2922809    0.2264696 -83.29 0.0008412641    1.157    0.136
         5 -13.7757    198.9010      4.2809   5.8386435618e+01   3.5203263944e+01    0.8709236    0.4848438  71.00  0.004333774    1.514    0.339
         6 -11.1946     57.4032      3.1981   8.4738370012e+01   6.5639711679e+01    0.1482128   0.09708758 -28.67 0.0009581999    1.713    0.416
         7 -10.5581    198.7766    222.9042   1.0827354011e+02  -2.8544974061e+00    0.2248852    0.1765449  34.39 0.0004963867    1.183    0.155
         8 -18.8012     52.3405    244.2846   1.4047716690e+02   1.7148775087e+01     6.439446     5.789908  63.31   0.04686082    1.348    0.258
         9 -12.8381    106.2604    202.4766   1.2460137694e+02   1.7963507762e+01    0.6316231    0.4053018  40.61  0.001892139    1.546    0.353
        10 -10.3972    158.5182    204.6080   1.1335744031e+02   7.9274298308e+00    0.3659645    0.1912375  64.08  0.001229252    3.583    0.721
        11 -13.3481    116.3912    211.4971   1.2372284114e+02   1.4205007808e+01    0.7479441    0.5562273  81.34  0.002348977    1.475    0.322
        12 -10.1507    163.3638    204.0714   1.1221275691e+02   7.1181127643e+00    0.1980223    0.1803134 -54.51 0.0005100846    1.164    0.141
        13 -11.4708    139.1442    200.7592   1.1694225400e+02   1.2403437272e+01    0.3221993    0.2080359 -71.95   0.00143721    1.968    0.492
        14 -12.5828    193.4967    192.6399   1.0366099276e+02   3.6427092590e+00     0.893452    0.4901558 -52.60  0.002769191    2.101    0.524
        15 -10.5169    208.8318    197.8177   1.0158994977e+02  -1.8274259820e-01     0.180798    0.1693875 -82.96 0.0004141059    1.335    0.251
        16 -10.5329    154.1393    195.9334   1.1273836155e+02   1.0580394302e+01    0.2294401    0.1986769  80.60  0.001057794    1.275    0.216
        17  -9.8502     22.8886    195.9367   1.4194641442e+02   3.1104324450e+01    0.1293554   0.09439381 -84.63 0.0008195376    1.091    0.083
        18 -14.1970    113.0350    196.9660   1.2220398992e+02   1.8033609075e+01    0.8515517    0.7047479 -86.71  0.003957039    1.208    0.172
        19 -10.1231     26.6743    199.7357   1.4151788830e+02   2.9840459151e+01    0.1087765   0.08844669 -53.36 0.0005709169    1.565    0.361
        20 -10.8514    167.7995    188.9113   1.0838755228e+02   9.3973798242e+00    0.3425112    0.2138946 -48.85   0.00123261    1.649    0.394
        21 -13.7855    107.1321    209.7163   1.2548677105e+02   1.6195387577e+01    0.8119605    0.6462189  65.04  0.004540759    1.167    0.143
        22 -12.6342     98.3033    180.8334   1.2299376958e+02   2.4377389808e+01    0.4749596    0.3033901  41.51  0.001665573    1.589    0.371
        23 -11.2044    208.5358    178.5064   9.7746223100e+01   3.5087522463e+00    0.3839827    0.3159137   2.95  0.002040599    1.348    0.258
        24  -9.7651      1.8753    181.0000   1.4498030655e+02   3.6464037300e+01    0.1382437    0.0663441  29.94 0.0004668305    2.565    0.610
        25 -11.9510    140.8778    176.6791   1.1207952582e+02   1.7447632139e+01    0.3139961    0.2337909 -51.59 0.0007925961    1.354    0.261
        26 -11.6358    137.7101    171.1725   1.1172781068e+02   1.9347387771e+01    0.3856983    0.2891937 -71.26  0.001266704    1.485    0.327
        27 -11.1184    205.5098    180.4791   9.8756659498e+01   3.7075803006e+00    0.2797115    0.2654873  13.74 0.0009938225    1.049    0.046
        28 -10.1206    195.7001    174.3229   9.9458103899e+01   6.8496770116e+00    0.2742442    0.2123305 -74.57 0.0007801499    1.730    0.422
        29 -11.5170    195.8931    170.2317   9.8549209481e+01   7.6406022648e+00    0.4206056    0.3890667 -66.94  0.001797708    1.176    0.150
        30 -10.7266    193.8081    164.9320   9.7836402384e+01   9.1510873897e+00    0.3681742    0.2965895 -57.32  0.001461582    1.323    0.244
        31 -10.6085     18.3594    219.0828   1.4471665431e+02   2.6480121985e+01    0.1596218    0.1164401 -77.33 0.0009059017    1.275    0.216
        32 -19.0944     37.0378    102.1519   1.2499900788e+02   5.1792892982e+01     17.70518    0.9491139 -59.75   0.02776963   16.575    0.940
        33 -10.4238    115.1013    162.1389   1.1543200053e+02   2.5882168766e+01    0.2210903    0.2068957 -40.00 0.0003582388    1.175    0.149
        34  -9.6961     13.7247    160.3752   1.4044238441e+02   4.0224849964e+01    0.1287568    0.1221717   3.81 0.0004244868    1.456    0.313
        35 -11.4001    119.9592    156.1168   1.1297829083e+02   2.6408366319e+01    0.3496759    0.2486196  63.07   0.00103623    1.587    0.370
        36 -12.7258    134.0399    145.7629   1.0717540375e+02   2.6056947257e+01     1.342141    0.3438676 -54.84  0.003091562    5.542    0.820
        37  -9.9106      9.6458    153.5508   1.4066231274e+02   4.2161728364e+01    0.1821779    0.1266726  10.69  0.001105961    2.107    0.525
        38 -10.2320    174.8494    149.1221   9.8348410188e+01   1.6534975212e+01    0.2419346    0.2138037 -78.27 0.0005231022    1.229    0.186
        39 -12.1485    144.9088    145.8396   1.0451935640e+02   2.3757453742e+01     0.413272    0.3490881 -71.42  0.001029819    1.250    0.200
        40 -14.3029    104.9791    192.9666   1.2340962349e+02   2.0365843545e+01     1.592396    0.9550358 -28.65  0.005954044    3.391    0.705
        41 -13.0195     99.2132    188.8236   1.2408637166e+02   2.2323157589e+01    0.6175998    0.4483503 -43.84  0.003101494    1.619    0.382
        42 -12.4262    100.9574    139.3680   1.1434174415e+02   3.4012795636e+01    0.3005437     0.289519 -50.57 0.0004041397    1.081    0.075
        43 -11.9172      4.4478    131.6167   1.3939803137e+02   4.7652421571e+01     0.509834    0.2096463  86.75  0.001921957    3.933    0.746
        44 -11.8809    105.9482    130.7018   1.1102674041e+02   3.5185197657e+01    0.4186628     0.329691 -55.34  0.001324125    1.210    0.174
        45 -11.1998    105.8842    125.9165   1.0991074059e+02   3.6330815606e+01    0.3291785    0.2562203 -22.32  0.000668077    1.585    0.369
        46 -12.1250    118.0315    129.7065   1.0753951367e+02   3.3093842616e+01    0.4114644    0.3837913  -0.50  0.001164116    1.212    0.175
        47 -12.2040    135.4106    121.7230   1.0104477206e+02   3.1324656702e+01    0.7280275    0.1967431 -47.40  0.002024287    3.654    0.726
        48 -11.2188    160.6529    127.5404   9.6400573223e+01   2.4431100578e+01    0.3899566    0.2824666 -81.24  0.001539943    1.873    0.466
        49 -11.3015    124.7830    126.8873   1.0507425970e+02   3.2385691984e+01    0.4454485    0.2671782  75.28  0.001471696    3.313    0.698
        50 -10.7671     84.8767    126.1435   1.1585592461e+02   3.9947445944e+01    0.2248115    0.1962895  82.74 0.0005955391    1.256    0.204
        51 -10.5769    112.2137    118.9903   1.0646842137e+02   3.6732251819e+01    0.2483886    0.2212955  47.32 0.0002761721    1.166    0.142
        52 -11.5480     12.1910    117.0789   1.3526757181e+02   5.0471390519e+01    0.2899427    0.1727041  13.62  0.001653405    2.237    0.553
        53 -11.0197    168.4407    113.2868   9.1054656118e+01   2.5695711305e+01    0.3952503     0.288448 -74.55  0.001016042    1.720    0.419
        54 -10.8471      2.2820    112.7925   1.3746531156e+02   5.2091799000e+01     0.224576    0.1593987 -44.71 0.0008929069    1.352    0.260
        55 -10.6477    205.1553    110.3687   8.2993401348e+01   1.7778012738e+01    0.3769334    0.2451769  40.32  0.001120073    1.825    0.452
        56 -12.8635     61.0095    108.8859   1.1898185027e+02   4.7505782555e+01    0.4316166    0.3839791  -2.28  0.002577279    1.259    0.206
        57  -9.9574    110.1862    107.4198   1.0402735416e+02   3.9737567810e+01    0.2149139    0.1429641  55.18 0.0009459515    1.715    0.417
        58 -10.6048     81.9503    106.3490   1.1196094530e+02   4.5027597273e+01    0.1949247    0.1882937  18.22  0.000471336    1.109    0.098
        59 -11.7901     67.1604    104.3800   1.1600040898e+02   4.7697231682e+01    0.3713121     0.247524   6.51  0.001756097    2.104    0.525
        60 -10.0697     67.4163     98.7579   1.1450876100e+02   4.8915974216e+01    0.2048095     0.115971 -43.25 0.0008359249    1.625    0.385
        61 -10.3111    187.3074    210.3143   1.0831240181e+02   1.4294448055e+00    0.1408771    0.1061044   1.14 0.0002912065    1.626    0.385
        62 -12.2605    121.9403    199.0422   1.2051975485e+02   1.5965541719e+01    0.4460313    0.3008421 -27.99   0.00136272    2.324    0.570
        63 -10.3870     83.6778     76.8590   1.0316190820e+02   5.0931559786e+01    0.1909325    0.1677472 -36.93 0.0004480671    1.107    0.097
        64 -10.8929      1.4993    248.3353   1.4941737935e+02   2.2301991354e+01    0.1168355   0.08060816 -85.03 0.0008622063    1.283    0.220
        65 -10.4043     24.4952    213.1033   1.4309811261e+02   2.7106924821e+01     0.159917    0.1211511  57.22 -0.0002626174    1.285    0.222
        66 -13.7733     12.0937    206.1509   1.4492751952e+02   2.9923843363e+01    0.5433682    0.2689683  35.22  0.003068651    2.290    0.563
        67 -10.0903     13.5189     59.9759   1.2312979496e+02   6.2544845843e+01    0.1649213    0.1319517 -34.10 0.0004266296    1.049    0.047
        68  -9.9396    113.0869     21.8227   7.6505943503e+01   5.3326688423e+01    0.1829107    0.1616882  72.14 0.0003654707    1.249    0.199
        69 -11.4126    169.0159    235.9325   1.1643784494e+02   4.6627667852e-02    0.3729402    0.1943907 -51.91  0.000617234    2.262    0.558
        70  -9.8149    220.5422    229.0630   1.0515723581e+02  -7.4643583944e+00    0.2892178    0.1136643 -51.07  0.001023402    4.402    0.773
