#   1 NUMBER                 Running object number                                     
#   2 MAG_AUTO               Kron-like elliptical aperture magnitude                    [mag]
#   3 X_IMAGE                Object position along x                                    [pixel]
#   4 Y_IMAGE                Object position along y                                    [pixel]
#   5 X_WORLD                Barycenter position along world x axis                     [deg]
#   6 Y_WORLD                Barycenter position along world y axis                     [deg]
#   7 A_WORLD                Profile RMS along major axis (world units)                 [deg]
#   8 B_WORLD                Profile RMS along minor axis (world units)                 [deg]
#   9 THETA_WORLD            Position angle (CCW/world-x)                               [deg]
#  10 FWHM_WORLD             FWHM assuming a gaussian core                              [deg]
#  11 ELONGATION             A_IMAGE/B_IMAGE                                           
#  12 ELLIPTICITY            1 - B_IMAGE/A_IMAGE                                       
         1 -14.0025      2.5048     10.9995   1.0488743248e+02   7.6226454132e+01     4.076821     1.078776 -63.03   0.01647461    2.989    0.665
         2 -14.4849    198.6607     38.5198   4.6525000591e+01   3.0742365033e+01     1.807014     1.449928   8.48  0.005502778    1.534    0.348
         3 -14.7001    209.3856     27.5226   4.2286242282e+01   2.9523046320e+01     1.940099     1.349568  17.53  0.002787866    2.018    0.505
         4 -11.4259     21.0094     33.5903   1.0021331626e+02   6.9971569636e+01    0.3502737    0.2093139  34.24  0.001710333    1.894    0.472
         5 -13.0900    233.8279      3.5320   3.4206736466e+01   2.6528834030e+01    0.7938863    0.4256974  80.28  0.004262917    1.966    0.491
         6  -9.8812     60.5598      7.5155   6.4391577709e+01   6.8986571219e+01     0.134272    0.1220784   7.18 8.614991e-05    1.015    0.015
         7 -10.2337    113.8167    207.3917   1.0160100690e+02   1.7891726061e+01    0.2430667    0.1734093  62.32  0.001468907    1.571    0.363
         8 -11.8739    139.5667    248.1283   1.0095990643e+02   8.2477991629e+00    0.3666988    0.2436392 -56.26  0.002563682    2.119    0.528
         9 -14.6953     49.8231    220.5812   1.1631617302e+02   2.3627394741e+01     4.756119     1.083084  33.63    0.0202415    3.124    0.680
        10 -15.1186     50.1155    197.3629   1.1473550845e+02   2.7988577358e+01     3.800853     2.273338  31.33   0.02135502    1.579    0.367
        11 -11.3489    109.1240    202.0544   1.0198774328e+02   1.9495386271e+01    0.2885786    0.2208124 -27.55 0.0009699913    1.750    0.428
        12 -10.8918    111.9537    197.5597   1.0082400158e+02   1.9897347481e+01    0.2733091    0.2393056 -36.72  0.001806224    1.377    0.274
        13 -11.2379    207.6644    195.0555   8.1253726400e+01   5.8886154977e+00    0.3269108    0.1321718 -35.74   0.00144157    2.581    0.612
        14 -16.7884      6.8063    204.6472   1.2450558583e+02   3.0775859234e+01     7.670932     1.272693 -78.29   0.01700119    5.267    0.810
        15 -10.0406     23.9250    193.4367   1.2038568209e+02   3.1472689137e+01     0.401584    0.1028005  50.94   0.00173495    2.899    0.655
        16  -9.6967     70.9801    185.2562   1.0885755872e+02   2.7942224505e+01    0.1920259    0.1389063  54.78  0.000476729    1.202    0.168
        17 -10.4559     99.0356    180.9460   1.0167686596e+02   2.4955243095e+01    0.3403513    0.2140133  19.52  0.001643226    1.961    0.490
        18 -11.7294    144.4571    179.2712   9.1044071889e+01   1.8156717535e+01    0.4685786    0.3467685 -87.56   0.00243911    2.207    0.547
        19 -10.4327    150.4520    179.0113   8.9705456834e+01   1.7221486196e+01    0.2754866    0.2128632 -82.15  0.001499283    2.009    0.502
        20 -10.2006     39.9592    177.4052   1.1566809411e+02   3.3233375812e+01    0.2642068    0.1549926  55.56 0.0007282663    1.459    0.315
        21 -10.0158    204.2559    176.0406   7.8562675694e+01   8.9732627406e+00    0.2527546    0.1860988 -30.32  0.001203783    1.386    0.278
        22 -10.0312    196.7730    175.9362   7.9905856739e+01   1.0166348412e+01    0.2578024    0.2190698  36.61  0.001668783    1.295    0.228
        23 -12.1722     69.6092    175.2292   1.0815265876e+02   3.0223597411e+01    0.3920181    0.2669572 -41.46  0.002127127    1.963    0.491
        24 -12.1751     74.0128    170.3908   1.0650846027e+02   3.0687390077e+01    0.3346406    0.2508037 -43.48  0.001676847    1.665    0.399
        25  -9.9771    188.2667    174.6754   8.1274769918e+01   1.1719338408e+01     0.269388    0.1700362 -52.17  0.001215974    2.234    0.552
        26 -11.2611    139.4934    171.3889   9.0845110099e+01   2.0404900274e+01     0.397153    0.2389028  42.56  0.001231734    1.525    0.344
        27 -11.2758    132.9672    172.0831   9.2439471430e+01   2.1361485020e+01    0.3794394    0.1777281  31.95  0.001409725    2.136    0.532
        28  -9.9804     37.1114    167.8719   1.1566160718e+02   3.5620440219e+01    0.2786179    0.1454794  49.62 0.0007842374    1.641    0.391
        29 -10.6626     32.6687    165.0705   1.1658703676e+02   3.6694587112e+01    0.2738278     0.173103  44.45  0.001132503    1.385    0.278
        30 -10.3364    230.2305    166.0133   7.2280332269e+01   6.3473043666e+00     0.159817   0.08915374 -28.81 0.0005769874    1.648    0.393
        31 -13.0709     54.4233    146.5947   1.0894997324e+02   3.8606357766e+01     2.213751      1.01083 -50.46   0.00952935    2.539    0.606
        32 -10.3836    158.1325    160.8957   8.4858629917e+01   1.9111028775e+01     0.297522    0.2478479  78.65 0.0007260297    1.669    0.401
        33  -9.7049     48.1041    160.4623   1.1216605693e+02   3.6110258247e+01    0.1898496    0.1570005  82.51  0.000501343    1.105    0.095
        34 -13.4708     48.8425    107.8440   1.0523993397e+02   4.8841055114e+01     1.759884     1.229996  89.80   0.00902349    1.474    0.322
        35 -12.2632     89.4108    154.3241   1.0037341500e+02   3.2037346126e+01    0.5910906    0.4457964 -21.34  0.002112081    1.880    0.468
        36 -11.3129    133.6840    144.5233   8.7302537304e+01   2.6659840654e+01     1.055594    0.2832842 -54.53  0.002788169    5.653    0.823
        37  -9.3902    112.7123    150.7979   9.3717237061e+01   2.9060154374e+01    0.1922249    0.1564628  68.04 0.0005101514    1.338    0.253
        38 -10.1795     47.1753    172.5356   1.1349716917e+02   3.3511257724e+01    0.2585008    0.1503769 -69.33  0.001360391    1.741    0.426
        39 -10.5660    174.6520    148.9578   7.9027089599e+01   1.8238711201e+01    0.2604908    0.2273344  25.93  0.000791931    1.079    0.073
        40 -10.6078    144.0088    146.2191   8.5182889051e+01   2.4415744232e+01    0.3330641    0.2030886 -65.22  0.001410835    2.454    0.593
        41 -11.0802     39.6894    146.4943   1.1311549453e+02   4.0283981278e+01    0.3672642    0.2124891  39.32  0.001268528    1.606    0.377
        42 -10.9585    103.0749    139.5106   9.4215939798e+01   3.3174883064e+01    0.5185202    0.3470159 -22.36  0.002259611    2.346    0.574
        43 -12.4632     90.3890    139.5662   9.7725062506e+01   3.5243790078e+01    0.2691828    0.2612305 -28.48 0.0005826735    1.164    0.141
        44 -12.9407     44.1624    129.9517   1.0996913577e+02   4.3821371768e+01    0.6939327    0.4118613  81.91  0.002555833    1.800    0.444
        45 -11.1284    135.6179    127.6874   8.3275224155e+01   2.9760183316e+01    0.5105857    0.1429301 -49.54  0.001510454    3.916    0.745
        46 -11.1472     99.1233    126.2241   9.2742347924e+01   3.6891041811e+01    0.2911797    0.2548009 -12.44 0.0009494289    1.381    0.276
        47 -11.3526    119.1494    123.1752   8.6520437441e+01   3.3923128532e+01    0.6345417    0.4019619  -8.98  0.002235505    3.421    0.708
        48 -10.5528    105.9579    130.7871   9.1741396218e+01   3.4647945341e+01    0.3437694     0.302479 -89.73  0.001304284    1.208    0.172
        49 -10.4169    161.0020    127.9579   7.7387478762e+01   2.4650557468e+01    0.3464413    0.2141096 -49.54  0.001508615    1.770    0.435
        50  -9.9563    108.0560    119.0437   8.8658622213e+01   3.6940757939e+01    0.2116507    0.2054211  50.49 0.0003064437    1.030    0.029
        51 -10.3859    111.9549    130.1626   8.9970289658e+01   3.3714203130e+01    0.3223499    0.2630161   3.70     0.001147    1.544    0.352
        52  -9.7471    168.2643    113.1634   7.2295781008e+01   2.5910024064e+01    0.3305568    0.2270465 -71.35  0.001264414    2.358    0.576
        53 -10.4816    134.7891    104.5836   7.7884903799e+01   3.4748394428e+01    0.5285236    0.2046048 -39.71  0.001779966    2.759    0.638
        54 -11.2762    117.6128    109.8230   8.3800710076e+01   3.7175388485e+01    0.6525769    0.4029889  57.42  0.002756567    1.893    0.472
        55 -10.2550    205.4205    110.0776   6.4512309614e+01   1.8769416958e+01    0.2837456    0.2049952  40.24 0.0008546152    1.456    0.313
        56 -12.1946     32.1437    107.8538   1.1107879469e+02   5.0591599977e+01    0.4077942    0.3081811 -88.46  0.002313001    1.209    0.173
        57  -8.7172    142.7016    109.3208   7.7134118966e+01   3.2089292474e+01    0.1504183    0.1209704 -84.94 0.0004151203    1.621    0.383
        58 -11.6925     18.0776    109.5700   1.1616128390e+02   5.1325716181e+01    0.3918273    0.2326667  81.79  0.002029127    1.600    0.375
        59 -12.8236     82.5219    161.3949   1.0319431915e+02   3.1480189806e+01     1.004609     0.419447  54.85 0.0002020496    2.933    0.659
        60 -10.2797     29.9795     98.9754   1.1062673288e+02   5.3052144303e+01    0.2936443     0.146128  43.85 0.0009913812    2.059    0.514
        61 -13.8481     70.8698    156.4128   1.0562160772e+02   3.4219995273e+01    0.5558662    0.5084306 -29.56  0.001503339    1.352    0.261
        62 -10.9761     52.2899     92.1085   1.0102883421e+02   5.2414512571e+01    0.3970709    0.2338854 -36.78  0.001747753    2.097    0.523
        63 -14.8386     68.4889    144.1313   1.0463444732e+02   3.7394342564e+01     5.169783     1.901473  57.52  0.003401118    4.559    0.781
        64 -10.0149     75.2279     84.9634   9.0778940499e+01   5.0837788601e+01    0.2297501     0.208218  44.29 0.0003764239    1.145    0.126
        65 -10.1377    158.0151     81.6975   6.6022546143e+01   3.3972170144e+01    0.2097573    0.2027937  52.71 0.0005044538    1.060    0.057
        66  -9.1527    184.6175     77.1247   5.9580994474e+01   2.8520847637e+01    0.2112051    0.1359021 -19.92 0.0009086979    1.744    0.426
        67  -9.3824     58.0895     67.1775   9.2388176951e+01   5.7789291346e+01    0.2320399    0.1530967  58.33 0.0005777561    1.921    0.480
        68 -11.9950     11.0045     31.0967   1.0575220238e+02   7.1274005563e+01     0.533492    0.2475102  22.57  0.002151853    2.372    0.578
        69 -11.2554      2.8445     30.5677   1.1096750332e+02   7.1812882268e+01    0.3831865    0.2780485 -72.23  0.001622529    1.244    0.196
        70 -16.7543      7.6083    244.6124   1.2538581083e+02   2.3626759979e+01     1.523869     1.366852  25.62   0.01361021    1.545    0.353
        71 -12.9783     15.8670    190.7802   1.2206433330e+02   3.2743023977e+01    0.2756603    0.1909558  58.35 0.0007200157    1.114    0.103
        72 -16.5784     38.7219    249.1383   1.1990002387e+02   1.9970799990e+01     10.37445     3.058992  22.69   0.02664458   12.252    0.918
        73  -9.0633     70.4207     53.1529   8.2451694627e+01   5.8974055235e+01    0.1940846    0.1359978 -59.53 0.0003706114    1.570    0.363
        74 -11.7510    145.3013     49.7951   5.8594109511e+01   4.2547598965e+01    0.5944166    0.3649479 -78.83  0.001596677    2.625    0.619
        75 -13.6837    188.6533     46.0944   5.0011678462e+01   3.2173242906e+01     1.174284    0.7656458  42.74 0.0009720066    1.773    0.436
        76 -10.6335    147.4338     43.6680   5.6038201237e+01   4.2941270906e+01    0.2874496    0.2553951 -71.05 0.0005858561    1.164    0.141
        77 -11.4506    124.9408    244.1671   1.0329100748e+02   1.0658989296e+01    0.2672635    0.1937618 -81.32  0.001842972    2.112    0.527
        78  -9.7693    189.7716     14.8913   4.0565728375e+01   3.5652209249e+01    0.1974917     0.188968  11.82 0.0007449413    1.207    0.171
        79 -10.8439     13.4044     59.8248   1.1128984473e+02   6.4217470191e+01    0.2667528    0.2043821 -78.08  0.000456005    1.179    0.152
        80  -8.8587     63.6057    229.2186   1.1405965427e+02   2.0569566652e+01    0.1204679   0.05794312  49.36 0.0006856883    1.629    0.386
