#   1 NUMBER                 Running object number                                     
#   2 MAG_AUTO               Kron-like elliptical aperture magnitude                    [mag]
#   3 X_IMAGE                Object position along x                                    [pixel]
#   4 Y_IMAGE                Object position along y                                    [pixel]
#   5 X_WORLD                Barycenter position along world x axis                     [deg]
#   6 Y_WORLD                Barycenter position along world y axis                     [deg]
#   7 A_WORLD                Profile RMS along major axis (world units)                 [deg]
#   8 B_WORLD                Profile RMS along minor axis (world units)                 [deg]
#   9 THETA_WORLD            Position angle (CCW/world-x)                               [deg]
#  10 FWHM_WORLD             FWHM assuming a gaussian core                              [deg]
#  11 ELONGATION             A_IMAGE/B_IMAGE                                           
#  12 ELLIPTICITY            1 - B_IMAGE/A_IMAGE                                       
         1 -13.9363    222.8510      2.9628   3.9981177202e+01   2.8440843011e+01     2.340844    0.9449261  60.03  0.007624178    2.487    0.598
         2 -13.7437    180.9921     46.2068   5.7706122114e+01   3.4054538659e+01     1.166419    0.9476742  -5.35  0.000902248    1.379    0.275
         3 -14.0330    191.9489     36.9534   5.3124228619e+01   3.2454722036e+01      1.36836     1.063185 -29.26  0.003174294    1.262    0.208
         4 -14.7692    200.2452     27.1858   4.9061036098e+01   3.1520581063e+01     1.982284      1.46899  30.03  0.001332105    1.638    0.389
         5 -11.4478     65.5002      4.9979   6.8468390775e+01   6.7007417314e+01    0.2241083    0.1950051  67.82   0.00127942    1.592    0.372
         6 -12.2680     60.1703      2.6918   6.9177418991e+01   6.8254785640e+01      0.56718    0.2156836  38.93  0.002417389    2.661    0.624
         7 -11.5909     62.8276    237.2639   1.2177392902e+02   1.9485591834e+01     0.207403    0.1331985  66.57  0.001152061    1.249    0.199
         8 -16.3007     71.6848    149.2576   1.1125233395e+02   3.5787307398e+01     8.382315     4.063193  77.67   0.02996211    3.759    0.734
         9 -11.3325     55.9591    212.4973   1.2125493692e+02   2.4658322475e+01    0.4695783    0.3124918  48.63  0.001233387    1.288    0.224
        10 -13.7649     54.8839    203.4147   1.2076229922e+02   2.6500416324e+01    0.6370681    0.4548962  44.91  0.002599673    1.351    0.260
        11 -11.7327    130.4744    212.9332   1.0703951103e+02   1.3996108397e+01    0.2479954    0.2063466  77.48 0.0005263046    1.306    0.235
        12 -11.9381     38.8934    212.2798   1.2439152589e+02   2.6682849375e+01    0.3544897    0.1112113  48.12 0.0009499787    2.349    0.574
        13 -10.1038     44.2569    210.2568   1.2327407227e+02   2.6455521863e+01    0.3160759     0.183292  45.38  0.002058909    1.487    0.328
        14 -10.9129     42.2864    206.6156   1.2339666066e+02   2.7365559473e+01    0.2443493       0.2087 -58.30  0.001836009    1.646    0.392
        15 -19.2962      6.3610    140.9512   1.2636403915e+02   4.4600168014e+01     17.66513     1.903739 -78.77   0.04039909   10.033    0.900
        16 -12.4811    107.8028    203.0814   1.1027315200e+02   1.9255644619e+01    0.7385556    0.2066031  48.50  0.002596546    3.297    0.697
        17  99.0000     37.6744    224.6980   1.2534147081e+02   2.4571911355e+01    0.4949264    0.1592249  65.65  0.002242107    3.425    0.708
        18 -11.8377    106.5661    210.1143   1.1133257528e+02   1.8181504855e+01    0.4910702    0.2962161  47.67  0.001898175    1.372    0.271
        19 -12.5687     32.4680    206.6321   1.2522606895e+02   2.8441238339e+01    0.3778971    0.1281262  53.45  0.001647064    2.310    0.567
        20 -11.8365    193.0136    194.6692   9.2347623521e+01   6.3509803132e+00    0.8318818     0.452615 -61.68  0.002960148    5.352    0.813
        21 -10.7720     96.8036    200.4333   1.1217128978e+02   2.1405055408e+01    0.3131019    0.2529174 -27.31  0.001036753    1.936    0.483
        22  -9.8593     30.1651    223.5157   1.2657594426e+02   2.5592859153e+01    0.1711259   0.09502836  32.77 0.0008850063    2.093    0.522
        23 -11.2494    208.5778    196.8218   8.9887725926e+01   3.3992429786e+00    0.2270842    0.1908413  39.91 0.0006224223    1.266    0.210
        24 -12.4423     28.8635    196.7042   1.2529843447e+02   3.0735573686e+01    0.2044822    0.1478858  61.60 0.0006729642    1.128    0.113
        25 -16.5260     66.3917    247.0426   1.2181505159e+02   1.7472830264e+01     8.327011     2.658511  31.38   0.02962178    6.327    0.842
        26 -10.1443     81.1342    194.4580   1.1469950386e+02   2.4813404772e+01    0.4564979    0.1522363  49.99  0.001937425    2.699    0.630
        27 -13.4493     64.1097    190.2185   1.1777257975e+02   2.7945619268e+01    0.7002861    0.6792055 -80.71  0.005164386    1.384    0.278
        28  -8.9679     46.5077    190.9956   1.2142912313e+02   2.9939120262e+01    0.1600907   0.07607179  75.02  0.000802103    2.205    0.547
        29  -9.3957     52.6490    195.0513   1.2052679571e+02   2.8403406446e+01     0.224034   0.08321978  51.47 0.0008067989    2.274    0.560
        30  -9.7399     49.8308    216.8486   1.2269468807e+02   2.4593105090e+01    0.3385284    0.2321366  11.28  0.001940259    3.094    0.677
        31 -12.1620    149.7088    188.7370   9.9783508199e+01   1.4905792268e+01    0.4577008    0.3211699 -77.67  0.001570148    2.103    0.524
        32  -9.8460     32.2319    218.1273   1.2592903913e+02   2.6337319908e+01    0.2776338    0.1932264  18.91  0.001829333    2.444    0.591
        33 -10.1057     39.9623    194.3416   1.2298638833e+02   3.0011457575e+01    0.3273092    0.1459866  42.78  0.001687287    1.936    0.483
        34 -11.1778     99.4257    180.6575   1.0918420951e+02   2.4866049459e+01    0.2484733    0.2046287  64.23 0.0005668509    1.069    0.065
        35 -12.3747     76.3779    175.6492   1.1359855072e+02   2.9312368162e+01     0.380916    0.2811109 -40.33  0.002183158    1.924    0.480
        36 -12.3287     79.9877    171.0418   1.1222817640e+02   2.9782186578e+01     0.317578    0.2774121 -54.04  0.001020356    1.375    0.273
        37 -10.3985     59.1004    176.7364   1.1750488995e+02   3.1371882551e+01    0.2027457    0.1588024 -78.13 0.0004258696    1.222    0.182
        38 -10.6452     37.3423    176.1710   1.2212934962e+02   3.4028935251e+01    0.3294299    0.1610167  58.89  0.001798222    1.829    0.453
        39 -10.4256     97.0227    192.8760   1.1124365995e+02   2.2813050304e+01    0.3262698    0.2523863 -22.80  0.001553419    2.164    0.538
        40 -11.7127    142.5866    172.6143   9.8586576405e+01   1.9120099710e+01    0.3883862    0.2146096 -46.80  0.001833355    1.976    0.494
        41 -10.0742    201.6470    169.2950   8.6027513553e+01   8.6318203170e+00    0.2830835    0.1739774 -41.42  0.001425237    1.779    0.438
        42  -9.7744    205.1671    167.3212   8.4975810722e+01   8.2823419492e+00     0.437238    0.3085602  -0.08  0.002292979    1.624    0.384
        43 -11.1646    111.6469    217.6715   1.1119802210e+02   1.6111578646e+01    0.2158911    0.1648472  58.57 0.0003058713    1.118    0.106
        44 -10.1378    163.4744    169.1063   9.3542840325e+01   1.5880549343e+01    0.2559602    0.2142115 -81.03  0.001418404    1.538    0.350
        45  -9.3480     44.2008    219.7245   1.2389766397e+02   2.4725205096e+01    0.1510161    0.1195781 -57.60  0.001114671    1.792    0.442
        46 -10.5803    192.8824    165.3528   8.6908362662e+01   1.0911874103e+01    0.2689223    0.2487615  -1.12 0.0008475246    1.068    0.063
        47 -10.3838    104.5239    216.3186   1.1240601187e+02   1.7402436585e+01    0.1909256    0.1142472 -72.06 0.0007149173    1.971    0.493
        48 -10.0201    158.0840    161.8281   9.3287080658e+01   1.8249029045e+01    0.2137421    0.1879391  68.25 0.0006315654    1.250    0.200
        49 -12.5884     93.7904    154.5718   1.0666644712e+02   3.1298446768e+01    0.6579134    0.4660028 -35.37  0.003345203    1.953    0.488
        50 -10.7569    188.9320    154.8204   8.5508737851e+01   1.3441833033e+01    0.4809478    0.2407985  39.89  0.002072665    1.942    0.485
        51 -11.5057    133.7697    144.8621   9.5344702741e+01   2.6346986837e+01     1.120872    0.2990734 -54.95  0.002916113    5.431    0.816
        52 -12.0764     70.8805    206.9809   1.1796454936e+02   2.3800052957e+01    0.8939499    0.4117008  28.18  0.002106355    3.224    0.690
        53 -10.6671    174.4847    148.9692   8.7189850477e+01   1.7383883052e+01     0.279584    0.2424743  61.48 0.0008204337    1.282    0.220
        54 -10.8831    144.2904    146.6794   9.3288180848e+01   2.3913385192e+01    0.3829443    0.2596012 -73.67  0.001698942    2.090    0.521
        55 -11.4591    106.2734    140.1411   1.0107899731e+02   3.2452913437e+01    0.5686088    0.3746742 -39.06  0.002686054    1.838    0.456
        56  -9.5220    111.7074    141.3773   9.9965311762e+01   3.1216535653e+01    0.2429253    0.1519404  78.39 0.0007671344    2.451    0.592
        57 -12.4305     93.9406    140.0061   1.0416639388e+02   3.4563138038e+01    0.3158555    0.2946863  14.76 0.0004513091    1.318    0.241
        58  -9.1941    102.5156    133.4354   1.0072857331e+02   3.4628990348e+01    0.1436331     0.132287  86.87 0.0002146304    1.024    0.023
        59 -11.0306    105.9974    130.4184   9.9219006897e+01   3.4707626891e+01    0.4251024     0.292679 -59.94  0.002082242    1.426    0.299
        60 -10.8591    113.8599    130.3828   9.7191903169e+01   3.3287461793e+01    0.3260319    0.2846625  -7.83  0.001023894    1.453    0.312
        61 -11.0453    135.7959    127.4831   9.1081652108e+01   2.9643432917e+01    0.5604937    0.1832808 -52.29  0.001703466    3.524    0.716
        62 -10.1494    160.8014    128.0895   8.5401610133e+01   2.4251535850e+01     0.325617    0.2084374 -54.45  0.001418996    1.771    0.435
        63 -11.0739    101.3396    126.5383   9.9632086624e+01   3.6420063451e+01    0.2692555    0.2312538 -30.34 0.0005696911    1.384    0.277
        64 -11.1150    119.7968    123.4964   9.4153272860e+01   3.3707519662e+01    0.5787992    0.3569696 -18.99  0.002042086    3.364    0.703
        65  -9.7550    135.0000    119.9361   8.9485418592e+01   3.1431076982e+01     0.249729   0.08541228 -46.31 0.0007955548    2.895    0.655
        66 -10.1701    109.4404    119.1992   9.5874038706e+01   3.6648271401e+01    0.2338818    0.2023771  46.58 0.0003078181    1.194    0.162
        67 -10.5263     44.2619    197.9817   1.2240994174e+02   2.8807657555e+01    0.3590953    0.2292672  44.99  0.001215529    1.441    0.306
        68 -10.1719    167.5253    112.4276   7.9997274192e+01   2.5849195677e+01    0.3615549    0.2691612 -85.73  0.001406969    1.980    0.495
        69 -10.4873    135.0000    111.5384   8.7382814183e+01   3.3240603778e+01    0.5129614   0.08613473 -45.09  0.001147439    5.846    0.829
        70 -11.4002    118.4996    110.0552   9.1259639550e+01   3.6974099277e+01    0.5698583    0.3822171  52.12  0.002603963    1.577    0.366
        71 -10.0510    205.5330    110.1828   7.1832840659e+01   1.7619142979e+01    0.2573116    0.2105943  46.62 0.0005918174    1.278    0.217
        72 -10.1499     65.2077     99.9956   1.0430743900e+02   4.8381151630e+01    0.2354892    0.2052086  44.31  0.001052539    1.279    0.218
        73 -11.8506     52.9144     90.7952   1.0622483257e+02   5.2164334392e+01    0.4334135    0.2116372 -59.35  0.001651652    1.728    0.421
        74 -11.4274     41.8901     91.5251   1.1003079045e+02   5.3220481244e+01    0.2974028    0.2336236 -42.78 0.0007916851    1.328    0.247
        75  -8.9379     72.2931    230.4518   1.1963574005e+02   1.9433227727e+01    0.1435773   0.07883023  52.13 0.0003176811    1.394    0.283
        76  -9.0464    155.5310     80.4857   7.3604653162e+01   3.4852786468e+01     0.157404    0.1524209 -19.05 0.0001946345    1.025    0.025
        77 -10.1122     65.5623     70.5588   9.6596148658e+01   5.5232817571e+01    0.3014869    0.2013187  49.16  0.001508219    1.797    0.443
        78 -11.2631    158.8492     60.6872   6.6555805086e+01   3.7555129325e+01    0.3788753    0.2853956 -75.30 0.0006686294    1.691    0.409
        79  -8.7543    176.0000    240.9487   1.0231324990e+02   2.8451485113e+00     0.146063   0.06568833 -43.04 0.0006548466    2.853    0.649
        80 -11.7811     49.4542    233.4823   1.2382311929e+02   2.1717921415e+01     0.298253     0.145627  74.78  0.001818297    1.971    0.493
        81 -10.9179     53.7472    231.3041   1.2294969571e+02   2.1583052090e+01    0.1955512    0.1366678  79.37  0.000844182    1.238    0.193
        82 -10.9267     51.1435    226.0169   1.2306571589e+02   2.2803918555e+01    0.2100389    0.1169401  68.71  0.000646936    1.519    0.342
        83 -10.9222    161.2203     54.5417   6.4028420803e+01   3.7950783665e+01    0.2984849    0.2669533 -64.34 0.0007459368    1.186    0.157
        84 -10.3068     59.1920    228.2834   1.2179779614e+02   2.1445217094e+01    0.1492398    0.1134591  72.10 0.0003894616    1.099    0.090
        85 -10.7330    189.7929     14.9868   4.6570469820e+01   3.5623977320e+01    0.2475533    0.2057909  78.81 0.0006993812    1.175    0.149
        86 -10.4145     77.7015     14.2065   6.9065777413e+01   6.3526885717e+01    0.2822505    0.1693967  69.00  0.001232084    2.782    0.641
        87  -9.1724     35.7571    234.0021   1.2616662066e+02   2.3174234946e+01     0.135955   0.09083162  66.10 0.0003926349    1.067    0.063
