#   1 NUMBER                 Running object number                                     
#   2 MAG_AUTO               Kron-like elliptical aperture magnitude                    [mag]
#   3 X_IMAGE                Object position along x                                    [pixel]
#   4 Y_IMAGE                Object position along y                                    [pixel]
#   5 X_WORLD                Barycenter position along world x axis                     [deg]
#   6 Y_WORLD                Barycenter position along world y axis                     [deg]
#   7 A_WORLD                Profile RMS along major axis (world units)                 [deg]
#   8 B_WORLD                Profile RMS along minor axis (world units)                 [deg]
#   9 THETA_WORLD            Position angle (CCW/world-x)                               [deg]
#  10 FWHM_WORLD             FWHM assuming a gaussian core                              [deg]
#  11 ELONGATION             A_IMAGE/B_IMAGE                                           
#  12 ELLIPTICITY            1 - B_IMAGE/A_IMAGE                                       
         1 -14.1497    169.5467     46.0948   7.3152227900e+01   3.7043360092e+01     1.602432     1.111695  28.54   0.00507825    1.961    0.490
         2 -14.1093    192.1011     13.3454   6.1572439196e+01   3.5628982580e+01     1.294212    0.8943572 -77.13  0.005978999    1.403    0.287
         3 -13.7187    198.9085      6.3522   5.9206715749e+01   3.4773452173e+01     1.112956    0.5532221 -73.23  0.005225188    2.364    0.577
         4 -12.7301    205.3586      1.7562   5.7545026323e+01   3.3757727542e+01    0.7449343    0.2198816  71.80  0.002722394    2.858    0.650
         5 -14.4013    183.1604     31.7464   6.7237333449e+01   3.5634735622e+01    0.9321219    0.8723419 -22.32   0.00441727    1.307    0.235
         6 -13.7950    187.3202     25.2484   6.5040045628e+01   3.5424071818e+01    0.7279185    0.5971859 -88.24  0.001718385    1.095    0.086
         7 -12.0352     55.5897      5.7693   8.7458400960e+01   6.5399728162e+01    0.2199052    0.1105269  33.80 0.0007969224    1.709    0.415
         8 -19.1298     27.7108    106.5010   1.2905313839e+02   5.1298279321e+01     16.98488    0.8805342 -62.41   0.02886531   14.825    0.933
         9 -10.7686    159.4805    250.0724   1.2051124393e+02  -7.9550238720e-01    0.1712011     0.129106 -46.35      0.00102    1.562    0.360
        10 -12.8432    112.5344    196.4746   1.2235012541e+02   1.8119564614e+01    0.6643738    0.4304109   2.45  0.002361492    3.937    0.746
        11 -13.4468    116.4672    211.7014   1.2383033991e+02   1.4061488256e+01    0.4649729     0.424037  57.03 0.0007657232    1.073    0.068
        12  -9.9777    211.0426    202.2856   1.0203482220e+02  -1.4916235768e+00    0.1857558    0.1680608  21.21 0.0003434071    1.068    0.064
        13 -10.7883     94.7952    200.1262   1.2693762467e+02   2.0310290689e+01    0.4228818    0.2295907  77.63  0.001611265    2.956    0.662
        14 -12.5786    193.4581    193.5258   1.0388672724e+02   3.3688252494e+00    0.8863853    0.5381397 -58.93  0.003811858    2.207    0.547
        15 -13.5454     77.5565    192.3485   1.2974226012e+02   2.4821570845e+01    0.9216974    0.7407369 -57.10  0.005273593    1.329    0.247
        16 -12.0031    103.3273    195.0486   1.2423499300e+02   2.0044682992e+01    0.4041687    0.3287964  53.88  0.001463319    1.163    0.140
        17 -13.2319    107.9950    209.6814   1.2539027790e+02   1.5963345737e+01    0.6224295    0.4290177  51.50  0.002087454    1.335    0.251
        18 -13.1770    107.1060    202.9673   1.2459165949e+02   1.7602106672e+01    0.6074198    0.4701105  29.44  0.003211117    1.510    0.338
        19 -11.8006    211.0592    179.8439   9.7559590791e+01   2.6424406111e+00    0.4539067    0.2891458 -29.88  0.001880962    1.656    0.396
        20 -11.0143     90.6349    184.0088   1.2546961963e+02   2.4740313816e+01     0.346425    0.2170509  72.73  0.001539092    1.946    0.486
        21 -11.6863    207.7013    183.5891   9.8994379574e+01   2.5671743659e+00    0.4019957    0.2810549 -53.16  0.001168734    1.616    0.381
        22 -12.8693     11.2662    207.0908   1.4521453873e+02   2.9646441781e+01    0.4910024    0.3311251  45.57  0.003286685    1.560    0.359
        23 -11.1608    198.0119    176.5158   9.9500796748e+01   5.8193758389e+00    0.3216846    0.2845366  32.29  0.001065871    1.131    0.116
        24 -11.8059    197.0076    172.4670   9.8858700848e+01   6.8280461961e+00    0.4413986    0.3356685 -40.45  0.001228386    1.295    0.228
        25 -11.2329    145.8597    168.3259   1.0934714979e+02   1.8210346384e+01    0.2640929    0.2115286 -65.93 0.0004911491    1.329    0.248
        26 -11.9835     70.3127    161.1158   1.2678292926e+02   3.3381396831e+01     0.531177    0.3382068  60.29  0.002564419    1.751    0.429
        27 -12.7880    100.2166    155.7775   1.1813311481e+02   2.9931713237e+01    0.6878237    0.4422071 -35.93  0.002272459    1.960    0.490
        28 -10.8121     92.7461    206.3282   1.2826986856e+02   1.9241459570e+01    0.2849527    0.2697083  72.61  0.000869267    1.158    0.137
        29 -10.0348      5.6494    161.6137   1.4250919876e+02   4.0332193104e+01    0.1883499    0.1214523  18.84  0.001142442    2.174    0.540
        30  -9.4752    176.7120    154.7050   9.9326468514e+01   1.4756026897e+01    0.1512262    0.1231139  -2.15            0    1.549    0.354
        31 -11.7435     46.8245    154.1492   1.3167585128e+02   3.8122629795e+01    0.2348369    0.2085414  17.57 0.0008445646    1.426    0.299
        32 -11.6210    133.8253    144.9121   1.0722268766e+02   2.6103093391e+01     1.142518    0.2621872 -53.88  0.002513436    6.108    0.836
        33 -10.6428    174.9012    149.1087   9.8463214029e+01   1.6356932598e+01    0.2419682     0.212604 -87.28 0.0005482404    1.277    0.217
        34 -11.7128    144.6876    145.3946   1.0464614372e+02   2.3717557094e+01    0.3505588    0.2905318 -76.42  0.001079345    1.343    0.255
        35 -12.2830    110.2782    140.3601   1.1228401716e+02   3.1831816722e+01    0.5914294    0.3447109 -36.26   0.00236978    2.100    0.524
        36 -12.4100     99.0731    140.7909   1.1537359942e+02   3.3764887069e+01      0.28598    0.2738097 -40.75 0.0004255495    1.107    0.096
        37 -11.6800    117.1709    130.6464   1.0822871683e+02   3.2806543852e+01    0.4223239    0.3253693  13.71  0.001428207    1.704    0.413
        38 -11.9260    105.3353    128.9014   1.1101745463e+02   3.5475125822e+01    0.6583971    0.3397655 -60.87  0.002517909    2.204    0.546
        39 -10.5379    160.9784    127.9898   9.6628415421e+01   2.4053965529e+01    0.2651645    0.1988406 -84.75  0.001145457    1.767    0.434
        40 -11.3643    135.5453    124.2873   1.0189330990e+02   3.0487653229e+01    0.7874207    0.1481958 -50.47  0.001599664    6.971    0.857
        41 -10.8914    125.3209    127.1837   1.0524508240e+02   3.1972283245e+01    0.3024927    0.2023543  70.84  0.001072309    2.111    0.526
        42 -10.3484    111.6219    119.7952   1.0710285617e+02   3.6403551054e+01    0.2340758    0.2094611  24.02 0.0005183136    1.213    0.175
        43 -11.0220     73.0311    117.4541   1.1759833544e+02   4.3531468974e+01    0.2013996    0.1423481  32.34  0.001018148    1.562    0.360
        44 -11.4482     67.7104    117.0060   1.1907630495e+02   4.4393865929e+01    0.2084329    0.1699549 -54.34 0.0005953459    1.105    0.095
        45 -10.5860    168.5368    113.3543   9.1262573157e+01   2.5441621201e+01    0.3665613     0.264025 -73.03  0.001057164    1.769    0.435
        46 -10.3716    205.1414    110.3599   8.3140949675e+01   1.7576583078e+01    0.3104674    0.2241351  34.90  0.001040884    1.701    0.412
        47  -9.4356    153.9585    103.9506   9.2140627754e+01   3.0763122525e+01    0.1810028    0.1720563  59.09 0.0009420698    1.049    0.046
        48 -10.8989     66.0234    104.4984   1.1670246397e+02   4.7493569832e+01    0.1996613     0.138057  32.28  0.001032569    1.590    0.371
        49 -10.3611    150.6087    101.3384   9.2233699101e+01   3.2068889805e+01    0.2557544    0.2210975  86.32  0.001271221    1.284    0.221
        50  -9.5516    151.3015     79.3069   8.6029356626e+01   3.6140973559e+01    0.1492053    0.1185293  16.35 0.0002591933    1.598    0.374
        51 -10.1946    176.8392     75.0203   7.9561737505e+01   3.0771991374e+01    0.2277343    0.1870268 -76.05 0.0005265939    1.288    0.224
        52 -10.5823     69.7832    228.1801   1.3572148329e+02   1.7984262155e+01    0.2590088    0.1762072  87.07 0.0008512349    1.385    0.278
        53 -11.1875     13.6671     59.9070   1.2348283016e+02   6.2109114737e+01    0.1817963    0.1605752  -1.41 0.0004387963    1.279    0.218
        54 -10.6019    168.2540    248.0538   1.1848307041e+02  -1.9381742661e+00    0.1715137    0.1539537  38.15 0.0002209275    1.064    0.060
        55 -17.9104     37.6424    243.1210   1.4308575441e+02   1.9200949391e+01     8.527758      6.39177  37.27   0.05796512    1.668    0.400
        56 -10.0190    182.4233    241.2083   1.1462130797e+02  -3.2027988089e+00    0.1641852    0.1269493 -60.36 0.0009443857    1.700    0.412
        57 -11.9665    171.2673    239.1214   1.1652034448e+02  -9.5064564443e-01    0.3374589    0.2891868  89.51  0.001925331    1.521    0.343
        58 -10.8838    176.7281    235.0104   1.1476718572e+02  -1.1889212497e+00     0.175933    0.1683224  11.76 0.0004410652    1.107    0.097
        59 -10.5061     78.7057    232.3422   1.3439430296e+02   1.5809513507e+01    0.2063181    0.1844957  65.24 0.0005867424    1.183    0.155
        60 -10.4863     88.0230     13.0367   8.0346319099e+01   5.9058750324e+01    0.1647057    0.1480507 -87.62 0.0003677796    1.575    0.365
        61 -11.5442     10.6397     37.0011   1.1801357900e+02   6.6397609695e+01    0.1919902    0.1394206   3.26 0.0005179098    1.367    0.268
