#   1 NUMBER                 Running object number                                     
#   2 MAG_AUTO               Kron-like elliptical aperture magnitude                    [mag]
#   3 X_IMAGE                Object position along x                                    [pixel]
#   4 Y_IMAGE                Object position along y                                    [pixel]
#   5 X_WORLD                Barycenter position along world x axis                     [deg]
#   6 Y_WORLD                Barycenter position along world y axis                     [deg]
#   7 A_WORLD                Profile RMS along major axis (world units)                 [deg]
#   8 B_WORLD                Profile RMS along minor axis (world units)                 [deg]
#   9 THETA_WORLD            Position angle (CCW/world-x)                               [deg]
#  10 FWHM_WORLD             FWHM assuming a gaussian core                              [deg]
#  11 ELONGATION             A_IMAGE/B_IMAGE                                           
#  12 ELLIPTICITY            1 - B_IMAGE/A_IMAGE                                       
         1 -14.8048     68.5372    144.2442   1.0740137987e+02   3.7373296715e+01     5.415413     2.660613  66.01  0.003968536    3.366    0.703
         2 -13.8777    187.9085     45.1280   5.1613739920e+01   3.2461848014e+01     1.321802    0.9389775  33.96 0.0009994508    1.736    0.424
         3 -14.2687    197.5176     37.7408   4.8155324070e+01   3.1047622863e+01     1.527278     1.308126 -10.65   0.00405421    1.384    0.278
         4 -14.5915    208.1635     26.2446   4.3754540633e+01   2.9864516889e+01     1.674517     1.250695  14.44  0.002867422    1.933    0.483
         5 -10.9243     61.8592      7.6885   6.7313350171e+01   6.6053148069e+01     0.266432    0.1501526 -24.90  0.001038536    1.711    0.416
         6 -10.9448     41.5118      6.9853   7.5267068574e+01   6.9357879418e+01    0.1821335    0.1017849 -27.29  0.001041654    1.617    0.381
         7 -12.5201    233.6508      2.8801   3.5724713531e+01   2.6473666013e+01    0.6390201    0.3279306  61.44  0.002530794    2.007    0.502
         8 -11.8518    229.0112      2.2314   3.5922075758e+01   2.7594853078e+01     0.401763    0.2271291  71.65  0.001378094    1.665    0.399
         9 -11.0168     57.3583      3.3397   6.6795690200e+01   6.7289531403e+01    0.2156641    0.1791015 -58.58  0.001038726    2.040    0.510
        10 -10.3674     30.2478      2.9993   7.8453974203e+01   7.1361162984e+01     0.153529   0.08293946 -29.25    0.0008971    1.626    0.385
        11 -11.0626    208.0230    196.2867   8.4894223160e+01   1.5748426584e+00    0.1954355    0.1618468  23.67 0.0009579868    1.086    0.079
        12 -10.8901    139.6797    249.5182   1.0636039242e+02   4.6193484977e+00     0.233563    0.2031548  88.75   0.00147445    1.388    0.280
        13 -10.5538    117.6365    250.2786   1.1052911377e+02   7.8800604009e+00    0.2127736    0.1489677  54.18  0.001383086    1.194    0.163
        14 -13.0815     72.7041    173.5955   1.1073871265e+02   2.9828336375e+01     1.015738     0.518867 -34.45  0.003422865    4.888    0.795
        15 -14.7461     85.4165    229.0454   1.1442795730e+02   1.6356074374e+01     1.471714     1.089789 -78.73  0.009515456    1.404    0.288
        16 -15.0046     46.4175    223.1778   1.2133479132e+02   2.2648217426e+01     1.556549     1.012938  51.34  0.005775231    1.303    0.233
        17 -16.3892     50.6171    198.8144   1.1847250408e+02   2.7122168268e+01     16.47276     5.647415 -84.41   0.01700849    4.906    0.796
        18  -9.4819     94.6561    187.1028   1.0752888634e+02   2.3500183017e+01     0.185982    0.1571758 -77.66 0.0004090784    1.163    0.140
        19  -9.6176     98.4362    185.4385   1.0643397470e+02   2.3262338359e+01    0.4160883    0.2202123  75.50  0.001530005    3.379    0.704
        20 -10.5320     99.4121    180.7074   1.0551018735e+02   2.4147459631e+01    0.2505048    0.2279224  66.86 0.0005902714    1.041    0.039
        21 -11.0629    146.5958    182.8281   9.5113821433e+01   1.5342589018e+01    0.2956023    0.2655669  65.26 0.0008983449    1.148    0.129
        22 -13.2456     18.4160    192.0241   1.2447548965e+02   3.2110721951e+01    0.4090359    0.2765179  66.49  0.000543058    1.223    0.182
        23  -9.7118    204.5622    176.3218   8.1649567727e+01   5.5064785152e+00    0.2691807    0.1315141 -43.57    0.0011443    2.173    0.540
        24 -11.5064    141.1670    174.2089   9.4752394820e+01   1.8145035005e+01     0.551816    0.3817725 -88.07  0.002429902    2.202    0.546
        25 -16.4437     56.9872    247.3534   1.2118862166e+02   1.6846409424e+01     8.345545     2.663262  29.82    0.0118782    9.478    0.894
        26 -11.2253    131.5940    172.7274   9.6682821277e+01   2.0263411738e+01    0.3829042    0.2666969  17.68  0.001743791    1.984    0.496
        27 -13.2112     83.2937    162.0912   1.0649832626e+02   3.0957150742e+01     1.633901    0.5790297  55.64 0.0003956921    4.790    0.791
        28 -13.7974     71.6439    157.2037   1.0865238730e+02   3.3822289037e+01    0.5775236    0.5131857 -37.43  0.002556082    1.376    0.273
        29 -10.8859    124.6831    243.5226   1.0847106207e+02   7.9006657492e+00    0.3242493    0.1454572 -63.01  0.001564411    3.008    0.668
        30  -8.9603     84.6396    173.7500   1.0793881506e+02   2.8044102233e+01    0.1253153    0.1090222 -10.79 0.0004684987    1.610    0.379
        31 -11.4856    133.7552    144.5285   9.0498098777e+01   2.6089450438e+01     1.235353    0.3087066 -54.28   0.00290256    5.767    0.827
        32 -11.0704    174.2210    148.8568   8.2026135968e+01   1.6738419597e+01    0.3658541     0.315138 -69.22  0.001385005    1.365    0.267
        33  -9.6772     81.6470    194.9311   1.1144671423e+02   2.3779721412e+01    0.2349068    0.1621992  54.69  0.001199059    1.305    0.234
        34 -10.9126     44.7714    144.5881   1.1371793854e+02   4.0244804961e+01    0.3607983    0.2117696  50.20   0.00113992    1.785    0.440
        35 -10.4180     85.0142    144.3114   1.0303473673e+02   3.4934104302e+01    0.2588068    0.2115206  76.18  0.000556408    1.263    0.208
        36 -11.0967    103.3832    140.2858   9.7377668244e+01   3.2838620533e+01    0.5239528    0.3572679 -28.63  0.002265282    2.020    0.505
        37 -12.3478     90.8930    140.0970   1.0066964616e+02   3.5009983651e+01    0.3022283    0.2664805 -61.89 0.0004021923    1.084    0.077
        38 -10.3482    143.4162    145.6397   8.8385957652e+01   2.3877511211e+01    0.3081072    0.1393744 -60.39 0.0009599721    3.384    0.704
        39 -11.9640     74.0694    188.6985   1.1235580393e+02   2.6229513945e+01     0.532689    0.2678847  69.74  0.001782679    2.628    0.619
        40  -9.3793     97.4660    190.9517   1.0743493335e+02   2.2220295846e+01    0.1877115     0.127792 -61.86 0.0004549447    1.509    0.337
        41 -11.4788    135.8692    128.4814   8.6264408430e+01   2.9273540142e+01    0.5908923    0.2167583 -51.48  0.001714003    2.935    0.659
        42 -10.6177    105.9313    130.7478   9.4654229203e+01   3.4647522237e+01    0.3618541    0.3086615 -75.01  0.001168007    1.202    0.168
        43 -10.5711    112.2569    130.4666   9.2886680477e+01   3.3539454591e+01    0.3161479    0.2682115   4.60 0.0008425131    1.467    0.318
        44  -9.4661    159.8374    197.0534   9.4761031988e+01   1.0133506519e+01    0.1957027    0.1766522  66.87 0.0002866401    1.223    0.182
        45 -10.3563    159.6620    163.0371   8.8344823664e+01   1.6847662295e+01    0.3369268    0.2529882 -66.86  0.001017105    1.647    0.393
        46 -10.5213    111.8934    197.3603   1.0515418551e+02   1.8520514437e+01    0.2644862    0.1720837  27.31  0.001304797    1.861    0.463
        47 -10.6564    160.5014    127.9338   8.0159676650e+01   2.4055080142e+01    0.4192889    0.2811125 -58.69  0.001488637    1.743    0.426
        48 -11.0794     99.4927    126.5720   9.5487707402e+01   3.6796640082e+01    0.2871631    0.2484705 -11.30 0.0001231415    1.409    0.290
        49  -9.0702     95.4302    127.4290   9.6807340532e+01   3.7298409496e+01    0.1482624    0.1372036 -79.32 0.0001392141    1.052    0.049
        50 -11.6877    119.3860    123.2884   8.9289183355e+01   3.3831608994e+01     0.628374    0.4119558 -10.55  0.002294219    2.916    0.657
        51 -11.0385    135.2835    120.6015   8.4460859010e+01   3.1163367386e+01    0.4450291    0.1375694 -47.71  0.001314583    3.237    0.691
        52 -10.0769    108.2736    119.1962   9.1324356825e+01   3.6938378286e+01    0.2234746    0.2047327  22.91 0.0003689766    1.196    0.164
        53 -11.8711     45.4224    114.7940   1.0884372360e+02   4.7403631567e+01    0.6059086    0.2118357  43.91  0.002327729    3.338    0.700
        54 -12.2552     43.6477    109.0618   1.0832734019e+02   4.8978809634e+01     0.457554    0.3841592  45.41  0.002796203    1.359    0.264
        55 -10.0056    167.9025    112.8623   7.4613176736e+01   2.5510625154e+01    0.4069437    0.2712452 -80.98  0.001499361    2.660    0.624
        56 -12.0782    117.5954    107.8332   8.5838431505e+01   3.7727223243e+01    0.7176943    0.5042577 -40.71  0.003286972    1.411    0.291
        57 -11.1677     33.0437    108.0109   1.1142087296e+02   5.0278098400e+01    0.4295767    0.1767453 -72.38  0.001783501    2.417    0.586
        58 -10.6415    134.5494    104.8000   8.0471591565e+01   3.4802464532e+01     0.575382    0.1508398 -45.15  0.001571571    3.753    0.734
        59 -12.1790     89.9671    154.9907   1.0364823935e+02   3.1595223667e+01    0.6080325    0.4352787 -28.01  0.002898393    2.013    0.503
        60 -11.3139    241.3695    100.2500   5.7923968071e+01   1.1258109624e+01    0.3993845    0.1110655 -37.94  0.001330868    3.024    0.669
        61 -10.1566    205.4617    110.1786   6.6274013472e+01   1.7360551929e+01     0.308613    0.2180856  41.42 0.0007564143    1.521    0.342
        62 -10.9456     33.7295    100.4971   1.0984659574e+02   5.2008898916e+01    0.2503051    0.2058906 -66.71 0.0007051646    1.048    0.046
        63  -9.1046    164.6786     97.3018   7.1104914109e+01   2.9392747043e+01    0.1601217    0.1251631 -78.37 0.0003549858    1.629    0.386
        64 -11.4837     53.3146     93.3266   1.0187495107e+02   5.1637175202e+01    0.5915689    0.3918215 -74.17  0.002966896    1.704    0.413
        65  -9.7463     31.9492     96.1593   1.0959729085e+02   5.3197112182e+01    0.1832643     0.157225 -85.67 -0.000430966    1.211    0.174
        66  -9.1618    108.4275     93.2692   8.4393188549e+01   4.2811286899e+01    0.2019329    0.1428805 -56.11 0.0004240354    1.490    0.329
        67 -11.2019     41.8920     90.7781   1.0514201309e+02   5.3505430742e+01    0.4230101    0.2309467 -57.98  0.001037592    1.528    0.345
        68  -9.1930    160.3184     87.6662   6.9331336549e+01   3.2314282753e+01    0.1634422    0.1237748 -74.09 0.0007048555    1.696    0.410
        69 -10.2494    157.7988     81.1439   6.7976947641e+01   3.4159024751e+01    0.2398975    0.2156574 -74.53 0.0006825529    1.209    0.173
        70  -9.3152    184.5970     77.1531   6.1324269892e+01   2.8261065567e+01    0.2141021    0.1472084 -21.30 0.0006500207    1.684    0.406
        71  -9.6248     58.2529     67.3091   9.3027342101e+01   5.6821944728e+01    0.2775298     0.163178  40.89  0.001360622    1.981    0.495
        72 -11.3286     13.3384     59.8484   1.0847771239e+02   6.2813055848e+01    0.4241509    0.2844585  63.11 0.0004910894    2.319    0.569
        73 -12.1941     11.5216     52.6255   1.0739103129e+02   6.4453292305e+01    0.3881314    0.2133204 -46.28  0.002263441    1.391    0.281
        74 -17.2629      8.3993    244.6886   1.2913955180e+02   2.2796178436e+01     2.023291     1.520479  41.39   0.01492306    1.600    0.375
        75  -9.1644    131.0256    214.2185   1.0348981837e+02   1.2002501759e+01     0.175257    0.1497832  51.59 0.0002630482    1.027    0.026
        76  -9.6737    104.2012    212.1926   1.0878085223e+02   1.6772240164e+01    0.2757562    0.1536476 -42.56  0.001306343    2.557    0.609
        77 -11.7458    148.0268     52.0063   6.1014910223e+01   4.1564275693e+01    0.6070209    0.3804286 -79.26  0.001016148    2.761    0.638
        78 -10.9441    149.6319     45.4972   5.8540721095e+01   4.2135766634e+01    0.2818047    0.2517709 -71.28 0.0004214111    1.215    0.177
        79  -9.7722     31.1428     36.1741   9.3365918341e+01   6.6107223382e+01    0.1486787    0.1429346 -16.15 0.0006527808    1.337    0.252
        80 -11.2303     23.4262     34.2330   9.6197505328e+01   6.7194513778e+01      0.23893    0.1527632  21.17  0.001158278    1.732    0.423
        81  -9.4262    189.3577     15.0353   4.2907304194e+01   3.5811438168e+01    0.1862654    0.1690645 -59.93 0.0005285253    1.102    0.093
        82 -10.1428    107.4832    210.4552   1.0787713841e+02   1.6594268568e+01    0.2455258    0.1409119  47.55  0.000670903    1.525    0.344
        83 -16.8991      6.1443    212.5545   1.2802151446e+02   2.9049333986e+01     5.566769     0.758994 -69.49   0.02125079    4.888    0.795
        84 -10.4609    113.1284    207.4039   1.0628808518e+02   1.6285317830e+01    0.2255995    0.1815457 -83.82 0.0003554912    1.327    0.247
        85 -12.1150    193.3316    195.2685   8.7569247211e+01   4.3470858190e+00     1.158621    0.5894811 -61.76  0.003408526    6.361    0.843
        86 -10.6679    108.0897    203.7961   1.0687199806e+02   1.7828436124e+01    0.2114027    0.1602176  65.21 0.0007085762    1.266    0.210
