#   1 NUMBER                 Running object number                                     
#   2 MAG_AUTO               Kron-like elliptical aperture magnitude                    [mag]
#   3 X_IMAGE                Object position along x                                    [pixel]
#   4 Y_IMAGE                Object position along y                                    [pixel]
#   5 X_WORLD                Barycenter position along world x axis                     [deg]
#   6 Y_WORLD                Barycenter position along world y axis                     [deg]
#   7 A_WORLD                Profile RMS along major axis (world units)                 [deg]
#   8 B_WORLD                Profile RMS along minor axis (world units)                 [deg]
#   9 THETA_WORLD            Position angle (CCW/world-x)                               [deg]
#  10 FWHM_WORLD             FWHM assuming a gaussian core                              [deg]
#  11 ELONGATION             A_IMAGE/B_IMAGE                                           
#  12 ELLIPTICITY            1 - B_IMAGE/A_IMAGE                                       
         1 -14.0719    168.4986     48.8549   7.0654932242e+01   3.6777560536e+01     1.787762      1.11691  26.85  0.005309632    2.102    0.524
         2 -14.2057    182.2370     34.3986   6.3716293346e+01   3.5200417556e+01     1.080924    0.9648907  27.81  0.003759606    1.192    0.161
         3 -13.3653    186.6183     27.8854   6.1047140823e+01   3.4863610737e+01    0.5940602    0.5270379  68.90  0.001372631    1.095    0.087
         4 -12.4028    189.6160     14.9913   5.6724592666e+01   3.5532368609e+01    0.3003505    0.2717608  16.00 0.0008653488    1.229    0.186
         5 -11.7707     84.1643     11.9520   7.6825850392e+01   6.1337088694e+01    0.5790651    0.2842701  64.74  0.002278097    3.497    0.714
         6 -13.6128    205.5672      3.3338   5.1559819038e+01   3.2597494764e+01     0.929386    0.5089313  42.82  0.003028286    2.137    0.532
         7 -12.6113    201.1242      2.8650   5.1873793520e+01   3.3771287863e+01    0.4762885    0.3337787  74.68  0.001675095    1.339    0.253
         8 -10.1852     74.7190      9.5758   7.8748157636e+01   6.3413245378e+01    0.1588407    0.1236574  54.22 0.0004721943    1.554    0.356
         9 -11.7711     65.3421      7.5339   8.1013993328e+01   6.5325746530e+01    0.3513623    0.2069365  52.76  0.001276562    2.086    0.521
        10 -12.2338     55.1876      5.6661   8.3911653880e+01   6.7224076571e+01    0.2880369    0.2176192  46.28  0.001102189    1.627    0.386
        11 -11.1692     16.3623    201.1140   1.3612732099e+02   3.1619303913e+01    0.1499541    0.1136237  62.52  0.001191849    1.188    0.159
        12 -18.6576     46.6668    243.7252   1.3353997956e+02   2.1003630761e+01     6.130324     5.109532  55.84   0.05271487    1.372    0.271
        13 -19.1016     30.0609    107.5928   1.2439452944e+02   5.0036947579e+01     16.11152    0.8059772 -67.18   0.02682256   16.656    0.940
        14  -9.8396     63.9183    186.4959   1.2604067299e+02   2.9159080136e+01    0.1691182    0.1000202  47.57  0.000752191    1.523    0.343
        15 -12.4473    193.4435    192.6222   1.0109038186e+02   6.7371352392e+00    0.7177095    0.4309981 -48.84  0.002901651    2.131    0.531
        16 -11.1660    208.5202    178.4883   9.5714680789e+01   6.0632859240e+00    0.3502387    0.2259693  11.42  0.001735799    1.935    0.483
        17 -10.7687    144.5188    179.4939   1.0844210279e+02   1.7864074029e+01    0.1338174    0.1199819  50.57 0.0001000885    1.001    0.001
        18 -11.7270    195.8877    169.8411   9.6404597839e+01   9.7789623893e+00     0.425802    0.3311073 -30.75  0.001826824    1.363    0.266
        19 -10.8444    193.3196    164.6466   9.5866376400e+01   1.1116553927e+01    0.3520634    0.3191662  41.44  0.002105475    1.117    0.105
        20 -10.5059    209.1029    198.1155   9.9192593648e+01   3.1804565309e+00    0.1807087    0.1557254  74.07  0.001118615    1.712    0.416
        21 -11.6240    144.1726    172.9313   1.0740043086e+02   1.9135926413e+01     0.213646    0.1790018  73.22 0.0007840266    1.290    0.225
        22 -10.2090      1.5763    163.0977   1.3664847554e+02   4.0319292055e+01    0.1482804   0.09699624 -84.37 0.0006948751    1.188    0.158
        23 -10.0232    142.0096    158.6857   1.0529017706e+02   2.2259476847e+01    0.1928081    0.1708319  52.86 0.0003731601    1.060    0.056
        24 -10.7144    154.3415    196.1237   1.0914295987e+02   1.3208272949e+01    0.3100956    0.1759407  67.28  0.001315911    2.972    0.663
        25 -11.0828    119.8599    156.1337   1.0975261535e+02   2.6857073127e+01    0.2815998    0.2004645  81.04  0.001406846    1.752    0.429
        26 -11.0415    166.6016    154.6286   9.9219220478e+01   1.8195763146e+01    0.3975464    0.2493297  76.70  0.001501874    3.209    0.688
        27 -10.5775     11.4734    153.0680   1.3391198009e+02   4.1606016222e+01    0.2068503    0.1626768  51.61 0.0009308541    1.364    0.267
        28 -10.9535    151.9759    151.3247   1.0167544092e+02   2.1750138655e+01    0.2593185    0.2028496 -82.87   0.00110946    1.655    0.396
        29 -12.9487    133.9521    145.0144   1.0443103494e+02   2.6537173922e+01      1.11561    0.3029938 -54.39  0.003069149    5.058    0.802
        30  -9.1341    179.2662    206.2787   1.0599242881e+02   7.2390985334e+00    0.1185805   0.08853853  16.26            0    1.483    0.325
        31 -10.5793    174.8563    149.0954   9.6343733295e+01   1.7521689128e+01    0.2188223    0.1984356  78.41 0.0006253389    1.275    0.216
        32 -12.4805    144.5158    146.0439   1.0224690405e+02   2.4267340496e+01    0.4786879    0.3570059 -79.60  0.002334712    1.764    0.433
        33 -12.2356     85.0781    143.2710   1.1570050576e+02   3.5342505226e+01     0.311159    0.2178313  38.86  0.001082943    1.519    0.341
        34 -12.4446     99.5289    139.6291   1.1154835852e+02   3.3865669269e+01    0.2695172    0.2516684  49.60 0.0006789543    1.140    0.123
        35 -10.1349     86.5892    135.7971   1.1404963914e+02   3.6769970404e+01    0.1814801    0.1215415 -73.81 0.0002815408    1.541    0.351
        36 -11.8498    105.9898    130.9978   1.0828968889e+02   3.4661803185e+01    0.3485686    0.3188221 -89.89  0.001244627    1.057    0.054
        37 -11.3345    105.0990    126.3099   1.0755130612e+02   3.5846899517e+01    0.3253469    0.2472813 -40.35  0.000847315    1.435    0.303
        38 -12.3834    135.4169    123.9412   9.9529556638e+01   3.0610276672e+01    0.6500717    0.1904036 -47.66   0.00201237    3.471    0.712
        39 -12.6148    117.4679    129.9718   1.0523358090e+02   3.2821644493e+01    0.4209977     0.335637  23.66  0.001343549    1.510    0.338
        40 -10.3608    127.3077    123.3014   1.0134634032e+02   3.2367116255e+01    0.1435721    0.1176649  -3.81 0.0002905184    1.599    0.375
        41 -10.9470    111.8889    119.1277   1.0425990567e+02   3.6205186266e+01    0.2871017    0.2327963  33.49 0.0004768556    1.349    0.258
        42 -11.8246     12.1068    116.2203   1.3035222986e+02   4.9540566817e+01    0.2195158    0.1456057 -88.04  0.001420432    1.272    0.214
        43 -11.0824    167.9490    112.8839   8.9357839212e+01   2.5791494216e+01    0.4091857    0.3094845 -80.37  0.001516804    1.870    0.465
        44 -10.5721    205.4673    110.1920   8.1143883487e+01   1.7697078530e+01    0.3310914    0.2065133  41.61 0.0009406169    1.642    0.391
        45 -13.1149     61.7390    108.9289   1.1567850755e+02   4.6336045949e+01    0.3908532    0.3645357 -20.26  0.002516731    1.283    0.220
        46 -12.1438     66.6839    104.6257   1.1340780692e+02   4.6674128873e+01     0.289633    0.2360096  -3.83  0.001657468    1.639    0.390
        47 -11.3326    161.4317    128.3171   9.4566815643e+01   2.4262843213e+01    0.4080423    0.2954682 -72.19  0.001840075    1.923    0.480
        48  -9.6044     77.7037    104.6981   1.1026969277e+02   4.5112761014e+01    0.1342418    0.1026702 -29.19 0.0002321358    1.578    0.366
        49 -10.0627    152.0625    102.6925   9.0262602285e+01   3.1356795626e+01    0.2061356    0.1951464  41.55 0.0003330528    1.058    0.055
        50  -9.8772     64.1623     98.1837   1.1277748714e+02   4.8467132015e+01     0.183708    0.1480617 -88.12 0.0005982969    1.344    0.256
        51  -9.5807    127.2727     94.6315   9.4129790294e+01   3.8392765134e+01    0.1534247    0.1179589 -75.57 0.0004152079    1.672    0.402
        52  -9.7934      1.6498     91.9777   1.3038052327e+02   5.5567001152e+01    0.1596894    0.1111163 -72.95  0.000710189    1.084    0.078
        53  -9.9635    151.3880     79.8008   8.3928366362e+01   3.5881960888e+01    0.2114447    0.1468847 -25.75 0.0004450791    1.557    0.358
        54 -11.3926    175.8212     74.1553   7.7003497742e+01   3.0927453635e+01    0.3359835    0.2750901 -71.41 0.0006644317    1.449    0.310
        55 -10.1703     77.5486     74.8038   1.0275157682e+02   5.1713558615e+01    0.3204753    0.1744859  54.96  0.001171122    2.634    0.620
        56 -10.9106     13.6431     59.9378   1.2110688563e+02   6.1851486030e+01    0.1752115    0.1690398  77.60 0.0004433779    1.286    0.223
        57  -9.5668    169.3175    237.3047   1.1220144970e+02   4.5852577685e+00    0.1134552   0.07901745  20.68 0.0002865774    1.627    0.385
        58 -10.5584    158.3887    204.4029   1.0962423011e+02   1.1156399795e+01    0.3460687    0.1705999  64.10  0.001213617    4.486    0.777
        59 -10.2815    198.8972    222.7066   1.0500113835e+02   1.6811378693e+00    0.1710528    0.1260751  37.52 0.0004632086    1.120    0.107
        60 -11.6582     97.3561    213.1437   1.2233621588e+02   1.9544175759e+01    0.2994388     0.198971  42.38  0.001884576    1.386    0.278
        61 -10.4783      9.9744    214.1301   1.3787714709e+02   2.9860541767e+01    0.1202809   0.06226909  33.70 0.0004795083    2.269    0.559
        62 -10.5933    163.2313    211.0477   1.0969555008e+02   9.2934135371e+00     0.212266    0.1586256 -51.57  0.000918034    1.634    0.388
        63 -10.7863    167.1013    188.0582   1.0533888549e+02   1.2250857853e+01    0.2562968    0.1918381 -51.57  0.001164981    1.565    0.361
        64 -10.1003    163.3293    204.0046   1.0862608323e+02   1.0360854606e+01    0.1628246    0.1568757  43.57 0.0004615647    1.141    0.124
        65 -13.6701     10.3989    206.6280   1.3744370564e+02   3.1166802595e+01    0.5003281    0.2454514  33.20  0.003226503    2.380    0.580
