#   1 NUMBER                 Running object number                                     
#   2 MAG_AUTO               Kron-like elliptical aperture magnitude                    [mag]
#   3 X_IMAGE                Object position along x                                    [pixel]
#   4 Y_IMAGE                Object position along y                                    [pixel]
#   5 X_WORLD                Barycenter position along world x axis                     [deg]
#   6 Y_WORLD                Barycenter position along world y axis                     [deg]
#   7 A_WORLD                Profile RMS along major axis (world units)                 [deg]
#   8 B_WORLD                Profile RMS along minor axis (world units)                 [deg]
#   9 THETA_WORLD            Position angle (CCW/world-x)                               [deg]
#  10 FWHM_WORLD             FWHM assuming a gaussian core                              [deg]
#  11 ELONGATION             A_IMAGE/B_IMAGE                                           
#  12 ELLIPTICITY            1 - B_IMAGE/A_IMAGE                                       
         1 -13.0570    193.4404     31.1863   6.8391578503e+01   3.3416409464e+01     1.129457     1.008089  66.96   0.00675456    1.140    0.123
         2 -13.8202    207.3275     13.5172   6.2381140447e+01   3.2141079750e+01     1.487923     1.071466  42.24  0.008434384    1.786    0.440
         3 -11.9757      2.3724     12.8164   1.1640701618e+02   7.0925889454e+01    0.5346106    0.1780531 -46.85  0.002868814    2.577    0.612
         4 -12.4723      9.2808     10.7988   1.1228852239e+02   7.0704079310e+01    0.3872283    0.2541217 -31.81  0.002889301    1.250    0.200
         5 -10.1248    217.5028    248.5079   1.1249376975e+02  -9.4657816517e+00    0.1229684    0.1003771  21.94  0.000810639    1.001    0.001
         6 -11.2647    247.2799    249.6492   1.0734864698e+02  -1.4078721823e+01    0.4307587    0.1827946  34.50  0.002230054    2.062    0.515
         7 -10.3811     66.1367    249.8999   1.4092585668e+02   1.4977410682e+01    0.2237373    0.1446999  66.07 0.0008577567    1.222    0.182
         8 -13.3627     33.6417    246.7640   1.4622485960e+02   1.9814523939e+01     1.333795    0.9446053  27.39  0.008662472    2.341    0.573
         9 -14.3209     10.4141    244.4560   1.4983548171e+02   2.2886021327e+01     15.51777     5.567692 -78.95   0.08561297    2.351    0.575
        10 -15.3653      9.1483    207.1577   1.4776851326e+02   3.0440547419e+01     7.516376     1.038786 -72.30   0.02330377    4.959    0.798
        11 -10.7711    149.1033    229.5912   1.2274066803e+02   5.3147915532e+00    0.3320049    0.1174306  35.38  0.001152377    3.342    0.701
        12 -14.6354     53.6836    210.4086   1.3961168013e+02   2.4666250765e+01     4.865013     1.339952  54.44   0.01716643    4.089    0.755
        13 -11.0892    104.8589    245.0535   1.3340290073e+02   1.0036174168e+01    0.3260002    0.1777038  87.36  0.001513815    2.683    0.627
        14 -10.7549    140.5473    250.1271   1.2725109737e+02   3.1951876147e+00    0.4032675    0.1057739  46.14  0.001469944    3.159    0.683
        15  -8.7435    152.7014    212.9868   1.1941658620e+02   7.7874933188e+00    0.1794102    0.1706397  75.43 0.0002957998    1.088    0.081
        16 -12.5472     37.7310    229.2126   1.4425954958e+02   2.2755276541e+01    0.3146434    0.2593136 -85.89 0.0007514459    1.283    0.220
        17  -9.5899    144.4724    243.4570   1.2561855376e+02   3.6635170318e+00    0.1308795    0.1077529  52.90 7.033096e-05    1.031    0.030
        18 -10.1638    194.0556    197.1594   1.0800868160e+02   2.8672777795e+00    0.6804839    0.3045612 -61.11  0.001744793    6.944    0.856
        19 -11.4112     63.9318    195.8149   1.3592559143e+02   2.6501650112e+01    0.3612941    0.2504614 -49.66  0.001591416    1.789    0.441
        20 -14.0144     44.3943    220.4353   1.4232660490e+02   2.3732664663e+01     1.186698     0.687089  65.40   0.00519561    1.484    0.326
        21 -11.5698     69.4569    188.2365   1.3379186413e+02   2.7446722027e+01    0.2815127    0.2402192 -65.87 0.0006112157    1.256    0.204
        22  -9.0633    120.4511    188.0579   1.2229633323e+02   1.9075851326e+01     0.265412    0.1804547   2.44  0.001003267    3.363    0.703
        23 -10.7255     79.0910    176.0634   1.2991348453e+02   2.8857711391e+01    0.2571189    0.2320274 -68.81 0.0003542014    1.179    0.151
        24 -13.0534     66.1846    173.6218   1.3256435172e+02   3.1311414008e+01    0.5256571    0.2851262 -46.13   0.00183387    2.286    0.562
        25 -11.7481     86.5702    166.9580   1.2670520714e+02   2.9850740046e+01     0.695402    0.5631945  64.44  0.003857619    1.203    0.168
        26 -10.7069    120.2506    238.9841   1.2974030054e+02   8.6229507176e+00     0.216136    0.1592019 -71.02 0.0005605799    1.501    0.334
        27  -9.7301     98.9169    151.1581   1.2079564881e+02   3.1579408559e+01    0.2972858    0.2307872 -70.55 0.0008316602    1.250    0.200
        28 -11.8699     87.5467    150.2766   1.2353342766e+02   3.3694284462e+01    0.2960829    0.2515798 -47.16 0.0005722232    1.259    0.205
        29 -12.3966     67.5686    144.2044   1.2760599990e+02   3.8148328225e+01     0.783752    0.5422733  81.40  0.003158946    1.674    0.403
        30 -11.5530     58.6077    134.8154   1.2832286864e+02   4.1582164730e+01     2.109857    0.6980944 -72.92  0.004466915    9.225    0.892
        31  -8.9426    134.4472    148.9136   1.1142090124e+02   2.5330655027e+01    0.2363162    0.1501605 -52.83 0.0005581741    1.566    0.361
        32  -9.2346    102.0286    146.8838   1.1915169849e+02   3.2057318908e+01    0.2730651    0.1836108 -32.81  0.001073692    1.978    0.494
        33 -10.9772     38.6856    146.8188   1.3541747737e+02   4.1040674194e+01    0.2524708    0.1644771  51.04  0.001139396    1.665    0.399
        34 -10.2275     76.0960    243.9189   1.3861349956e+02   1.4682705606e+01    0.2215871     0.131151 -74.57 0.0009284085    1.700    0.412
        35  -8.4953    192.1675    144.1549   9.7194194699e+01   1.3750429626e+01    0.2028122    0.1767495 -75.44 0.0002997325    1.271    0.213
        36  -9.5572    110.1764    136.6451   1.1486770152e+02   3.3007339106e+01    0.3731019    0.2549911 -21.12  0.001426733    2.318    0.569
        37 -10.3611     97.4839    133.6695   1.1758094860e+02   3.6010138610e+01    0.2748536    0.2353763 -26.73 0.0007992826    1.375    0.273
        38 -10.4440     50.2939    130.0245   1.2973126873e+02   4.3727152929e+01    0.2299268    0.1874492  55.10 0.0006453634    1.357    0.263
        39  -8.6435    180.2603    232.6308   1.1701193903e+02  -8.0746857944e-01    0.1241827    0.1007471  79.37 0.0003598786    1.648    0.393
        40  -9.1873    107.0697    123.4830   1.1268059496e+02   3.6675999788e+01    0.2091427    0.1922549 -58.05 0.0003675993    1.037    0.036
        41 -10.4084    168.0804    113.2502   9.4850514336e+01   2.5756910962e+01    0.3672933    0.3032762 -86.29 0.0008443422    1.386    0.278
        42  -9.2260    203.4928    111.5116   8.7141477143e+01   1.7722583939e+01    0.1515015    0.1469951 -54.91 2.501897e-06    1.050    0.047
        43  -9.1048    229.6748    230.2985   1.0719918019e+02  -8.8578768428e+00    0.1120266    0.0995746  64.85 0.0003679626    1.631    0.387
        44  -8.4494    184.6955     77.6616   8.2028878839e+01   2.8575057816e+01     0.150495    0.1207952  18.20 0.0007039901    1.674    0.403
        45 -10.4974    125.7141    250.1397   1.3006150805e+02   5.6938399789e+00    0.2542076    0.1346184  36.50  0.001273776    1.900    0.474
        46 -10.5276     81.0375    248.9622   1.3819543718e+02   1.3000203795e+01    0.1966127    0.1521058  67.39  0.001324318    1.018    0.018
        47 -11.1567     41.2546    206.4792   1.4167614340e+02   2.7086891041e+01    0.3425885    0.2207398 -73.58  0.000201201    1.376    0.273
