#   1 NUMBER                 Running object number                                     
#   2 MAG_AUTO               Kron-like elliptical aperture magnitude                    [mag]
#   3 X_IMAGE                Object position along x                                    [pixel]
#   4 Y_IMAGE                Object position along y                                    [pixel]
#   5 X_WORLD                Barycenter position along world x axis                     [deg]
#   6 Y_WORLD                Barycenter position along world y axis                     [deg]
#   7 A_WORLD                Profile RMS along major axis (world units)                 [deg]
#   8 B_WORLD                Profile RMS along minor axis (world units)                 [deg]
#   9 THETA_WORLD            Position angle (CCW/world-x)                               [deg]
#  10 FWHM_WORLD             FWHM assuming a gaussian core                              [deg]
#  11 ELONGATION             A_IMAGE/B_IMAGE                                           
#  12 ELLIPTICITY            1 - B_IMAGE/A_IMAGE                                       
         1 -13.7387    233.7897     90.2475   6.6227319231e+01   1.3945080727e+01     2.348346    0.7415672 -35.08  0.007909008    2.826    0.646
         2 -14.3346    232.1191     19.1912   4.7772933381e+01   2.4239705390e+01     2.069388    0.8892932 -19.42  0.007993123    2.850    0.649
         3 -13.2238    248.5971    125.1941   7.2425040883e+01   5.3600080812e+00     3.993485    0.2383778 -33.82  0.007491746   10.431    0.904
         4 -14.3763    234.4290     33.5093   5.1267347221e+01   2.1938430961e+01     1.611497    0.9156541 -14.96  0.007008601    2.198    0.545
         5 -13.2805    249.3151     62.6424   5.6981865691e+01   1.4470921182e+01     3.064468    0.5616593 -28.35  0.007269449    6.294    0.841
         6 -14.2415    244.6001     47.3654   5.3677597388e+01   1.7675914404e+01     2.836977     1.547951  -5.67   0.01064623    3.167    0.684
         7 -14.0843    247.8393     15.4810   4.5345088059e+01   2.0865756975e+01      2.44214     1.011136 -30.50   0.01057645    2.217    0.549
         8 -13.4191    226.8638     51.5618   5.7020489406e+01   2.1399874764e+01     1.153938     0.690962 -13.05  0.004892528    2.126    0.530
         9 -10.8157    209.5333     27.2360   5.2545688685e+01   2.9018364507e+01     0.264306    0.1987647  69.06 0.0006961421    1.301    0.231
        10 -10.0613    140.4891     16.5076   6.0059800087e+01   4.8276140690e+01    0.1446567    0.1319429  34.74 0.0001345125    1.024    0.023
        11  -9.7030      6.7573     12.0074   1.0462350472e+02   7.1274236305e+01    0.1518697    0.1053005 -38.23 0.0002708021    1.039    0.037
        12 -10.0193    161.8979     14.0866   5.5326577228e+01   4.3056301448e+01    0.2544381    0.1993971  -7.49   0.00110377    1.400    0.286
        13 -10.1843      1.4457      7.4504   1.0549461357e+02   7.2381504802e+01    0.2185878   0.08132343 -52.70  0.001181069    2.090    0.521
        14 -10.7287    110.9670      4.9976   6.1899073372e+01   5.6505068145e+01    0.2053199    0.1742439  23.95  0.001215962    1.054    0.051
        15 -10.8126     19.6175      3.5120   9.4385134371e+01   7.1666411310e+01    0.2321614    0.1722102  20.44  0.001339029    1.544    0.352
        16  -9.9133    159.1432      2.1868   5.1688573156e+01   4.4931266884e+01    0.1949485    0.1619079 -67.26 0.0008232044    1.333    0.250
        17 -10.0181     50.9669      3.3519   8.0014026868e+01   6.7970755670e+01    0.1644506    0.1294862   4.85 0.0004491357    1.096    0.088
        18 -11.5381    240.0970    220.7464   9.3023298057e+01  -5.7063089936e+00    0.5065514     0.255048 -33.09  0.002851694    2.270    0.559
        19 -11.1992    193.6891    248.3493   1.0485927335e+02  -1.3908480687e+00    0.2891589    0.2700957  22.61  0.002334547    1.276    0.216
        20 -11.4584    231.2124    196.6843   9.0348178204e+01  -1.3884478384e+00    0.6726314    0.1935454 -37.13  0.002600978    3.815    0.738
        21 -11.0584    235.0250    203.0135   9.0832189427e+01  -2.8302048279e+00    0.2879698     0.230892 -47.48   0.00125168    1.801    0.445
        22 -10.1294    163.4525    247.2118   1.0975088184e+02   3.5614709517e+00    0.1338656    0.1072662 -79.78 0.0009494221    1.731    0.422
        23  -9.9709    237.8239    244.6853   9.7147383672e+01  -7.8220634282e+00    0.1639526    0.1434261 -61.24  0.001196788    2.145    0.534
        24 -10.3987    240.0546    240.3172   9.6134355286e+01  -7.7290207604e+00    0.1838397    0.1644685  67.06 0.0008738901    1.924    0.480
        25 -10.4600    202.4106    242.4896   1.0262150674e+02  -2.1089636803e+00    0.2074914    0.1797205  77.14  0.001274476    1.727    0.421
        26 -10.1526    219.8583    239.7881   9.9343088628e+01  -4.5732985030e+00    0.1685475    0.1489791 -81.99 0.0009644288    1.981    0.495
        27  -9.8501    148.4022    240.1933   1.1146909560e+02   6.9077049659e+00    0.1387431    0.1065138 -80.37 0.0007226279    1.696    0.411
        28 -11.1852    230.3103    236.4659   9.7129628038e+01  -5.8518350532e+00    0.3061093    0.2439743 -65.59  0.001622819    2.563    0.610
        29 -11.5078    191.5206    236.1481   1.0357695130e+02   4.0374396822e-01    0.4749502    0.3387018  86.09  0.002627677    2.914    0.657
        30 -10.2157    243.6828    236.3435   9.4941006958e+01  -7.8815682101e+00    0.1757564    0.1502258  25.35 0.0007510051    1.292    0.226
        31  -9.2288    224.6173    237.2774   9.8187039896e+01  -5.0503393355e+00    0.1068468   0.08123682  54.82 0.0007002977    1.716    0.417
        32 -10.0517    236.8428    235.0744   9.5850124151e+01  -6.7153747248e+00    0.1475233    0.1331848 -71.31 0.0009897638    2.036    0.509
        33 -11.1825    235.3836    229.1120   9.5155588642e+01  -5.8659651048e+00    0.3192638    0.1996191 -30.55  0.001477192    1.871    0.465
        34 -11.3345    216.5523    233.2677   9.8925816457e+01  -3.3306613204e+00     0.334072    0.3194588  11.55   0.00256946    1.354    0.261
        35 -10.3638    170.5087    234.5310   1.0696826061e+02   4.0778878369e+00    0.1953517    0.1195116 -46.20  0.001107243    2.097    0.523
        36 -10.3144    240.3357    231.6373   9.4744979951e+01  -6.8982289972e+00    0.1874563    0.1697945 -14.65  0.001074281    1.455    0.313
        37 -10.2522    225.6472    231.5473   9.7146313964e+01  -4.5931713867e+00    0.1578157     0.139501 -51.68 0.0008439893    1.758    0.431
        38 -10.0293    201.9409    231.9558   1.0120240890e+02  -7.9910938388e-01    0.1746009    0.1552509 -56.98 0.0009906846    1.606    0.377
        39 -10.9565    198.8077    226.3042   1.0090696094e+02   4.1735001114e-01    0.2890635    0.2255895 -59.50  0.001765769    1.924    0.480
        40 -10.2527    158.3717    231.1607   1.0864518480e+02   6.5527138172e+00    0.1462657    0.1108781 -71.33 0.0009439978    1.771    0.435
        41 -10.1944    211.8692    227.1337   9.8787405474e+01  -1.8584114726e+00    0.2084083      0.15284 -33.72  0.001381951    1.666    0.400
        42 -10.7536    206.6254    236.5086   1.0106988999e+02  -2.1002360930e+00    0.2536487    0.2330328  81.28  0.001886265    1.607    0.378
        43 -10.0531    138.5998    228.2103   1.1176002096e+02   1.0237952342e+01    0.1435028    0.1132454 -41.67 0.0009609057    1.706    0.414
        44 -10.2794    223.2079    226.4469   9.6760467745e+01  -3.6325690974e+00    0.1922847    0.1581283 -14.12  0.001008571    1.355    0.262
        45 -10.5296    205.9575    225.3142   9.9522444927e+01  -6.5744587981e-01    0.2598037    0.1678149 -49.90  0.001419767    2.253    0.556
        46 -10.4202    190.7312    225.7255   1.0222662743e+02   1.8528364164e+00    0.2186592    0.1626936 -37.84  0.001198536    1.663    0.399
        47 -10.5347    229.7182    228.2708   9.5959242277e+01  -4.8811712554e+00    0.2063474    0.1768879 -46.12 0.0009474573    1.755    0.430
        48 -11.4592    217.1145    222.7876   9.7216211337e+01  -2.2090051083e+00    0.3525433    0.2573572 -44.33  0.001597384    1.868    0.465
        49 -10.7284    219.4435    216.7967   9.5854305870e+01  -1.8780089137e+00    0.2821477    0.2132752 -41.66  0.001591563    1.730    0.422
        50 -11.2063    217.4832    211.8035   9.5368986207e+01  -9.3003212342e-01    0.3180654    0.2961465  82.47  0.002193617    1.580    0.367
        51 -10.8785    228.3644    221.7585   9.5144872014e+01  -3.9355761474e+00    0.3183487    0.1987109  49.58   0.00178022    1.745    0.427
        52  -9.9270    180.4678    222.9938   1.0363600879e+02   3.9643791704e+00    0.1584961    0.1225454 -40.73  0.001034705    1.602    0.376
        53 -11.0864    186.2304    221.1203   1.0234020811e+02   3.2313283352e+00    0.4062917   0.09626327 -45.69  0.001416001    5.673    0.824
        54  -9.9188    201.7456    220.9644   9.9585508138e+01   5.9711083341e-01    0.1982629    0.1503327 -36.98  0.001291657    1.615    0.381
        55 -11.0954    250.1153    200.3547   8.7822842176e+01  -5.0237036425e+00    0.3761127     0.169336 -30.74  0.001689401    2.316    0.568
        56 -10.1899    241.4663    191.4594   8.7627058898e+01  -2.5032376104e+00    0.2858731    0.1913657 -37.22  0.000872937    1.748    0.428
        57 -12.2748    247.9081    216.4165   9.1012468908e+01  -6.4684158453e+00    0.5480177    0.3015917 -30.43  0.002555229    2.001    0.500
        58 -11.4514    246.5243    192.9209   8.7048967716e+01  -3.5449791484e+00    0.3526135    0.3179012 -27.26  0.001764608    1.412    0.292
        59 -11.0619    243.9826    188.0064   8.6549220683e+01  -2.5038950016e+00    0.2537974    0.2336407 -26.47 0.0009873704    1.383    0.277
        60 -11.2903    246.9123    206.3026   8.9420169588e+01  -5.1865007856e+00    0.4102851    0.2204481 -45.10  0.002013406    2.946    0.661
        61 -10.9775    243.2652    200.7296   8.9030292599e+01  -3.9382070212e+00    0.4193239    0.2100812 -28.35  0.002067136    2.104    0.525
        62 -10.6985    193.5030    218.7937   1.0070107427e+02   2.2919135978e+00    0.2918718    0.2208127 -64.24  0.001774518    2.035    0.509
        63 -10.0073    210.8718    218.3848   9.7591411071e+01  -6.2721804073e-01    0.1854172    0.1660118 -32.07  0.001305033    1.404    0.288
        64  -9.7594    205.5476    217.2374   9.8337038033e+01   4.2475964677e-01    0.2208743    0.1195186 -30.72  0.001185892    2.240    0.553
        65  -9.9668    204.9337    212.4934   9.7683632995e+01   1.1461923066e+00    0.1841221    0.1722208 -42.43 0.0007781887    1.385    0.278
        66 -10.1642    170.6625    216.4845   1.0445252189e+02   6.5788759328e+00    0.1913016    0.1184148 -44.75  0.001090568    1.975    0.494
        67  -9.5337    138.2301    214.9896   1.1018403971e+02   1.2376069763e+01    0.1392031    0.1026067 -58.78 0.0005918874    1.605    0.377
        68 -10.4875    177.2201    210.5820   1.0237646379e+02   6.2931955084e+00    0.2105672    0.1559525 -57.93  0.001262306    1.769    0.435
        69 -10.5393    192.7994    209.7242   9.9406175906e+01   3.6521246688e+00    0.2215214    0.1774996 -53.69   0.00117588    1.642    0.391
        70 -10.7126    229.4823    206.9828   9.2476426444e+01  -2.3762695633e+00    0.3171678    0.1347451 -37.87  0.001499773    2.737    0.635
        71 -10.4787    227.6260    201.7307   9.1875026653e+01  -1.4065557631e+00    0.1995198    0.1126454 -30.51  0.000895974    1.937    0.484
        72 -10.1531    224.8190    207.5691   9.3380181067e+01  -1.6554492340e+00    0.2157649    0.1550927 -46.25  0.001288492    1.927    0.481
        73 -10.2447    206.2294    207.5488   9.6639819934e+01   1.5754646688e+00    0.2148483    0.1780896 -24.91  0.001402558    1.370    0.270
        74  -9.7528    183.1149    207.1436   1.0075888709e+02   5.7473313754e+00    0.1642699    0.1434215  64.52 0.0007272126    1.313    0.238
        75 -10.2743    217.3406    204.6173   9.4175049990e+01   1.1638664279e-02    0.2172767     0.150043 -26.37  0.001139597    1.606    0.377
        76 -10.0697    202.4409    204.3936   9.6790019382e+01   2.6763701563e+00    0.2218191    0.1248418 -37.49  0.001113653    2.059    0.514
        77  -9.9009    210.4315    200.5096   9.4689342249e+01   1.7798081597e+00    0.1985694    0.1244546 -35.71   0.00109747    1.815    0.449
        78 -10.2269    197.4809    203.6091   9.7556166756e+01   3.6749071610e+00    0.2313904    0.1268177 -36.99  0.001119924    2.121    0.529
        79 -10.6088    187.1663    203.1172   9.9363865495e+01   5.6084187628e+00    0.2465795    0.1730504 -62.59  0.001344006    2.125    0.529
        80 -10.3464    172.9784    203.5346   1.0206799125e+02   8.1148927075e+00    0.2180502    0.1777658 -68.80 0.0007741308    1.592    0.372
        81 -10.3664    215.3992    197.5400   9.3279104464e+01   1.2931902011e+00    0.2753378    0.1180148 -41.19  0.001239561    2.766    0.638
        82 -10.2551    202.0894    197.1662   9.5615629342e+01   3.7543806170e+00    0.2081189    0.1999774 -53.48  0.001118004    1.323    0.244
        83 -10.1610    176.4122    197.6591   1.0047712384e+02   8.4018095490e+00    0.2153096    0.1278416 -49.61 0.0009888168    2.042    0.510
        84 -11.0688    224.2496    192.3738   9.0774421298e+01   4.0222950826e-01    0.3687586    0.2154713 -39.98  0.001745092    2.004    0.501
        85 -10.5044    223.1614    200.9751   9.2518002998e+01  -5.3438050350e-01    0.2213557    0.1669879  48.35  0.001346193    1.426    0.299
        86 -10.8380    184.6458    195.4049   9.8547198760e+01   7.2298074300e+00    0.2917756    0.1235525 -36.22    0.0012405    2.923    0.658
        87 -10.0208    209.4939    194.0701   9.3720845532e+01   2.8402750097e+00    0.1829694    0.1265493 -30.24  0.001034786    1.600    0.375
        88  -9.4214    157.3038    193.3338   1.0344577129e+02   1.2623367213e+01    0.1271999    0.1004756  11.32  0.000480838    1.661    0.398
        89  -9.6803    146.2286    193.0347   1.0556530123e+02   1.4687854963e+01    0.1574206    0.1095731 -51.70 0.0008007726    1.638    0.390
        90  -9.7052    237.4437    192.2138   8.8453094802e+01  -1.9033439523e+00    0.1608939     0.115928 -38.79  0.000921713    1.685    0.407
        91 -10.0391    215.2548    187.0804   9.1398574761e+01   2.7675010589e+00    0.2185207    0.1768295 -51.16 0.0007592611    1.636    0.389
        92  -9.4586    161.6988    192.3455   1.0243148656e+02   1.1981046126e+01    0.1310524   0.09874581  76.61 0.0007038356    1.683    0.406
        93  -9.9146    198.6804    190.5581   9.5075338817e+01   5.3479363608e+00    0.2130148      0.12184 -38.49  0.001072926    1.971    0.493
        94 -10.2072    172.4341    190.7050   1.0007850195e+02   1.0253488473e+01    0.2325301    0.1307561 -50.38  0.001134897    2.130    0.531
        95  -9.4769    219.2310    194.4108   9.2034949171e+01   1.0286394319e+00    0.1727606    0.1115073  48.98 0.0006081206    1.586    0.369
        96 -10.9755    210.5892    182.4253   9.1372461460e+01   4.3117922379e+00    0.4898325    0.1753926 -28.84  0.001700647    4.052    0.753
        97 -10.4686    210.5507    175.8197   9.0106452176e+01   5.3029643053e+00    0.2898733    0.1531596 -42.07 0.0009180179    2.141    0.533
        98  -9.7988    229.5949    181.7453   8.7825190218e+01   8.7196590674e-01    0.1680413    0.1202505 -39.33 0.0007752975    1.626    0.385
        99 -10.4791    232.6413    174.2746   8.5820189011e+01   1.3412980245e+00    0.3049723    0.1664345 -27.54   0.00118868    1.903    0.475
       100 -11.1381    237.0165    186.9914   8.7542575119e+01  -1.1590968818e+00    0.3339783    0.1864832 -27.85  0.001100106    1.860    0.462
       101 -10.5757    235.6620    180.8844   8.6599556434e+01  -1.1264426401e-01    0.2984554    0.2110994 -36.91  0.001572593    1.599    0.375
       102 -10.8990    231.7426    178.6030   8.6835474475e+01   9.0924346860e-01    0.2207149    0.1789439 -44.83 0.0006306499    1.572    0.364
       103  -9.8195    220.4548    187.0290   9.0454053946e+01   1.8170860570e+00    0.1855891    0.1250424 -29.11  0.001012346    1.586    0.369
       104  -9.4296    193.2937    187.6507   9.5560921402e+01   6.8012502094e+00    0.1258371    0.1048435  82.88 0.0007031049    1.675    0.403
       105 -10.6861    166.1588    186.4176   1.0057327902e+02   1.2148561377e+01    0.2043103    0.1634379 -55.03 0.0009409132    1.447    0.309
       106 -10.6674    241.5130    172.9763   8.4025343567e+01  -1.0911659112e-01    0.3424991    0.2493454  74.83   0.00167046    2.721    0.633
       107 -11.0636    249.6149    184.0545   8.4846313346e+01  -2.9775205903e+00    0.4154516    0.1631858 -35.87  0.001855559    2.686    0.628
       108 -11.7568    247.7356    177.6785   8.3911827976e+01  -1.8414362431e+00    0.5347459    0.2595959 -39.55  0.002539498    2.368    0.578
       109 -10.6186    223.8830    183.6842   8.9208561259e+01   1.6517719110e+00    0.3131578    0.1788311 -39.31  0.001272326    1.977    0.494
       110 -10.1280    226.0000    178.9134   8.7909432643e+01   1.9260257868e+00    0.2388955    0.1686059 -20.44  0.001038168    1.467    0.318
       111 -10.7314    197.7454    182.7824   9.3830071467e+01   6.7034740280e+00    0.4486536    0.1646344 -44.13  0.001701967    3.206    0.688
       112 -10.2415    197.5185    176.4903   9.2683497429e+01   7.7302330214e+00    0.2534682    0.1348428 -39.06 0.0009382094    2.057    0.514
       113 -10.2290    189.8471    184.6397   9.5669268314e+01   7.9259813936e+00    0.2860174    0.1913753 -19.09   0.00124029    1.933    0.483
       114 -10.2958    191.1199    179.6943   9.4513796008e+01   8.4662548134e+00    0.3028423    0.1873076 -48.75  0.001502487    1.946    0.486
       115 -10.3824     77.7636    185.6270   1.1820547014e+02   2.7227929799e+01    0.1710288   0.09519453  52.17 0.0009431315    1.594    0.373
       116 -11.3486    241.3974    180.2095   8.5482198956e+01  -1.0502909876e+00    0.4824932    0.2391802 -39.85  0.002202482    2.329    0.571
       117 -10.8687    219.0863    177.4324   8.8859719920e+01   3.4333983408e+00    0.4159353    0.1941666 -29.17  0.001827633    2.411    0.585
       118 -10.2872    183.2883    182.7149   9.6579196495e+01   9.4933115935e+00    0.2166294    0.1710978 -42.92 0.0008067111    1.432    0.301
       119  -9.9330    176.5585    181.0289   9.7585192967e+01   1.1070020724e+01    0.1932174    0.1353197 -42.82 0.0009045807    1.601    0.375
       120  -9.8980    154.7208    183.3511   1.0232537106e+02   1.4834929497e+01    0.1330464    0.1011923  80.77  0.000578789    1.647    0.393
       121 -10.3646    223.4668    172.9494   8.7181987731e+01   3.2522594447e+00    0.2804433    0.1911973 -42.62  0.001278141    1.715    0.417
       122 -10.3297    145.5134    174.4953   1.0269791397e+02   1.8184884674e+01    0.1372413    0.1230704  58.20 0.0008104726    1.016    0.016
       123 -10.5624    188.2074    172.0151   9.3616093814e+01   1.0291005632e+01    0.3158285      0.19829 -39.04  0.001569138    1.739    0.425
       124 -11.0168    191.1981    165.5802   9.1760633269e+01   1.0766788247e+01    0.4265887    0.2309315 -27.22  0.001782649    2.361    0.576
       125 -10.2394    227.8367    171.0744   8.6024011424e+01   2.6932872478e+00    0.2893706    0.1747478 -42.58  0.001102663    1.936    0.483
       126 -10.8018    246.1030    169.3669   8.2514852654e+01  -4.5589057198e-01    0.3335154    0.2181903 -39.80  0.001797945    1.753    0.430
       127 -10.5833    233.3065    153.6217   8.1404017605e+01   4.1859843093e+00    0.3354963    0.2112323 -42.90  0.001456562    1.798    0.444
       128 -10.6521    237.5343    158.5906   8.1733585977e+01   2.6388075670e+00    0.3118531    0.2359903 -40.27  0.001207781    1.493    0.330
       129 -10.5233    239.9445    164.0863   8.2473682864e+01   1.4019885675e+00    0.2638743    0.1889239 -34.37  0.001006988    1.468    0.319
       130 -11.2575    237.2899    168.8154   8.3906796143e+01   1.2373035772e+00    0.3988771    0.2129884 -38.35  0.001535196    2.018    0.504
       131 -10.4255    233.8423    163.9748   8.3507732759e+01   2.5707177903e+00    0.3633446    0.1816665 -43.46  0.001452089    2.400    0.583
       132 -10.3359    205.3345    168.9788   8.9724664467e+01   7.3784865525e+00    0.2850374    0.2107329 -56.13  0.001479553    1.804    0.446
       133 -10.7963    218.6958    167.9176   8.7028855725e+01   4.9133599620e+00    0.3537033    0.2455677 -30.84  0.001765731    1.493    0.330
       134  -9.9235    212.1499    169.1426   8.8482182870e+01   6.0080130926e+00    0.1765183    0.1621153 -51.35 0.0007921724    1.339    0.253
       135 -10.5688    179.5172    168.4854   9.4648740646e+01   1.2626445968e+01     0.279192    0.1397173 -41.86  0.001214263    2.178    0.541
       136 -10.0013    229.2877    165.7348   8.4674885578e+01   3.1873331354e+00    0.2305606    0.1602227 -31.87  0.001241208    1.476    0.322
       137 -10.5806    199.4486    164.6894   8.9977948156e+01   9.2454925440e+00    0.3670195    0.1357277 -40.10  0.001235056    2.882    0.653
       138 -11.1071    212.9028    161.9457   8.6864429221e+01   6.9752407890e+00    0.4905974    0.2005819 -39.46  0.001963743    2.579    0.612
       139 -12.4452    235.0411    134.7514   7.6888648963e+01   6.6931333037e+00     1.469181    0.4755047 -41.08  0.005013604    3.269    0.694
       140 -10.6749    232.8432    247.4072   9.8343967744e+01  -7.3432119699e+00    0.2283642    0.1503207 -34.73  0.001271716    1.995    0.499
       141 -10.2873    224.4033    247.8553   9.9766034799e+01  -6.1148535459e+00    0.1910398    0.1056435 -39.18  0.001037546    2.454    0.593
       142 -10.3258    224.8751    243.1344   9.9009750232e+01  -5.7052548084e+00    0.1642268    0.1528733   0.87  0.001005757    1.392    0.281
       143 -12.8116    245.0747    100.0357   6.6943903953e+01   9.9015949870e+00      1.30173    0.6332775 -45.51  0.005309307    2.211    0.548
       144 -11.4627    246.1834    159.1460   8.0377728412e+01   9.2504260356e-01     0.686303    0.2282576 -39.10  0.002578749    3.202    0.688
       145 -11.4991    243.1667    150.6710   7.9067734837e+01   2.6961403222e+00    0.7809848    0.3911704 -14.85  0.003116284    2.756    0.637
       146  -9.8139    140.4009    249.2061   1.1381549906e+02   6.9261204057e+00    0.1356643    0.1011813 -84.21 0.0007648905    1.724    0.420
       147 -13.0302    240.3839     75.9328   6.1566173326e+01   1.4603533950e+01     1.308319    0.6088642 -31.58  0.005336914    1.984    0.496
       148 -12.0190    243.0048    136.8186   7.6013586675e+01   4.7585516578e+00      1.10513     0.243351 -38.24  0.003298206    4.328    0.769
       149 -12.9545    240.8389    122.6876   7.3096136576e+01   7.3400922729e+00      2.23946    0.5566806 -32.64  0.006813854    3.830    0.739
       150 -10.2649    242.3395    247.9130   9.6906331090e+01  -8.7951270733e+00    0.1812371    0.1211528  37.02  0.000805049    1.267    0.211
       151 -10.0888    218.4848    248.1067   1.0076018077e+02  -5.2362791736e+00    0.1736782    0.1310133  43.90  0.000812733    1.323    0.244
       152 -10.2959    221.5051    161.4377   8.5176364897e+01   5.3409806321e+00    0.2910089    0.1874762 -27.81  0.001053458    1.595    0.373
       153 -10.0499    222.2970    156.4880   8.3983392401e+01   5.9394326612e+00    0.3138067    0.1206229 -39.23 0.0005979435    2.705    0.630
       154 -10.0669    231.4050    159.3099   8.2955891614e+01   3.7175002099e+00    0.2451201    0.1272605 -27.01 0.0007712315    2.013    0.503
       155 -10.9066    177.2649    157.4603   9.2899846757e+01   1.5036873551e+01    0.5370715     0.239831 -30.39  0.001891326    3.301    0.697
       156 -10.4477    215.9378    155.8718   8.5016340235e+01   7.3179253079e+00    0.2918268    0.1953825 -37.07  0.001034811    1.556    0.357
       157 -10.4883    197.1288    156.4251   8.8710562582e+01   1.1094369787e+01    0.3197258    0.2110442 -25.19  0.001532149    1.714    0.416
       158 -10.0950    187.6570    155.0191   9.0286237103e+01   1.3309233034e+01    0.3033067     0.135565 -39.52  0.001112286    2.370    0.578
       159  -9.7762    154.4900    156.4659   9.7474236202e+01   1.9882512127e+01    0.1425633     0.133379  53.06 0.0002378844    1.004    0.004
       160 -10.0738    205.7928    153.8783   8.6494259989e+01   9.7220334697e+00    0.2187239    0.1849573   3.46 0.0009682071    1.210    0.174
       161  -9.9020    192.6849    153.5286   8.8968091624e+01   1.2516341588e+01    0.2457713    0.1321512 -38.43  0.001065331    1.955    0.488
       162 -10.7813    157.4069    152.7098   9.6094828228e+01   2.0019229335e+01     0.271755    0.1396323 -50.57  0.001133187    2.124    0.529
       163 -10.1053    228.4570    151.4919   8.1796736981e+01   5.4689930995e+00    0.2153009    0.1723926 -32.79 0.0006629516    1.287    0.223
       164 -10.4133    229.4089    147.8306   8.0823753099e+01   5.8359242266e+00     0.361065    0.1852293 -20.56   0.00138633    2.382    0.580
       165 -10.3343    211.6194    151.2496   8.4821210677e+01   8.9436772636e+00    0.2574359    0.1325314 -38.37  0.001111739    2.002    0.500
       166  -9.9946    202.5702    150.7908   8.6443694737e+01   1.0908162037e+01    0.2683733    0.1398561 -32.13  0.001133716    2.067    0.516
       167 -10.5430    226.7107    156.7507   8.3244534092e+01   5.0201968644e+00    0.2960865    0.1752056 -32.88  0.001064728    1.703    0.413
       168 -11.6778    235.3167    146.9451   7.9593161065e+01   4.7837002506e+00    0.4781946    0.3126739 -38.62   0.00160439    1.592    0.372
       169  -9.6219    191.0000    147.9350   8.8092300419e+01   1.3849499509e+01    0.2354046   0.08308024 -39.29 0.0008042721    2.955    0.662
       170 -10.8295    223.6326    146.4061   8.1540305696e+01   7.2343326578e+00    0.3209146    0.2570273 -17.69  0.001754462    1.229    0.186
       171 -10.5954    207.9696    144.9714   8.4122800543e+01   1.0742909663e+01    0.3381416    0.2080589 -26.08  0.001347953    1.770    0.435
       172 -10.3086    215.2817    148.6869   8.3574887609e+01   8.5980752851e+00    0.3059381    0.1911356 -39.95  0.001206304    1.677    0.404
       173  -9.9511    200.4426    144.7641   8.5525370428e+01   1.2382915356e+01    0.2676042    0.1385702 -41.69  0.001016964    2.021    0.505
       174  -9.6767    218.7985    144.3264   8.1955067760e+01   8.5666690149e+00    0.1932416    0.1750459 -26.68 0.0008940826    1.139    0.122
       175 -10.6223    155.5137    143.5105   9.4586540218e+01   2.2215900128e+01    0.2666497    0.1380261 -56.53  0.001038464    2.384    0.581
       176 -10.0442    214.4938    142.3182   8.2297695065e+01   9.7980573462e+00    0.2626997    0.1352518 -39.97 0.0008541862    1.998    0.499
       177 -10.2170    181.9589    141.9716   8.8606381487e+01   1.6867966241e+01     0.359569     0.193342 -53.17  0.001428305    2.342    0.573
       178 -11.1337    230.0000    139.9299   7.8948919061e+01   6.9333975070e+00    0.5947942    0.1908608 -35.06  0.002078368    3.019    0.669
       179 -10.2617    224.2964    140.0805   7.9996896680e+01   8.0948052499e+00    0.3242632    0.1822714 -30.89  0.001204282    1.772    0.436
       180  -9.4628    203.5124    141.0088   8.4082535777e+01   1.2366367646e+01     0.194178    0.1247022 -60.01 0.0008065582    2.323    0.569
       181  -9.8466    166.1656    140.1270   9.1527029572e+01   2.0626345205e+01    0.2050801    0.1773981 -80.30 0.0007087292    1.347    0.258
       182 -10.2447    218.7675    137.8183   8.0481785252e+01   9.6249192475e+00    0.3170403    0.2175245 -20.69  0.001535762    1.538    0.350
       183 -10.4552    208.1239    137.2184   8.2329375309e+01   1.2013228728e+01    0.3468992    0.1761792 -45.08  0.001407835    2.179    0.541
       184 -10.2418    171.8888    137.0981   8.9617935766e+01   1.9972010389e+01    0.3880287    0.2686022  70.74  0.001710055    1.937    0.484
       185 -10.0227    192.7012    136.4386   8.5159923424e+01   1.5524082569e+01    0.2591499    0.1339546 -37.36   0.00105669    1.984    0.496
       186 -10.4718    198.5401    136.0163   8.3903420189e+01   1.4314244306e+01    0.2859398    0.1444737 -32.80  0.001081153    2.101    0.524
       187 -10.0196    198.1396    131.6350   8.2955032836e+01   1.5174238933e+01    0.2516147    0.1963875 -43.07  0.000570449    1.337    0.252
       188 -10.4016    187.6984    135.5229   8.5958235667e+01   1.6792828261e+01     0.263073    0.1347962 -39.18  0.001063702    1.998    0.500
       189  -9.6323    163.0000    135.9471   9.1276968763e+01   2.2123429821e+01     0.238334   0.08543557 -43.22 0.0005542733    2.876    0.652
       190 -10.1675    225.2172    133.5415   7.8327007078e+01   8.9423855814e+00    0.2679885    0.1913928 -30.25  0.000803801    1.365    0.267
       191 -10.6571    221.1550    129.4078   7.8085399235e+01   1.0482535152e+01    0.4983833    0.2100388 -44.31  0.001833284    2.662    0.624
       192 -10.6880    179.5916    132.0013   8.6810066076e+01   1.9242119468e+01    0.3302177    0.1462235 -39.89  0.001231616    2.315    0.568
       193 -10.5540    142.6978    130.5192   9.4625519541e+01   2.7530391032e+01    0.2703008    0.1341447 -47.02  0.001076178    2.041    0.510
       194  -9.8879    186.4546    128.9400   8.4661586481e+01   1.8276530481e+01      0.23116    0.1475977 -39.00  0.001027959    1.591    0.371
       195 -10.5217    227.9868    125.0891   7.5846718605e+01   9.7014741580e+00    0.3196609    0.1958181 -36.70  0.001294404    1.591    0.372
       196 -10.6808    199.9710    125.8684   8.1215197446e+01   1.5782177677e+01    0.2697805     0.214185 -35.95 0.0009493225    1.264    0.209
       197 -10.5809    146.3916    124.7858   9.2444606348e+01   2.7945430206e+01    0.2129493    0.1421548 -35.19 0.0006930935    1.655    0.396
       198 -10.3376    220.8618    121.8436   7.6326139572e+01   1.1786955602e+01    0.4908468    0.1589989 -46.58  0.001390657    4.408    0.773
       199  -9.6581    188.3568    123.1332   8.2865691010e+01   1.8914128207e+01    0.2214993     0.136659 -47.61 0.0009429348    1.749    0.428
       200 -10.9437    212.8886    120.7140   7.7501704319e+01   1.3757145717e+01    0.5341614    0.2083711 -27.87  0.001744545    3.149    0.682
       201  -9.1901    217.3447    125.2752   7.7790752715e+01   1.1997425944e+01    0.1521453     0.109609  17.60 0.0003617761    1.624    0.384
       202 -10.4208    179.4131    123.9859   8.4927018059e+01   2.0793241139e+01      0.36937     0.181511 -39.28  0.001239217    2.065    0.516
       203 -12.6161    228.7644    103.6168   7.0441353349e+01   1.2979537390e+01    0.9709536    0.4112646 -30.79   0.00363888    2.313    0.568
       204 -10.7281    216.6339    116.9201   7.5882089147e+01   1.3550434503e+01    0.4744519    0.1167615 -39.12  0.001367743    3.843    0.740
       205  -9.3727    166.4908    119.5031   8.6605986264e+01   2.4590769832e+01    0.1514654    0.1490256  26.49 3.250597e-06    1.011    0.011
       206 -10.8169    140.3973    118.5951   9.2378284963e+01   3.0508546683e+01    0.3051793    0.1310454 -57.67 0.0009553054    3.378    0.704
       207 -10.4960    185.7047    114.5175   8.1254280635e+01   2.1117321396e+01    0.2832402    0.1371396 -38.24  0.001074328    2.063    0.515
       208  -9.8035    191.5942    113.8017   7.9875726351e+01   1.9872670718e+01    0.2436354    0.1526813 -34.87 0.0009936995    1.602    0.376
       209  -9.7894    194.5824    112.7652   7.9015560101e+01   1.9360883841e+01    0.2961066    0.1975247 -58.61  0.001254684    1.928    0.481
       210  -9.5464    181.4655    114.5003   8.2128538041e+01   2.2109114637e+01    0.1539541    0.1477406  10.21 0.0001820376    1.042    0.040
       211  -9.7947    173.5078    114.0014   8.3689777155e+01   2.4053435344e+01    0.2356285    0.1519597 -38.65 0.0009221049    1.561    0.359
       212 -11.1101    234.9983    111.8530   7.1452026368e+01   1.0277508584e+01    0.2666158    0.2188817  82.08  0.001377759    1.607    0.378
       213  -9.6161    220.0000    114.9937   7.4800750244e+01   1.3110620967e+01    0.2463433   0.08191296 -34.11 0.0007358788    2.918    0.657
       214  -9.4072    168.3267    111.6816   8.4220998365e+01   2.5702165583e+01    0.1578632    0.1237801 -81.89 0.0007046076    1.679    0.404
       215 -10.3475    176.6299    110.2137   8.2044568336e+01   2.4049658388e+01    0.2221303     0.147005 -28.78 0.0009534481    1.641    0.391
       216  -9.5247    218.6063    109.1769   7.3593587202e+01   1.4393133832e+01    0.2152983    0.1395328 -20.61 0.0009465308    1.680    0.405
       217 -10.1887    183.0000    108.4656   8.0250753665e+01   2.2877356075e+01    0.3293089    0.0876878 -37.68   0.00091175    3.751    0.733
       218 -12.2882    247.1694     86.4254   6.3254302513e+01   1.1493541888e+01    0.8534634    0.6158668 -44.83  0.004379187    1.360    0.265
       219  -9.8355    189.5339    108.0648   7.8810704752e+01   2.1403047212e+01    0.2375913    0.1506412 -36.13 0.0008710971    1.569    0.363
       220 -10.1802    160.5773    107.7990   8.4938079520e+01   2.8254000693e+01     0.295369    0.1513848 -37.35  0.001131116    2.011    0.503
       221 -10.1508    222.4661    104.5500   7.1746448239e+01   1.4269289788e+01    0.3080247    0.1411105 -33.44  0.001093006    2.088    0.521
       222  -9.9745    205.5504    104.9937   7.4899323222e+01   1.8148758780e+01    0.2366841     0.146309 -35.12  0.001023157    1.580    0.367
       223  -9.8374    200.5648    102.9678   7.5310977472e+01   1.9687106604e+01    0.2355533    0.1479307 -34.31  0.000770458    1.567    0.362
       224 -10.2287    166.9161    100.0945   8.1456041043e+01   2.8280058748e+01    0.3389372     0.197264 -42.39  0.001345471    1.712    0.416
       225 -11.1157    230.6409    116.1846   7.3241494395e+01   1.0546977950e+01    0.5766118    0.2041892 -37.85  0.002044932    2.662    0.624
       226 -11.0545    215.4053     94.1995   7.0291342783e+01   1.7631983445e+01    0.7621102    0.2765991 -38.06  0.002619083    2.582    0.613
       227 -11.2746    212.3253     95.9720   7.1300390496e+01   1.8072886724e+01     0.514684    0.2589972 -55.52  0.001755115    3.028    0.670
       228 -10.5702    210.6956     91.3622   7.0364443890e+01   1.9236235030e+01    0.3300492     0.254048 -56.94   0.00112596    1.466    0.318
       229  -9.5413    209.2762     99.3537   7.2738706405e+01   1.8230593256e+01    0.1565818    0.1174893   7.91 0.0004589574    1.646    0.393
       230 -10.0406    202.6565     97.5560   7.3482843185e+01   2.0127340466e+01    0.2714472    0.1408567 -34.91  0.001067226    1.880    0.468
       231  -9.7730    194.6528     97.1729   7.4905044665e+01   2.2132630709e+01    0.2229077    0.1447417 -24.62 0.0009434911    1.676    0.403
       232 -10.9001    188.8172     92.5484   7.4787955598e+01   2.4379472072e+01    0.4342796    0.2545546 -37.59   0.00131635    1.673    0.402
       233 -10.2062    188.4754     86.9924   7.3308535142e+01   2.5447891665e+01    0.3309792    0.1895278 -35.41  0.001127803    1.716    0.417
       234  -9.8635    157.7809     90.0165   8.0693370142e+01   3.2391666431e+01    0.2176204    0.1264721 -38.74 0.0008521422    1.703    0.413
       235 -11.3019    175.8790     87.5965   7.6034614736e+01   2.8457505916e+01    0.4114731    0.3113483 -24.77  0.001466183    1.397    0.284
       236 -10.4284    210.4685    247.7051   1.0201139071e+02  -3.9546628280e+00    0.1780181    0.1551435  53.67  0.001357668    1.465    0.317
       237 -10.6884    150.5999     87.6955   8.1693068925e+01   3.4533943444e+01    0.3058512    0.1507921 -35.11  0.001135297    2.105    0.525
       238  -9.7636    163.6350     86.7701   7.8438435999e+01   3.1604149313e+01    0.2288182    0.1415493 -45.89 0.0009468056    1.657    0.397
       239  -9.5707    197.5203     86.5045   7.1438677338e+01   2.3288284573e+01    0.1537488    0.1501076 -12.95 0.0001925511    1.008    0.008
       240  -9.8690    205.8781     84.5574   6.9375930392e+01   2.1549499605e+01    0.2714591    0.1676752 -36.57  0.001156578    1.561    0.359
       241 -11.8601    224.2914     82.3684   6.5676393416e+01   1.7416572056e+01    0.4849129    0.3230203  10.36   0.00194817    2.170    0.539
       242  -9.9029    164.4783     93.9198   8.0288619601e+01   3.0046059109e+01    0.2459489    0.1530191 -38.73  0.001032963    1.594    0.373
       243 -10.2362    159.1850     81.4979   7.7888861450e+01   3.3668158850e+01    0.3098196    0.2164574 -37.21  0.001389514    1.416    0.294
       244 -10.1510    211.1068     76.2808   6.6192843787e+01   2.1606971313e+01    0.2981207    0.2122923 -12.77 0.0008527521    1.632    0.387
       245  -9.7873    150.5150     79.0055   7.9138002209e+01   3.6217144525e+01    0.2453027    0.1517307 -37.84  0.001033726    1.594    0.373
       246 -11.0413    225.9423     87.0316   6.6639855420e+01   1.6285615680e+01    0.3288058    0.2073559 -27.09 0.0008081088    1.568    0.362
       247 -10.0461    200.9019     77.3740   6.8267663128e+01   2.3980482742e+01    0.2885361    0.1939397 -41.89  0.001056901    1.469    0.319
       248 -10.0821    174.5375     77.2956   7.3321448129e+01   3.0638413454e+01     0.303795    0.1465535 -39.12  0.001130284    2.028    0.507
       249 -10.1829    166.6798     77.3502   7.4997525621e+01   3.2588592226e+01    0.3398324    0.1967269 -28.01  0.001299004    1.876    0.467
       250 -10.4196    130.3924     77.7886   8.3727889673e+01   4.1069941330e+01    0.2197547    0.1424436 -29.73 0.0007371538    1.656    0.396
       251  -9.5000    183.4837     76.9870   7.1425770956e+01   2.8440202985e+01      0.22599    0.1230741 -54.83 0.0008084411    2.403    0.584
       252  -9.8926    221.3283    152.0074   8.3191620423e+01   6.8288290896e+00    0.1995376    0.1742744 -20.52 0.0009310739    1.140    0.123
       253  -9.4191    209.7829     80.9545   6.7703670257e+01   2.1179129555e+01    0.3001037     0.132339 -33.62  0.001100112    2.173    0.540
       254  -9.1839    206.0000     73.9468   6.6411593948e+01   2.3258092794e+01    0.2509394   0.08551221 -32.09 0.0007909685    2.864    0.651
       255 -10.5983    163.4730     70.9766   7.3757591718e+01   3.4518057303e+01    0.4161022    0.1536458 -34.45  0.001355542    2.707    0.631
       256  -9.3623    210.6668     71.3223   6.4892384435e+01   2.2505075416e+01      0.16051    0.1150138 -65.60 0.0007050146    1.704    0.413
       257  -9.9010    170.6021     70.1793   7.2001107746e+01   3.2867882515e+01    0.2242359    0.1512523 -21.00  0.000953007    1.669    0.401
       258  -9.4199    214.2758     69.6413   6.3837771524e+01   2.1865329883e+01    0.1592504    0.1106845 -58.81 0.0004789564    1.656    0.396
       259  -9.7739    187.4767     68.0496   6.8032344485e+01   2.8925333492e+01    0.2416628    0.1520203 -31.90  0.001028759    1.581    0.368
       260  -9.9474    182.4469     68.0024   6.8973106555e+01   3.0221387810e+01    0.2436253    0.1509213 -33.67  0.001027927    1.595    0.373
       261  -9.5689    212.3891     65.8031   6.3073784186e+01   2.2931373388e+01    0.2135198    0.1443079 -17.27 0.0009417755    1.670    0.401
       262 -10.9089    222.0998     70.9003   6.2949657483e+01   1.9733624352e+01    0.2336134    0.1906327 -52.50 0.0006825657    1.249    0.199
       263 -12.2765    192.5194     57.2998   6.3928981811e+01   2.9326964367e+01    0.8597351    0.2903664 -29.87  0.002739598    3.013    0.668
       264  -9.6498    182.4844     61.9960   6.7156774647e+01   3.1190357639e+01     0.223583     0.119135 -53.36 0.0007415313    2.367    0.578
       265 -10.5223    157.8667     61.5765   7.2027837684e+01   3.7535207418e+01    0.3254097    0.1885837 -47.36   0.00131468    1.878    0.468
       266 -10.5499    153.1123     59.6088   7.2443963069e+01   3.9048704058e+01    0.2764401    0.2027297 -42.09 0.0007552371    1.381    0.276
       267  -9.4544    197.3071     59.3168   6.3702958429e+01   2.7778561111e+01    0.1572209    0.1175474  22.66 0.0007029271    1.631    0.387
       268 -10.4655    152.7036     52.4795   7.0188052047e+01   4.0317949913e+01    0.2761106    0.1375984 -31.47  0.001063847    2.018    0.505
       269 -11.3718    176.1701    245.8564   1.0745588493e+02   1.6985926653e+00    0.3867036    0.2427617 -37.75  0.002508487    2.125    0.529
       270 -10.2841    168.9912     44.0040   6.4061555234e+01   3.7444231145e+01    0.3188243    0.2092554 -29.55  0.001031504    1.542    0.352
       271  -9.4916    207.2323     42.9928   5.7381944782e+01   2.7575814633e+01    0.1954276    0.1217972 -29.67 0.0006153508    1.594    0.373
       272 -12.5069    223.5937     34.9907   5.2943786741e+01   2.4447067250e+01    0.4245464    0.3029728 -36.03  0.002091825    1.340    0.254
       273 -10.7151    201.3771     35.5096   5.6049740193e+01   3.0101667807e+01    0.2658842    0.1782235 -23.02 0.0003491445    1.579    0.367
       274  -9.1304    149.3286     34.3283   6.4697039100e+01   4.3854110130e+01    0.1602658    0.1090526  25.76 0.0006179272    1.707    0.414
       275  -9.8453    106.9753     33.0000   7.4483532600e+01   5.3946560734e+01    0.2223397   0.07893422  51.26 0.0004525663    2.872    0.652
       276 -10.3353    168.5791     36.7640   6.1771206944e+01   3.8566400089e+01    0.2176685    0.1344992 -40.22 0.0009496706    1.655    0.396
       277 -10.5843    230.0413    186.8491   8.8724905288e+01   1.0150764909e-01    0.2987875    0.1873593 -42.70  0.001243502    1.971    0.493
       278 -10.1925    172.4243     24.5135   5.7083004759e+01   3.9118655726e+01    0.1443746    0.1404895  68.38 8.421168e-05    1.017    0.017
       279  -9.6943    118.4800     24.5213   6.8071973653e+01   5.2593029900e+01    0.1430177    0.1297187  16.34 0.0001961473    1.013    0.013
       280  -9.8210    136.7705     24.9760   6.3983265294e+01   4.8201557390e+01    0.1875076    0.1196567 -23.61 0.0003204111    1.605    0.377
       281  -9.6125    140.3050     21.6432   6.1999164988e+01   4.7733585150e+01    0.1489733    0.1092216 -60.21 0.0007040324    1.720    0.418
       282  -9.7745    155.6126     16.1884   5.7117704329e+01   4.4464050536e+01     0.203859    0.1386091  -4.55  0.000958782    1.702    0.412
       283 -10.9815    250.4624    245.1521   9.5213811421e+01  -9.7175018074e+00    0.3287397    0.2364833  18.73  0.002175152    1.062    0.059
       284  -9.3934     29.6896     12.7389   9.3898457477e+01   6.9253755580e+01     0.115368   0.07255553 -16.11 0.0002040743    1.531    0.347
       285 -10.6737    248.5550    239.9078   9.4714597165e+01  -8.9507586927e+00    0.2710781     0.168888 -10.74  0.001814407    1.708    0.415
       286 -10.7990    246.6635    232.8267   9.3910009428e+01  -7.9804785279e+00    0.4237271    0.2848509 -57.91  0.002141308    4.291    0.767
       287 -10.7209    205.2467    161.2233   8.8154238704e+01   8.6348683154e+00    0.3603008    0.2003488 -38.88  0.001658636    1.902    0.474
       288 -10.2443    235.6131    217.8340   9.3284389821e+01  -4.6654603588e+00    0.1927737    0.1375718 -49.79  0.001071322    2.284    0.562
       289 -11.1062    232.8921    212.6188   9.2863928930e+01  -3.6210035781e+00    0.4090952       0.2993 -18.18  0.002664858    1.447    0.309
       290 -11.4580    240.4444    208.0756   9.0809253451e+01  -4.3352399072e+00    0.9834214     0.439969 -47.98  0.003824474    4.994    0.800
       291 -11.6366    246.7524    225.7872   9.2763015740e+01  -7.2795587917e+00    0.3961714    0.2842048  48.89  0.002234483    1.726    0.421
