#   1 NUMBER                 Running object number                                     
#   2 MAG_AUTO               Kron-like elliptical aperture magnitude                    [mag]
#   3 X_IMAGE                Object position along x                                    [pixel]
#   4 Y_IMAGE                Object position along y                                    [pixel]
#   5 X_WORLD                Barycenter position along world x axis                     [deg]
#   6 Y_WORLD                Barycenter position along world y axis                     [deg]
#   7 A_WORLD                Profile RMS along major axis (world units)                 [deg]
#   8 B_WORLD                Profile RMS along minor axis (world units)                 [deg]
#   9 THETA_WORLD            Position angle (CCW/world-x)                               [deg]
#  10 FWHM_WORLD             FWHM assuming a gaussian core                              [deg]
#  11 ELONGATION             A_IMAGE/B_IMAGE                                           
#  12 ELLIPTICITY            1 - B_IMAGE/A_IMAGE                                       
         1 -14.6021    195.0053     13.7061   6.9776891731e+01   3.4497180224e+01     2.995211     1.938075  29.62   0.01055951    1.919    0.479
         2 -13.0132    199.9148      7.0257   6.7243481277e+01   3.3893392710e+01     1.093371    0.5515138  48.21   0.00154918    2.078    0.519
         3 -10.7243     32.8529      3.1289   1.0616003633e+02   7.0525895776e+01    0.2140285    0.1173165 -38.30  0.001258002    1.689    0.408
         4 -15.5817     12.0458    236.2469   1.5256124107e+02   2.6177500056e+01     6.872747     0.931703 -68.25    0.0296823    5.734    0.826
         5 -11.6760    247.6262    248.5334   1.1562255829e+02  -8.8451973486e+00     0.616667    0.2483383  32.35  0.003425163    1.999    0.500
         6 -12.4715    141.9307    249.2401   1.3289560562e+02   7.3161846903e+00    0.7544891    0.2558595  38.77  0.003483153    2.744    0.636
         7 -11.6842     98.5249    249.0457   1.3996832040e+02   1.3753880543e+01    0.3839013    0.2208438  60.51  0.001857849    1.426    0.299
         8 -11.2954    102.9904    248.1856   1.3917340828e+02   1.3251385785e+01    0.3420316    0.1737231  66.73  0.001338619    2.128    0.530
         9 -10.6780     88.8783    249.1625   1.4152157612e+02   1.5068631804e+01    0.2754208    0.1370366  65.29  0.001080847    1.927    0.481
        10 -11.6257     81.7246    248.8803   1.4263426035e+02   1.6073480581e+01    0.4781014    0.2181958  60.62  0.002879727    1.895    0.472
        11 -10.8697     85.3855    246.2077   1.4184495822e+02   1.5991936603e+01    0.2886115    0.1676499 -81.35  0.001949156    1.902    0.474
        12 -10.9707     82.6763    243.3291   1.4205280541e+02   1.6802703405e+01    0.2431374    0.1487668  64.35  0.001696786    1.317    0.241
        13 -12.0096     65.6897    249.5550   1.4518714701e+02   1.8040479136e+01    0.5743878    0.4502908 -20.24  0.003675886    3.608    0.723
        14 -10.2506     67.5137    243.5325   1.4448908532e+02   1.8751582163e+01    0.1662258    0.1108558  80.93 0.0009724499    1.315    0.240
        15  -9.0203     56.5697    250.2375   1.4662734532e+02   1.9057102426e+01    0.1153901   0.08430471 -77.61 0.0005341808    1.532    0.347
        16 -11.3597     46.3500    248.7773   1.4808412858e+02   2.0493614476e+01    0.3447872    0.1804505  70.59  0.001346261    1.541    0.351
        17 -13.0447     32.6154    246.3016   1.4999752584e+02   2.2427441461e+01    0.7781173     0.517906  43.64  0.005228742    1.625    0.385
        18 -15.3626     58.6318    219.0179   1.4414042558e+02   2.3966313801e+01     6.213405    0.7848895  43.73   0.02359261    4.551    0.780
        19 -10.4857    198.9887    246.9842   1.2318660729e+02  -1.3567817741e+00    0.1668663    0.1257728  61.29  0.001134735    1.723    0.420
        20 -11.3613     28.6561    222.5534   1.4933460077e+02   2.6792307215e+01    0.3104865    0.1395547  54.24  0.001439883    1.698    0.411
        21 -11.5758    173.6975    222.3575   1.2409486740e+02   5.8736777546e+00     0.414226    0.3091657  65.47  0.002455183    1.592    0.372
        22  -9.0561    152.7174    212.9275   1.2655164221e+02   1.0853693979e+01    0.1581242     0.141607  54.28 0.0003353876    1.086    0.079
        23 -11.4938     34.8690    206.7708   1.4732547899e+02   2.8943693063e+01     0.330401    0.3076861 -72.91  0.002677222    1.590    0.371
        24 -10.4601    192.3527    193.6894   1.1617093363e+02   6.7171026050e+00    0.5229026     0.287234 -64.15  0.001849507    5.054    0.802
        25 -11.6435     73.2451    197.3273   1.3959324625e+02   2.6052243177e+01    0.3304564     0.231793 -47.07  0.001949697    2.046    0.511
        26 -11.7583     95.7343    240.9857   1.3972803381e+02   1.5370881300e+01    0.3703929    0.2361334 -48.80  0.001696076    2.355    0.575
        27 -11.7794     77.8191    189.9379   1.3793444761e+02   2.6850358776e+01    0.2579111    0.2118832 -59.18 0.0008029063    1.461    0.316
        28 -11.1480     85.8662    177.6037   1.3485418997e+02   2.8154817288e+01    0.2209822     0.193507  79.28 0.0003570943    1.073    0.068
        29 -13.2980     73.7946    175.2884   1.3706310950e+02   3.0335764710e+01    0.4275534    0.2740829 -44.10  0.001601112    2.215    0.549
        30 -12.5867     91.8775    168.5670   1.3237426395e+02   2.9106449478e+01     1.891944    0.4850066  48.91  0.002320752    4.019    0.751
        31 -13.3009     57.8292    130.2846   1.3456927736e+02   4.2145043493e+01     1.708186    0.5835577 -74.82  0.005255746    4.970    0.799
        32 -13.7128      9.5382    207.4729   1.5161073267e+02   3.1368098405e+01    0.8699359    0.7071151 -69.22  0.003430491    1.631    0.387
        33 -10.1726    103.0565    151.9442   1.2730863736e+02   3.0829229630e+01    0.2921797    0.2631187  78.10 0.0008033414    1.021    0.021
        34  -9.6205    105.7671    147.6253   1.2593171308e+02   3.1300336114e+01    0.3286912    0.2320156 -26.02  0.001575499    2.241    0.554
        35 -12.1829     92.3863    151.3349   1.2965028748e+02   3.2674996842e+01    0.2527926    0.2489955 -37.40 0.0005541389    1.268    0.211
        36 -12.3852     39.8486    146.9041   1.4106001262e+02   4.0491530025e+01    0.3879456    0.2858793 -51.69  0.002512925    1.573    0.364
        37  -8.5642    192.2856    144.2770   1.0637426477e+02   1.4779236200e+01    0.1428088    0.1096563  12.77 0.0001851224    1.512    0.339
        38 -10.1301    112.9697    136.7568   1.2218363813e+02   3.2390585072e+01    0.3256126    0.2603268 -13.71  0.001046897    1.803    0.445
        39 -10.6774    100.6276    134.2637   1.2467196152e+02   3.5072094397e+01    0.2740538    0.2231286 -37.22 0.0007294463    1.441    0.306
        40 -11.0867     70.1208    134.9135   1.3226640727e+02   3.9534604686e+01    0.3055683      0.16506  50.14  0.001383689    1.942    0.485
        41 -13.2166     43.0345    128.1391   1.3793175990e+02   4.4301025851e+01    0.5803025    0.3869447  75.55   0.00342346    1.555    0.357
        42  -8.7332    118.2856    129.3519   1.1937079415e+02   3.3020015885e+01    0.1418088    0.1139732 -18.26  0.000702115    1.662    0.398
        43 -10.9113    168.3880    113.3828   1.0391732712e+02   2.5781578071e+01    0.4130941    0.3240909 -78.86  0.001235529    1.673    0.402
        44  -9.4507    109.1063    123.9886   1.2047362105e+02   3.5864667725e+01     0.202757    0.1917497 -79.33 0.0003621479    1.013    0.012
        45 -13.6930     67.9835    145.0310   1.3433818121e+02   3.7571664913e+01     1.880263    0.9122445  83.21  0.006777904    4.051    0.753
        46 -15.6044      2.9232    138.2548   1.4842695273e+02   4.5592233659e+01     14.81597    0.2246557 -74.19   0.03163074   12.750    0.922
        47  -9.2915    154.2992     75.3266   9.6335326134e+01   3.6262947285e+01     0.158574    0.1211493  11.35 0.0003612242    1.635    0.388
        48 -10.8706     38.7713    231.8291   1.4826688270e+02   2.4105786482e+01    0.2746435     0.121081  51.39  0.001657346    1.716    0.417
        49 -10.1767    162.8316    249.1500   1.2942852500e+02   4.0774000739e+00    0.1776488     0.128252  54.44  0.001245396    1.256    0.204
        50 -11.3208    125.9626    250.1310   1.3561290426e+02   9.6162941807e+00    0.3221586    0.1216948  45.95  0.001585242    1.983    0.496
        51 -10.2984    228.5494    227.8591   1.1551719852e+02  -3.9065081077e+00    0.3100111    0.2006933 -53.54  0.001724041    2.975    0.664
        52 -12.8881     50.6589    231.6582   1.4636462676e+02   2.2761562232e+01    0.3404301    0.2810002 -68.16  0.000987286    1.635    0.388
