#   1 NUMBER                 Running object number                                     
#   2 MAG_AUTO               Kron-like elliptical aperture magnitude                    [mag]
#   3 X_IMAGE                Object position along x                                    [pixel]
#   4 Y_IMAGE                Object position along y                                    [pixel]
#   5 X_WORLD                Barycenter position along world x axis                     [deg]
#   6 Y_WORLD                Barycenter position along world y axis                     [deg]
#   7 A_WORLD                Profile RMS along major axis (world units)                 [deg]
#   8 B_WORLD                Profile RMS along minor axis (world units)                 [deg]
#   9 THETA_WORLD            Position angle (CCW/world-x)                               [deg]
#  10 FWHM_WORLD             FWHM assuming a gaussian core                              [deg]
#  11 ELONGATION             A_IMAGE/B_IMAGE                                           
#  12 ELLIPTICITY            1 - B_IMAGE/A_IMAGE                                       
         1 -11.8993     42.2950     21.0514   8.2223302638e+01   6.7328764217e+01    0.5256894     0.349817  37.39  0.002261875    1.724    0.420
         2 -10.3802     46.5516     16.5118   7.8201669916e+01   6.7411024129e+01    0.2762616     0.173933 -29.13  0.000964894    1.443    0.307
         3 -12.1325    215.9406     14.0513   3.9582488437e+01   2.9571935579e+01    0.4682082    0.4564205  27.64  0.002007787    1.300    0.231
         4 -12.8189    189.3157      8.6087   4.0933758833e+01   3.6646921118e+01    0.5185817    0.3053878 -84.57  0.002525896    1.793    0.442
         5 -12.7073    184.3634      5.2851   4.0579853645e+01   3.8209574693e+01    0.6509653    0.4717571  -6.55  0.003581333    1.807    0.447
         6 -11.4241     57.9908      7.5960   6.9073160984e+01   6.6773931744e+01    0.4325615    0.2955978  14.91   0.00262167    1.343    0.255
         7 -11.9518     43.4714      8.2967   7.5538534796e+01   6.8936363458e+01    0.3060604    0.2275505  31.21  0.000667213    1.381    0.276
         8 -10.6522    167.9739      8.2679   4.3430616857e+01   4.2039219372e+01    0.1942197    0.1604062  73.43 0.0004801103    1.076    0.070
         9 -10.2449    109.0923      8.5242   5.3909100495e+01   5.6432533086e+01    0.2023354    0.1188449  58.11 0.0006089783    1.544    0.352
        10 -11.2589    165.7283      1.5474   4.1718827023e+01   4.3223680057e+01    0.4075632    0.1089451  68.29  0.001380507    3.091    0.676
        11 -10.0463    104.3052    224.9895   1.0981608606e+02   1.4114648620e+01    0.1719388    0.1503153  83.49 0.0007223062    1.164    0.141
        12 -12.1367    220.7251    247.5805   9.0471006024e+01  -7.7638927711e+00    0.4582517    0.3688002  35.05  0.003249559    1.354    0.261
        13 -11.0502     97.1664    221.0089   1.1081204383e+02   1.5967037911e+01     0.298447    0.2089718 -13.66  0.001412006    3.178    0.685
        14 -10.9654    150.1891    218.9738   9.9635483583e+01   7.7153216989e+00    0.2588083    0.1784909 -13.42  0.001287328    2.295    0.564
        15  -9.7087     36.3986    223.1747   1.2292250877e+02   2.3641246897e+01    0.1603722   0.08716586  85.41 0.0009415894    1.676    0.403
        16 -12.0380    227.3418    221.3543   8.5011661447e+01  -5.3853224489e+00    0.3152895    0.2627738 -51.42  0.002020024    1.826    0.452
        17  -9.9900    173.6982    221.5425   9.5273075238e+01   3.2835229020e+00    0.2145267    0.1196235 -45.16  0.001086308    2.083    0.520
        18 -10.2375    211.3729    217.6891   8.7324084761e+01  -2.3734599410e+00    0.2753041    0.1562666 -42.76  0.001441586    2.070    0.517
        19 -10.5000    239.6808    215.5380   8.1792554707e+01  -6.4602604056e+00    0.2924714   0.09969757 -41.21  0.001205954    3.483    0.713
        20 -11.8160    219.4902    212.4419   8.4891013367e+01  -2.9166191285e+00    0.4835773    0.3662243  68.22   0.00257458    2.500    0.600
        21 -10.3341    115.9953    209.6880   1.0547871209e+02   1.5209012035e+01    0.2613263    0.1427164 -72.54  0.001184215    2.457    0.593
        22  -9.8793    185.3867    204.1812   9.0037312704e+01   4.1341515913e+00    0.1779885    0.1289327 -53.22 0.0009505527    1.728    0.421
        23 -10.0104     48.3444    201.0151   1.1885402884e+02   2.6791600319e+01    0.2076968   0.08113109  83.92 0.0007050649    4.450    0.775
        24 -10.5749      4.9154    200.7562   1.2745221207e+02   3.1379588188e+01    0.3318226   0.09490047  48.07  0.001405795    2.706    0.630
        25  -9.0082    250.3446    200.2919   7.7159503249e+01  -5.9927513020e+00    0.1299193   0.08198436   5.23 0.0004374885    1.659    0.397
        26 -10.1127    236.8377    198.1477   7.9112288238e+01  -3.6150019024e+00    0.2481259    0.1470618 -51.68  0.001169923    2.753    0.637
        27 -10.5716    112.3723    197.5670   1.0457934889e+02   1.8268856114e+01    0.2552787    0.1243804 -74.50 0.0009548751    3.310    0.698
        28 -12.3024    159.1133    190.8460   9.3175191590e+01   1.1313779014e+01    0.7582164    0.5250792  88.45   0.00314451    2.543    0.607
        29  -9.9843    215.0145    193.2305   8.2197553106e+01   7.4135910496e-01    0.3102668    0.1536765 -46.80   0.00136693    2.488    0.598
        30 -10.1763    223.7863    183.0296   7.8560506653e+01   8.4909823753e-01    0.1817251    0.1025649 -35.50  0.000879194    1.737    0.424
        31 -10.6215    183.0683    183.1419   8.6630475019e+01   8.2640353298e+00    0.3499638    0.2108245 -38.01  0.001649145    1.751    0.429
        32  -9.8296    243.7723    179.9342   7.4356957144e+01  -2.0417223419e+00    0.1780676   0.09743953 -31.68 0.0008866781    1.692    0.409
        33  -9.8185    133.0000    195.0172   9.9615082891e+01   1.5241793981e+01    0.2172716   0.08007117 -53.11 0.0008056596    2.965    0.663
        34  -9.8059    191.5900    177.8200   8.3816007095e+01   7.6188804522e+00    0.1972957    0.1345579 -51.20  0.000953356    1.718    0.418
        35  -9.6851     28.4243    176.8018   1.2098129890e+02   3.4341924364e+01    0.1646289    0.0947115 -65.95 0.0004768137    1.595    0.373
        36 -10.0739     34.3222    173.6544   1.1937320203e+02   3.4449801320e+01     0.135858   0.07669114  69.58 0.0007049894    1.735    0.424
        37 -11.8078     55.6126    167.8401   1.1375617402e+02   3.3358679452e+01    0.5939243    0.3062591  88.14  0.002609441    2.365    0.577
        38 -11.4053    120.9929    166.1477   9.7459793249e+01   2.3604855245e+01    0.6065677    0.2113149 -48.34  0.002080403    3.003    0.667
        39  -9.4533    213.3168    163.6737   7.6560366709e+01   5.9982702395e+00    0.1348558    0.1153074 -78.24 0.0004343023    1.674    0.403
        40 -11.0680     51.4910    159.4826   1.1372450448e+02   3.5837411063e+01    0.2893757    0.2014761  73.50  0.001508218    1.415    0.293
        41 -10.6172     22.6269    159.4467   1.2073188596e+02   3.8877589023e+01    0.2886736    0.1469921  63.09  0.001479352    2.013    0.503
        42 -11.5238    106.1343    157.4131   9.9546225913e+01   2.8274210913e+01    0.6780468     0.443922 -88.08  0.002943306    2.080    0.519
        43 -10.7751    167.5125    157.0735   8.4677374230e+01   1.6425856113e+01    0.3752391    0.2708533 -76.96  0.001636812    2.078    0.519
        44  -9.8717    139.6439    158.6851   9.1500283941e+01   2.1721701913e+01    0.1541611    0.1204934  -1.26  0.000704484    1.744    0.426
        45 -10.8620    118.0245    157.0207   9.6476818880e+01   2.6232044768e+01    0.3220244    0.2399966 -49.93 0.0009096235    1.372    0.271
        46 -10.5071    122.3406    157.4459   9.5482928269e+01   2.5332368659e+01    0.3144702    0.1449706  40.51   0.00121096    2.135    0.532
        47  -9.9255    196.2385    157.2311   7.8553030840e+01   1.0518384777e+01    0.2351787    0.1142446 -50.27 0.0008889728    2.466    0.594
        48 -10.1749    218.2373    155.6305   7.3894909187e+01   6.4643163479e+00     0.269987     0.164682 -44.66  0.001259833    1.706    0.414
        49  -9.7147     81.3301    154.6628   1.0542957290e+02   3.2968110419e+01    0.1515054    0.1015898  73.76 0.0007052019    1.734    0.423
        50 -10.4902     23.3331    153.8415   1.2001937781e+02   4.0121750495e+01    0.1995281    0.1487965  61.74  0.000515738    1.302    0.232
        51 -10.2560     40.6373    153.0943   1.1565142229e+02   3.8591839608e+01    0.1894872    0.1381366 -75.16 0.0007035973    1.173    0.148
        52 -10.5181    189.6980    149.8770   7.8275694825e+01   1.3263314199e+01    0.4288961    0.1906323 -49.70  0.001542909    2.623    0.619
        53 -11.6020    233.9295    147.6034   6.9301739758e+01   4.8573085319e+00    0.3601058    0.2201011 -49.86  0.001355445    1.910    0.476
        54 -11.1692    107.5780    146.0692   9.7005125308e+01   3.0694902692e+01     0.522097    0.2719887  67.96  0.001604012    4.061    0.754
        55 -10.2901     55.8101    146.2005   1.1080445524e+02   3.8511500371e+01    0.2419776    0.1230731  69.51 0.0009526429    2.858    0.650
        56 -10.1737    148.7633    145.1880   8.6423347388e+01   2.2845009706e+01    0.2614062    0.1729565  86.43 0.0009542279    2.793    0.642
        57 -10.6534     44.4997    168.0059   1.1643133726e+02   3.4641914096e+01    0.1814682   0.08464322 -50.61 0.0008099209    2.484    0.597
        58  -9.9080    181.5083    141.4776   7.8095228300e+01   1.6654410653e+01    0.2769212    0.1403062 -52.03  0.001028958    2.321    0.569
        59  -9.6001    245.0000    136.9940   6.5107910701e+01   4.5582403321e+00    0.2332356   0.07055421 -36.39 0.0008027853    2.945    0.660
        60 -10.2892     82.7999    131.3322   1.0081184390e+02   3.8406706165e+01    0.3623275    0.1969924 -74.86  0.001418399    2.404    0.584
        61 -12.1010     99.5347    128.6419   9.5538743240e+01   3.6288968626e+01    0.8167138    0.4881341  76.12  0.002903955    3.131    0.681
        62 -10.8952     26.3109    119.6524   1.1515818063e+02   4.8020591599e+01    0.2772922    0.1525075  89.10  0.001343292    2.027    0.507
        63 -10.3562    249.4827    123.5207   6.1411349205e+01   5.9298914752e+00    0.1380427    0.1202709 -29.33 4.934569e-05    1.007    0.007
        64 -10.7536     15.2946    120.7383   1.1846134488e+02   4.8623007278e+01    0.2940853    0.2372041 -16.50   0.00164627    1.631    0.387
        65 -11.6235    193.0620    117.9230   6.9987362922e+01   1.8754953771e+01    0.6483876    0.5215319 -80.38  0.003026046    1.595    0.373
        66 -10.9883     42.9257    121.9668   1.1065030309e+02   4.5890929891e+01    0.5818224    0.2582829 -85.37  0.002015459    3.736    0.732
        67 -11.3162    141.3991    112.7568   8.0373105774e+01   3.1583413299e+01    0.4449078    0.2777143 -25.69  0.001730397    2.132    0.531
        68 -10.5639    108.4288    113.0775   8.9362088689e+01   3.8347722739e+01    0.5604655    0.2772846 -65.42  0.001829999    3.191    0.687
        69 -10.6755     78.6418    112.5725   9.8046552997e+01   4.3600157671e+01    0.4261724    0.2439466 -86.17   0.00147263    3.481    0.713
        70 -11.8013    159.9482    111.8155   7.5599998841e+01   2.7589690096e+01    0.4764723    0.3639682 -75.58  0.002114024    1.701    0.412
        71 -10.8288     91.8864    111.3734   9.3770675169e+01   4.1743497429e+01    0.5110471    0.1928892 -61.32  0.001550574    3.600    0.722
        72 -11.1004    174.1940    110.7131   7.2091181702e+01   2.4513422846e+01    0.3997829    0.2978437 -51.57 0.0009781092    1.389    0.280
        73 -11.1949     14.5353    109.9649   1.1728907877e+02   5.1232947330e+01    0.5970986    0.3242695  88.90  0.003042199    1.982    0.495
        74 -12.4073    140.6753    104.8820   7.8446554024e+01   3.3449874417e+01    0.5765064    0.4612626 -70.20  0.002690413    1.474    0.321
        75 -11.8190    141.3397     99.8172   7.6877326336e+01   3.4376545784e+01    0.5315897    0.3072377  58.90  0.002061001    2.064    0.515
        76 -11.9137     44.7035    101.1464   1.0630712937e+02   5.0736945405e+01     0.659251    0.3763779 -88.41  0.002833114    2.603    0.616
        77 -12.0871    127.5974    100.9614   8.0800462939e+01   3.7178794006e+01    0.5571967    0.3137226 -55.22  0.002171297    2.012    0.503
        78 -11.9677    107.5685     99.3124   8.5991163197e+01   4.1665994402e+01    0.7465515     0.483391 -69.98  0.003035967    2.183    0.542
        79 -10.5334    244.5210     99.0189   5.6569670241e+01   1.0918595101e+01    0.2093839   0.09818493 -52.69 0.0008101193    2.547    0.607
        80 -11.1027     94.3954     96.0980   8.9073235475e+01   4.4855124389e+01    0.5136617    0.1387299 -49.78  0.001517923    3.526    0.716
        81 -11.1956    121.7905    111.1244   8.5122790730e+01   3.6143802601e+01    0.5885819    0.2202801 -53.53  0.001831846    3.078    0.675
        82 -10.7113     63.0160     96.0322   9.9134804008e+01   4.9769552217e+01    0.2243505    0.1691951  82.05  0.001107643    1.751    0.429
        83 -12.5521    170.1978     91.0058   6.7626042576e+01   2.9334067058e+01    0.4755242    0.4012357 -52.01 0.0009610414    1.199    0.166
        84  -9.8169    222.6535    104.3143   6.1199065144e+01   1.4647956515e+01    0.1508644    0.1107233 -69.07 0.0007047301    1.717    0.418
        85 -11.4599     87.1133     86.9900   8.8818209031e+01   4.8172375083e+01    0.4481093    0.2959668  62.79  0.001951658    2.202    0.546
        86 -10.7203    117.5696     85.2267   7.9026103762e+01   4.2680571287e+01    0.3795628    0.1474337 -40.97  0.001287855    2.566    0.610
        87 -11.5278     46.0971     82.5806   1.0167037182e+02   5.4926892009e+01    0.4706037    0.3183948  78.91  0.002010273    2.349    0.574
        88 -10.9619    104.3793     83.3237   8.2324565625e+01   4.5780745366e+01    0.3825878    0.2837181 -69.47  0.001760421    1.766    0.434
        89 -11.2264    249.6839     80.8154   5.1670231860e+01   1.2759381594e+01    0.2839642    0.1197562 -28.52  0.001093177    2.642    0.622
        90 -10.6637     23.9197     80.0523   1.0909999578e+02   5.7546895121e+01    0.3430533    0.1572942 -76.85  0.001442023    2.802    0.643
        91  -9.4794      1.4540     78.4840   1.1686597417e+02   5.9265732508e+01    0.1211418   0.09108657 -60.38  2.72331e-05    1.023    0.023
        92  -9.7297    153.2038     77.6390   6.7537505498e+01   3.5985115925e+01    0.2187038    0.1403417  43.30 0.0005010178    1.605    0.377
        93 -11.0237     62.4654     72.7024   9.3059811328e+01   5.5106061824e+01    0.6674704    0.1189859 -51.09  0.001821884    4.892    0.796
        94 -11.0596     82.3776     73.3196   8.6270458574e+01   5.1918297486e+01    0.3514961    0.2433441 -82.44  0.001467433    2.707    0.631
        95 -12.1039    223.0115     70.7435   5.2845435884e+01   2.0175758056e+01    0.3020334    0.2562259 -63.38 0.0004755257    1.136    0.120
        96 -10.0642    115.6587     72.3460   7.5550612148e+01   4.5675968274e+01    0.1554051    0.1220062 -81.44 0.0007046563    1.788    0.441
        97 -10.2721    140.5056     82.5458   7.2070476131e+01   3.8084163405e+01    0.2941402    0.1392853 -49.71  0.001037896    2.388    0.581
        98 -10.8617     51.9188     70.8326   9.6395577258e+01   5.6870560656e+01    0.2392237    0.1934955 -58.83 0.0009972146    1.258    0.205
        99 -10.1467    194.5023     67.4829   5.6408349628e+01   2.7519997621e+01    0.1480481    0.1418535 -69.58 0.0008104146    1.012    0.012
       100 -11.3980     20.7791     51.5251   1.0333552842e+02   6.3979142944e+01    0.6763516    0.1913053 -57.14  0.002756957    2.844    0.648
       101 -11.3396     28.5631     52.2487   1.0021341135e+02   6.3200491123e+01    0.3845077    0.2560826 -14.54  0.001448766    1.610    0.379
       102 -13.5308     29.3664     60.0229   1.0213959191e+02   6.1517174797e+01      1.07662    0.5965348  22.14   0.00275529    2.069    0.517
       103 -11.6484     19.5414     59.5543   1.0603355242e+02   6.2389411448e+01    0.3136192    0.2283168 -40.47   0.00111094    1.141    0.124
       104 -13.1772    232.1195     59.9529   4.8976200199e+01   1.9750844201e+01    0.8422772    0.4710321 -71.75 0.0007772699    2.464    0.594
       105 -10.9941      7.4335     55.8822   1.1013898163e+02   6.3919466827e+01     0.450045    0.1753226 -66.16  0.002134871    2.292    0.564
       106 -10.1226     54.3852     54.6236   9.0348785023e+01   5.9908360717e+01    0.2510935    0.1187533 -60.17 0.0009520256    3.281    0.695
       107 -10.2642    161.6675     53.4057   5.8316498810e+01   3.8004106042e+01    0.2871494    0.1457771  64.10  0.001120719    2.079    0.519
       108 -11.3117     40.0213     51.1213   9.5010668823e+01   6.2310904249e+01    0.4923989    0.1550119 -44.98   0.00198958    2.606    0.616
       109 -10.8504     41.9443     62.9077   9.7917241894e+01   5.9695057801e+01    0.2517472    0.1811468  30.62 0.0007366907    1.587    0.370
       110 -11.1350    148.6701     52.0310   6.0574606490e+01   4.1475659879e+01    0.3248144    0.2056741  57.14 0.0008113961    1.531    0.347
       111 -11.5267      7.8446     43.2612   1.0672217538e+02   6.6501403916e+01    0.5123808    0.2476343  33.32  0.002799674    2.661    0.624
       112 -11.2562     75.0430     43.2754   7.8312245290e+01   5.8852822321e+01    0.2814352    0.1986385  32.49  0.001136896    1.415    0.293
       113 -11.1061     70.2898     42.3785   7.9707454787e+01   5.9802678999e+01    0.3525412    0.2747187  74.28  0.001814462    2.271    0.560
       114 -12.0779     41.0015     37.7411   8.9806664575e+01   6.4727332015e+01    0.5558698     0.337929  11.71  0.002187536    1.859    0.462
       115 -11.8724    120.6145     34.4034   6.1024275135e+01   5.0819469162e+01      0.33601    0.2768694  54.61 0.0005293603    1.183    0.155
       116 -11.3654     50.2219     34.8014   8.4660300574e+01   6.4083848771e+01    0.3072457    0.2045522  25.57 0.0008727503    1.533    0.348
       117 -10.2647     73.5840     32.5376   7.4521699765e+01   6.0817895049e+01    0.2301645    0.1258482  53.54  0.001036384    2.435    0.589
       118 -10.6152    104.8415     30.3577   6.3642095864e+01   5.4928448464e+01    0.3488647    0.1678613  42.65 0.0007410379    1.972    0.493
       119 -10.0777    101.3507     29.6901   6.4365272254e+01   5.5773692051e+01    0.3336742    0.1158492 -37.03   0.00123904    2.974    0.664
       120 -10.2272    187.4322    248.4637   9.6654423647e+01  -2.9238050789e+00    0.2908237    0.1223334  32.02   0.00138562    2.139    0.533
       121  -9.7756     69.5103    245.5224   1.1847889801e+02   1.5325570926e+01    0.1183801   0.08676869  62.08 0.0008097537    1.046    0.044
       122 -11.3985    238.8849     20.4823   3.8998319954e+01   2.3529394471e+01    0.4032546    0.2051659  81.65 0.0008945438    2.015    0.504
       123 -11.8023    202.9823     20.9987   4.2686069407e+01   3.1913500198e+01    0.3266993    0.1879161  84.09  0.001216471    1.777    0.437
       124 -12.1148     22.1330    239.1495   1.2640415210e+02   2.2167560453e+01    0.5587553    0.2048019  63.94  0.002946351    2.381    0.580
       125  -9.9518     89.4065     18.3423   6.3216150515e+01   5.9691940459e+01    0.2622379    0.1690909  76.18  0.001180044    2.742    0.635
       126 -10.2346    113.5179     15.0111   5.5424721469e+01   5.4777142385e+01    0.1856038    0.1021625 -48.95 0.0007782736    2.466    0.594
       127 -10.5343     32.8348    242.1492   1.2473936682e+02   2.0445103276e+01    0.1777483    0.1064489  64.00 0.0008932878    1.258    0.205
       128 -10.2516      7.9954    240.4995   1.2882233553e+02   2.3367613286e+01    0.1448153   0.08466183  44.23 0.0006499597    1.567    0.362
       129 -10.4111     65.2406     11.4184   6.8171508003e+01   6.5096478505e+01    0.1596019    0.1157987  50.27 0.0007118966    1.591    0.372
       130  -9.9350      2.6557    240.1944   1.2967647083e+02   2.3940483977e+01    0.1485064   0.09160756  63.51  0.000782407    1.149    0.130
       131 -10.1691    109.7351    232.9388   1.0963602255e+02   1.1812520187e+01    0.1710693    0.1401552  58.91  0.000374831    1.052    0.049
       132  -9.9890     71.8254    228.5521   1.1661617203e+02   1.8157088466e+01    0.1905906     0.127921 -84.51  0.001098252    1.489    0.328
       133 -10.7849     12.5838    227.5445   1.2745313142e+02   2.5327666130e+01    0.2087293    0.1297275  70.37 0.0005740726    1.187    0.158
