#   1 NUMBER                 Running object number                                     
#   2 MAG_AUTO               Kron-like elliptical aperture magnitude                    [mag]
#   3 X_IMAGE                Object position along x                                    [pixel]
#   4 Y_IMAGE                Object position along y                                    [pixel]
#   5 X_WORLD                Barycenter position along world x axis                     [deg]
#   6 Y_WORLD                Barycenter position along world y axis                     [deg]
#   7 A_WORLD                Profile RMS along major axis (world units)                 [deg]
#   8 B_WORLD                Profile RMS along minor axis (world units)                 [deg]
#   9 THETA_WORLD            Position angle (CCW/world-x)                               [deg]
#  10 FWHM_WORLD             FWHM assuming a gaussian core                              [deg]
#  11 ELONGATION             A_IMAGE/B_IMAGE                                           
#  12 ELLIPTICITY            1 - B_IMAGE/A_IMAGE                                       
         1 -12.6182     28.8501    180.4032   8.1969582021e+01   3.3123309530e+01     2.459404     1.041417  68.27   0.01032737    2.596    0.615
         2 -11.0686    239.5845     33.8204   3.2623381900e+00   2.2122485246e+01    0.6902073    0.5018859 -48.29  0.003208279    1.114    0.102
         3  -7.7541    104.6461     11.1680   1.3714841509e+01   5.7407735146e+01    0.1817141    0.1291756   0.35 0.0004885449    1.736    0.424
         4  -9.4535    119.3846      8.5708   9.7774191548e+00   5.3917495754e+01    0.4240263    0.3014053 -66.76  0.002080085    1.558    0.358
         5  -8.7989     94.4262      9.7977   1.5487184709e+01   6.0072161619e+01    0.2387985    0.1909223  55.53  0.000293587    1.112    0.100
         6  -8.5231    110.9258      8.6935   1.1392954184e+01   5.6065857762e+01    0.2237522    0.1900802 -46.53 0.0001905829    1.282    0.220
         7  -7.9816    245.4789    225.4676   4.0735886380e+01  -5.6773097425e+00    0.1103457   0.08137327  -1.03 3.982825e-05    1.016    0.016
         8  -8.3986     57.4062    249.0342   8.0260829092e+01   1.5557515822e+01    0.3109927    0.1133057 -77.09  0.001455865    3.479    0.713
         9  -8.2968     49.0313    249.5877   8.1984563593e+01   1.6438975955e+01    0.1863701    0.1528204 -87.44 0.0008100203    1.384    0.277
        10  -9.7029     29.7321    249.3062   8.5799025897e+01   1.8624702282e+01    0.3175296    0.1950196  53.96  0.001358316    1.202    0.168
        11 -11.9658     44.8321    221.8689   8.1122273470e+01   2.2219506201e+01     1.647086     1.247542   0.82  0.006975456    1.994    0.499
        12 -10.6287     10.4507    225.5947   8.8685132241e+01   2.5077262075e+01    0.4692362    0.2876764 -81.17  0.001974732    1.644    0.392
        13  -7.2226     83.3097    223.3116   7.2645363388e+01   1.7062679891e+01    0.1169532   0.09731962  -6.04 0.0007026989    1.625    0.385
        14  -9.1591     74.8495    217.0040   7.3951484863e+01   1.9459140712e+01    0.2406904    0.2082353  79.29   0.00156878    1.188    0.158
        15  -9.4993     68.0907    217.7449   7.5566151271e+01   2.0200298943e+01     0.278311    0.1892697  34.41  0.001616829    1.327    0.246
        16 -12.1682     10.4217    208.2334   8.7987197490e+01   2.8656136092e+01      1.14882     0.855434 -82.47  0.007700481    1.358    0.264
        17  -9.0736     39.8317    211.1012   8.1513157254e+01   2.5030735474e+01    0.2803507    0.1665543  75.23   0.00130708    1.628    0.386
        18  -9.7177    101.2532    209.2547   6.6989349449e+01   1.7292487523e+01    0.2449061    0.2342472 -17.10 0.0003166185    1.238    0.192
        19  -8.4409     21.3333    210.8045   8.5684331568e+01   2.7063038470e+01    0.1999298    0.1542493  49.74 0.0007234212    1.124    0.110
        20  -8.6202    107.5193    207.4451   6.5302702080e+01   1.6714769636e+01    0.2380773    0.2027012  42.19 0.0008139865    1.013    0.013
        21  -9.0048     23.1786    202.6918   8.4821250451e+01   2.8625936823e+01    0.3708675     0.214714  15.68  0.001940668    2.303    0.566
        22  -9.1494     26.1435    199.9051   8.3963464150e+01   2.8938261484e+01     0.276739    0.1828526  67.04  0.001544575    1.285    0.222
        23  -7.4623    134.1658    203.4119   5.8620446880e+01   1.3347748109e+01    0.1827225    0.1119224  43.69 0.0004112394    1.509    0.337
        24  -7.3754    101.3421    198.2738   6.5571254910e+01   1.9533989723e+01    0.1316184    0.1049335  -0.04 0.0002616908    1.616    0.381
        25 -11.6454      4.8303    138.5931   8.5579288821e+01   4.5474731066e+01     2.490788    0.5594715 -89.08  0.004392063    6.459    0.845
        26  -8.1875    247.9544    248.3110   4.3801896866e+01  -8.4790880362e+00    0.1446531   0.07200514  44.70 0.0007043359    4.353    0.770
        27  -8.6468     45.0861    189.9121   7.8612303547e+01   2.9117189239e+01     0.192125    0.1621731  63.04 0.0002913685    1.011    0.011
        28  -8.1012     60.8229    189.9665   7.4643966577e+01   2.7157618618e+01    0.2329386    0.1579752  75.33 0.0003919965    1.501    0.334
        29  -9.3446      7.2674    182.7081   8.7537581914e+01   3.4594772344e+01    0.6466205    0.1171271  51.40   0.00221763    4.141    0.759
        30 -11.6249     11.9295    243.0618   8.9022947245e+01   2.1574939277e+01    0.8375848    0.7790414 -64.36  0.005226553    1.548    0.354
        31  -7.5740    191.2804    192.9660   4.4825528710e+01   6.0721150473e+00    0.1744752    0.1511192  -5.77 0.0003759995    1.062    0.058
        32  -8.6312     37.9499    170.4957   7.8728803919e+01   3.4534133243e+01    0.1973506    0.1651444  85.81 0.0004490488    1.090    0.083
        33 -12.7775      9.8372    231.0912   8.9014066327e+01   2.4052212294e+01     1.835187     1.068889  19.47  0.009769865    2.166    0.538
        34  -9.6998     51.3658    168.1286   7.4801517263e+01   3.3544353411e+01    0.3856192    0.2577592 -34.31  0.001201582    2.123    0.529
        35  -9.4087     57.5101    164.2127   7.2623094777e+01   3.3729148204e+01    0.4015431    0.2510201 -67.88   0.00126516    1.577    0.366
        36  -9.2907     11.7300    168.5913   8.5619207922e+01   3.7543488353e+01    0.2158285    0.1655585 -48.52 0.0009718729    1.603    0.376
        37  -9.6514      6.7969    191.8306   8.8084833006e+01   3.2562033056e+01    0.2836326    0.1808198  57.13 0.0009053497    1.266    0.210
        38  -8.8510    118.8732    165.5637   5.6112287607e+01   2.3770495332e+01     0.327798    0.2607943 -31.33 0.0009229199    1.459    0.315
        39  -8.5052     80.7951    161.1996   6.5637494686e+01   3.1161801731e+01    0.2627499    0.1355941  64.90 0.0009507459    2.816    0.645
        40  -7.6215      2.3728    161.0998   8.7673327852e+01   4.0085742622e+01    0.1861467   0.09527225  80.97 0.0009362339    1.731    0.422
        41  -7.4546    230.5613    157.4908   3.1128024699e+01   5.5426682139e+00    0.1254551    0.1077802 -24.19 3.383009e-05    1.101    0.091
        42  -8.6915     69.0493    155.4715   6.8131412568e+01   3.4325938944e+01    0.2543791    0.2213918 -64.15 0.0003960878    1.183    0.154
        43 -10.6115     54.7185    151.0503   7.1733181041e+01   3.7394463665e+01    0.4115536    0.3040024 -33.08  0.001094414    1.754    0.430
        44  -8.1856     30.6408    151.5087   7.8960585032e+01   4.0032262705e+01    0.2122278    0.1895863 -25.45 0.0006211604    1.406    0.289
        45  -7.8357      2.0195    152.0109   8.7261728185e+01   4.2326419597e+01    0.2032185    0.1628204  78.05  0.001292246    1.026    0.026
        46  -9.1194     76.7540    150.3247   6.5076333275e+01   3.4471506047e+01    0.4304256    0.2881107  16.83  0.001090432    1.907    0.476
        47  -9.7344     70.1734    145.8427   6.6308495905e+01   3.6590130522e+01    0.4298823    0.3820392  54.23  0.001810112    1.081    0.075
        48  -9.9965     67.6956    143.3280   6.6653941973e+01   3.7592168247e+01    0.5553786    0.3176559  55.35  0.001748018    1.890    0.471
        49  -8.4052     11.6901    143.7947   8.3905308397e+01   4.3667427945e+01    0.2705078    0.1566454  39.52  0.001421044    1.678    0.404
        50  -7.3865     93.4986    137.5170   5.7790171026e+01   3.4919496969e+01    0.1510474    0.1467047  71.98 0.0001514184    1.027    0.026
        51  -9.6514     80.7707    135.8240   6.1310159886e+01   3.7493360028e+01    0.2847604    0.2489112 -60.01 0.0004055288    1.149    0.130
        52  -8.1992     40.7049    143.7391   7.5046931577e+01   4.0952997310e+01    0.2348668    0.1710424  25.66 0.0005330432    1.507    0.336
        53  -7.3869     39.2569    134.0414   7.4255946852e+01   4.3625779842e+01    0.1763737    0.1121167 -71.13 0.0003828315    1.452    0.311
        54 -10.9791     19.8303    191.3755   8.4954156003e+01   3.1477972291e+01    0.4603607    0.4064453  84.48  0.000859748    1.173    0.147
        55 -10.3266     28.4563    130.4286   7.7325786526e+01   4.5668143081e+01    0.2464405    0.2389974  37.24 0.0004480531    1.175    0.149
        56  -7.1398     80.4942    126.4081   5.9537955208e+01   3.9925651923e+01    0.1474901    0.1465202 -59.71 0.0001711392    1.080    0.074
        57  -9.1259     35.4433    114.2947   7.2692003375e+01   4.9195341867e+01    0.4498956    0.2095713  57.22  0.001408284    2.738    0.635
        58  -7.9904    176.7028    114.8251   3.1421672563e+01   2.2925437726e+01    0.2068837    0.1919739 -15.06 0.0005869596    1.113    0.101
        59  -7.3120    189.5805    113.1557   2.8548888184e+01   2.0506106015e+01    0.1836964     0.133038 -27.08  0.000249339    1.435    0.303
        60  -9.0375      6.1774    188.1968   8.8064421219e+01   3.3433117380e+01    0.1774458    0.1526071  86.41  0.000997268    1.179    0.152
        61  -8.2394    103.9645    104.3319   4.6905905938e+01   4.1011033902e+01    0.2116546    0.1915387  43.18 0.0002669003    1.110    0.099
        62  -8.3133      5.0133    103.8049   8.2495719178e+01   5.4336736015e+01    0.2232024    0.1441475  32.92  0.001024798    1.688    0.408
        63  -7.0968     73.2416     99.3784   5.5830620985e+01   4.7947172230e+01    0.1557511    0.1115986 -32.46 0.0006931804    1.632    0.387
        64  -7.1883    145.7223     90.6810   3.1778024022e+01   3.4665043351e+01    0.1515788    0.1246343   3.81 0.0004141931    1.576    0.365
        65  -8.9101     77.1248     88.0711   5.1389164642e+01   5.0026635384e+01    0.3949375    0.2488602 -39.34 0.0008931657    1.705    0.414
        66  -8.0420    128.8977     72.0086   3.0285046304e+01   4.2325708009e+01    0.2216493    0.2118424  78.42 0.0003301018    1.023    0.023
        67  -7.3163     77.5086     71.4715   4.6143970482e+01   5.3757793549e+01     0.147935    0.1442633 -13.31 -6.790649e-06    1.015    0.015
        68  -7.8187    143.7185     59.9147   2.3001505590e+01   4.0822914896e+01    0.2663685    0.1889975  77.70 0.0007412121    1.571    0.363
        69  -8.4273    168.0248     55.9645   1.7215419383e+01   3.5368625797e+01    0.2123994    0.2007157 -72.36            0    1.040    0.039
        70 -10.3803    228.4649     42.0988   6.0561381195e+00   2.3355309782e+01    0.4421748    0.2807847  49.58  0.001617203    2.032    0.508
        71 -10.5139    212.2325     53.3041   1.0380294992e+01   2.5330699110e+01    0.4590298    0.3576896  57.81  0.002248394    1.449    0.310
        72 -10.6276    219.1431     48.0107   8.3478948016e+00   2.4553007613e+01    0.5872835    0.4607527 -56.50  0.003553434    1.089    0.082
        73  -7.7069    249.6911     54.4383   6.8967869738e+00   1.7518946848e+01    0.1393755    0.1151883  60.57 0.0009243686    1.490    0.329
        74  -8.5302    221.6360     40.2196   6.2507456387e+00   2.5048306600e+01    0.1846433    0.1450048 -64.48 0.0008195251    1.109    0.099
        75  -9.5504     38.8552    240.7238   8.3543455815e+01   1.9214970666e+01    0.5671625    0.2402013  88.92  0.002835377    2.796    0.642
        76  -8.3511    207.8928     27.9324   4.5592548026e+00   2.9640991519e+01    0.1892155    0.1631617 -67.93 0.0003625464    1.043    0.041
        77  -7.1651     73.6748     25.2932   2.9064488623e+01   6.3005788248e+01    0.1316893    0.1100072 -82.87 0.0005595029    1.619    0.383
        78  -7.6234     89.9038     21.8715   2.2136023586e+01   5.9800471762e+01    0.1980988    0.1730376  23.76 0.0003619561    1.164    0.141
        79  -7.3346    110.0135    242.2073   6.8775441093e+01   9.9529578172e+00    0.1645917   0.07993664  34.25  0.000329048    1.640    0.390
        80  -8.7393     55.0226    237.9386   8.0016167645e+01   1.7873266170e+01    0.3826284    0.1510717 -83.22  0.001730373    3.355    0.702
        81  -7.4309     76.7232    234.3246   7.5108745740e+01   1.5838274685e+01    0.1264794   0.07610638  58.47 0.0003170689    1.586    0.369
