#   1 NUMBER                 Running object number                                     
#   2 MAG_AUTO               Kron-like elliptical aperture magnitude                    [mag]
#   3 X_IMAGE                Object position along x                                    [pixel]
#   4 Y_IMAGE                Object position along y                                    [pixel]
#   5 X_WORLD                Barycenter position along world x axis                     [deg]
#   6 Y_WORLD                Barycenter position along world y axis                     [deg]
#   7 A_WORLD                Profile RMS along major axis (world units)                 [deg]
#   8 B_WORLD                Profile RMS along minor axis (world units)                 [deg]
#   9 THETA_WORLD            Position angle (CCW/world-x)                               [deg]
#  10 FWHM_WORLD             FWHM assuming a gaussian core                              [deg]
#  11 ELONGATION             A_IMAGE/B_IMAGE                                           
#  12 ELLIPTICITY            1 - B_IMAGE/A_IMAGE                                       
         1 -15.5790     16.7926    109.6581   1.3338355039e+02   5.1485345881e+01     2.067479     1.269935 -70.05  0.004622876    1.403    0.287
         2 -14.5982     86.0891     66.7726   1.0025852975e+02   5.2165280360e+01     1.629664    0.9579934  -9.64  0.006580081    2.867    0.651
         3 -15.5849      7.0879     69.6875   1.2875577502e+02   6.0683855083e+01     1.381765    0.6965426 -58.04  0.004367268    1.580    0.367
         4 -13.4546      8.8429      3.1283   1.0610001586e+02   7.1539782869e+01    0.5039919    0.4318411  14.92  0.004082666    1.615    0.381
         5 -14.7591     42.7775      5.6927   9.2411146934e+01   6.7408479706e+01     1.452577     0.810444 -20.65  0.009143093    1.679    0.404
         6 -13.4125     38.4962     14.4235   9.7908937975e+01   6.7007331508e+01    0.9329284    0.4628729  24.87  0.005331527    1.953    0.488
         7 -14.0573     25.0967     14.1678   1.0344595550e+02   6.8594395084e+01    0.5207088    0.3638711  11.33   0.00233257    1.251    0.200
         8 -15.1318      8.1402     29.3919   1.1692838728e+02   6.7901134973e+01    0.8427205    0.7048797  13.01  0.006678682    1.445    0.308
         9 -15.3357     14.6155     18.9943   1.1012660811e+02   6.8953418856e+01     1.120389    0.6044583 -19.62  0.005755201    1.670    0.401
        10 -12.9214    117.5423     28.9772   7.8896058367e+01   5.1483939003e+01    0.9768659    0.5318389  18.90  0.004081841    2.928    0.658
        11 -14.9424    122.4379     36.9383   8.0370547157e+01   4.9452438495e+01     1.337725    0.6661022  51.14   0.00454614    1.793    0.442
        12 -14.4677    166.4619     30.3621   6.9823248653e+01   3.9994037101e+01     1.144881    0.6075311  66.87  0.002879891    1.735    0.424
        13 -12.6352    139.3886     21.6742   7.2006804209e+01   4.7372648717e+01    0.6043629    0.4300346  80.95  0.001952351    1.551    0.355
        14 -14.6028    145.8150     30.7686   7.3534829298e+01   4.4861201311e+01     1.049049    0.5417361  59.23  0.003901088    1.715    0.417
        15 -12.4442    185.1589     15.1181   6.3199068283e+01   3.7242643359e+01    0.5556927    0.2487041  48.47  0.002344916    2.481    0.597
        16 -13.4519    189.1441     26.2018   6.5432372990e+01   3.5045804606e+01     1.102318    0.5113767 -62.56  0.003798638    2.963    0.662
        17 -15.6689     99.6689     12.8207   7.7587095350e+01   5.6918488090e+01     1.284729    0.6441938  53.26  0.003397651    1.731    0.422
        18 -13.0068    218.7231     15.1523   5.9503913256e+01   2.9440685440e+01    0.3669986    0.2697107  84.80  0.001316019    1.156    0.135
        19 -11.4646    202.0150     11.6578   6.0434974867e+01   3.3658973820e+01    0.1934273    0.1842269 -51.55 0.0003612631    1.288    0.224
        20 -12.2073    214.1102      9.8780   5.8812347681e+01   3.1075680612e+01    0.4256689    0.1988127  64.61  0.001826646    1.899    0.473
        21 -12.7307    223.0855      5.2830   5.7017921346e+01   2.9558884108e+01     0.560831    0.2621178 -30.11  0.002829336    2.562    0.610
        22 -10.7065    153.5926      8.2185   6.5691383710e+01   4.5381347119e+01    0.1485235    0.1229127   6.79  0.000302587    1.510    0.338
        23 -11.5775    229.3193      4.6054   5.6350969377e+01   2.8259807768e+01     0.230249    0.1548299 -76.58 0.0005982673    1.250    0.200
        24 -11.1967     67.2425      4.0195   8.3162322264e+01   6.3781629754e+01    0.2077232    0.1366928   8.32 0.0008709792    1.465    0.318
        25 -11.4885     26.4461      3.9235   9.8332358058e+01   6.9661121893e+01    0.2055882    0.1266149  16.71 0.0007232122    1.395    0.283
        26 -10.5184    192.7445      2.9892   5.9418840731e+01   3.6695372744e+01    0.1390042    0.1056563 -37.54 0.0004186385    1.498    0.332
        27 -11.8353    245.0669     16.1371   5.7333302632e+01   2.3548459943e+01    0.4137418    0.2117134 -36.13  0.002234465    2.062    0.515
        28 -11.8499     80.9991      1.7369   7.8244286642e+01   6.1512476697e+01    0.5100085    0.1057852  50.91  0.001972964    3.431    0.709
        29 -10.5954     62.4765      1.5028   8.3616272349e+01   6.4801319189e+01    0.1939231   0.09645444  46.40 0.0007170673    1.790    0.441
        30 -10.9723     59.3251      1.6779   8.4717726171e+01   6.5302836994e+01    0.1716846    0.1218441  30.78    0.0011739    1.155    0.134
        31 -11.1757    232.6279      1.4990   5.5464677949e+01   2.7875106732e+01    0.2281971   0.09873817  75.33 0.0006882052    2.001    0.500
        32 -12.0025     48.9403    181.5530   1.3536683370e+02   3.1324818404e+01    0.4140253     0.208831 -53.94  0.001986036    2.011    0.503
        33 -12.2084     51.6927    246.8579   1.4134323349e+02   1.6740030179e+01    0.2225192    0.1873137 -38.49  0.001488761    2.021    0.505
        34 -12.0412     59.7161    245.1401   1.3975523622e+02   1.6006933335e+01    0.3200225    0.1576649 -70.40  0.001745287    1.991    0.498
        35 -13.0257     28.5799    246.2374   1.4531059882e+02   1.9725656136e+01     0.447311    0.2719806  77.09  0.002948521    1.304    0.233
        36 -11.8447      2.7260    249.8324   1.4973174777e+02   2.1860065661e+01    0.2860738    0.1683675  63.33  0.001872689    1.279    0.218
        37 -14.1013      9.0381    245.6831   1.4850666971e+02   2.1999066535e+01    0.7107274    0.3919995  65.84  0.003154342    1.386    0.279
        38 -14.1958     30.0372    169.1278   1.3820254911e+02   3.6390982717e+01    0.9557972    0.6607177  73.52  0.001155594    1.407    0.289
        39 -13.2492    123.9328    166.9812   1.1500473383e+02   2.2969822663e+01    0.6720059    0.4404646 -72.12   0.00290734    1.829    0.453
        40 -11.0120    192.7458    164.9792   9.8854223331e+01   9.3651497797e+00    0.2017295    0.1264356 -42.57  0.000886618    1.564    0.361
        41 -12.7613     77.5438    157.3052   1.2485056558e+02   3.3297919132e+01    0.4876422     0.337392  36.78  0.001267902    1.586    0.369
        42 -13.1292     73.6530    153.7432   1.2523089440e+02   3.4743568411e+01    0.6565165    0.4797313  20.31  0.003341113    1.787    0.440
        43 -12.1173     26.1195    155.1187   1.3745026007e+02   4.0089854198e+01    0.2708564    0.2299185  65.29  0.001797243    1.249    0.199
        44 -12.8195    110.6402    155.0697   1.1593144597e+02   2.8310392879e+01    0.5699632     0.370709 -89.68  0.002296433    2.284    0.562
        45 -12.2768    189.1163    156.0144   9.7642839093e+01   1.1980779651e+01     0.279897    0.2302181  45.49  0.001404969    1.246    0.197
        46 -11.3868     56.0548    155.9711   1.3012165058e+02   3.6587883405e+01    0.2116117    0.1551707 -37.18  0.001113202    1.672    0.402
        47 -12.0821     85.3004    153.7455   1.2220595795e+02   3.2974207189e+01     0.503047     0.228903 -44.54  0.001913714    2.488    0.598
        48 -12.2278    103.4795    149.8768   1.1671556625e+02   3.0860415645e+01    0.3622328    0.2990258 -30.08  0.001830866    1.429    0.300
        49 -11.8721    245.6736    148.7616   8.5386651502e+01   2.0787544864e+00    0.2860703    0.2703071  38.13  0.001756022    1.192    0.161
        50 -10.6914     44.5307    145.4742   1.3146077427e+02   4.0503628071e+01    0.1346707    0.1132744 -71.60 9.667601e-05    1.008    0.008
        51 -12.3667    148.4951    141.3141   1.0344254518e+02   2.3960432341e+01    0.4497857     0.262384 -46.02  0.001838828    1.692    0.409
        52 -12.6007     43.4146    138.7974   1.3069650501e+02   4.2235465978e+01    0.5772577    0.2999772 -32.88  0.002411404    3.002    0.667
        53 -11.9669     39.4655    136.3487   1.3136513795e+02   4.3244354903e+01    0.2309327    0.1226895  36.57  0.001147249    2.119    0.528
        54 -11.2361     38.2279    145.7969   1.3314925517e+02   4.1108212178e+01    0.1801859    0.1367261 -49.28 0.0006089531    1.336    0.252
        55 -11.9050     60.9083    133.9132   1.2504770911e+02   4.1327838755e+01    0.2570135    0.1962309  48.98 0.0005215037    1.450    0.310
        56 -11.7260    137.7849    133.1637   1.0414041502e+02   2.8109772653e+01    0.2167628    0.1909724  -6.36 0.0006879598    1.348    0.258
        57 -12.8878    132.4264    131.0434   1.0498244504e+02   2.9723293714e+01     0.537094    0.3257825 -57.64  0.002206152    1.768    0.434
        58 -15.2469    104.6841    123.1245   1.1043807111e+02   3.7035043119e+01     2.425566    0.9381498  37.68  0.008406033    2.830    0.647
        59 -15.5990    107.0415    105.6604   1.0535406096e+02   4.0555772823e+01     1.768198     1.464945  -7.81   0.00896504    1.425    0.298
        60 -14.4432     91.4907    109.3865   1.1079418386e+02   4.2535073143e+01     1.340825    0.5905171  34.14  0.005098394    2.587    0.613
        61 -11.6292     59.8362    125.7680   1.2377032501e+02   4.3420756746e+01    0.4988257    0.2670362 -29.05  0.001955056    3.033    0.670
        62 -13.7871     32.8230    111.3552   1.2890663398e+02   4.9771472977e+01    0.5959672     0.339853 -58.89  0.003183347    1.425    0.298
        63 -12.2259     25.3407    127.1539   1.3376721060e+02   4.6769576328e+01    0.2735181    0.2028483 -59.63 0.0008536807    1.118    0.106
        64 -13.7402     29.2861    122.6873   1.3194672326e+02   4.7466755198e+01    0.7136294    0.2742052 -59.01  0.003221815    2.002    0.501
        65 -12.1986    184.9314    124.1549   9.1076777775e+01   1.9577491994e+01     0.240683    0.2090482 -82.24  0.000427997    1.260    0.206
        66 -12.4753    180.4589    121.3925   9.1338253825e+01   2.1171502869e+01    0.3900076    0.2753142  40.15  0.001364691    1.538    0.350
        67 -13.2916    171.2730    241.3522   1.1755363015e+02  -1.1558842931e+00    0.3460665    0.2752287  42.94  0.002098438    1.129    0.114
        68 -14.0501      2.4804     96.9568   1.3557599688e+02   5.5225613624e+01    0.9538271    0.3466473 -68.56  0.003806208    2.292    0.564
        69 -14.5567     20.7711     97.0811   1.2988861061e+02   5.3999023609e+01    0.9595079    0.5091338 -67.93  0.004899414    1.747    0.428
        70 -15.0435     29.0777     92.5689   1.2628634333e+02   5.4312428619e+01     1.035734    0.8938027 -83.58  0.006862971    1.346    0.257
        71 -12.5531      3.9336    119.8477   1.3857629414e+02   5.0044834083e+01    0.4361413    0.2029881  21.50  0.002261507    2.742    0.635
        72 -13.6315     85.1564    115.4460   1.1413790624e+02   4.2199066675e+01     1.065444    0.6243209  22.85   0.00448365    2.276    0.561
        73 -12.5607     45.5661    110.1690   1.2481526526e+02   4.8764332415e+01    0.5444576    0.3445466 -41.57  0.002891594    1.504    0.335
        74 -12.4886    120.9383    111.6064   1.0310035522e+02   3.6498491975e+01    0.3723012    0.2554843  69.64  0.001502216    2.017    0.504
        75 -12.1311     61.7081    109.0419   1.1964090834e+02   4.7097068895e+01    0.5053501    0.2820734 -68.98  0.002215724    2.158    0.537
        76 -12.1364    249.2800    107.0015   7.5838970865e+01   8.8942937647e+00    0.2087054     0.167198 -47.71  0.001186006    1.084    0.078
        77 -13.0916    135.9576    103.3056   9.6964076724e+01   3.5101702045e+01     0.559789    0.3520286  47.94  0.001516423    1.610    0.379
        78 -13.2037    137.2259     96.1901   9.4693852457e+01   3.6288827917e+01    0.4861701    0.3711841 -50.84  0.001680054    1.337    0.252
        79 -11.3094    166.9834    102.4537   8.9417891215e+01   2.8179905216e+01    0.2645749     0.208105 -43.86  0.001269452    1.258    0.205
        80 -13.7624    121.1909    102.1196   1.0049714484e+02   3.8506216227e+01     0.664079    0.3864423  44.93  0.001212271    1.755    0.430
        81 -12.9901     62.3583     99.5578   1.1718908417e+02   4.9150765562e+01    0.6213402    0.4285796  79.19  0.002884555    2.451    0.592
        82 -13.7636     49.3069     98.8052   1.2114974500e+02   5.0919433565e+01    0.7529217    0.5801538  -0.86  0.003399029    1.533    0.348
        83 -12.6911     43.3268     91.7661   1.2142831551e+02   5.3119249537e+01    0.5451792     0.228286 -60.54  0.002323228    2.371    0.578
        84 -10.7225     76.0371     95.6660   1.1190001138e+02   4.8063389188e+01    0.1835518    0.1731244   5.87 0.0003359631    1.112    0.101
        85 -13.6456     97.2442     93.0346   1.0473054182e+02   4.5086081383e+01    0.5502796    0.5076714  47.68   0.00195617    1.170    0.145
        86 -14.9065    161.1252     80.5463   8.4782361156e+01   3.3747933863e+01     1.399408     1.008093   6.15   0.00347384    2.170    0.539
        87 -14.9138    171.8304     76.7380   8.1541430628e+01   3.1853337523e+01      1.30762     0.743284  62.09  0.005555911    1.825    0.452
        88 -11.5255     89.6613     87.6101   1.0546488136e+02   4.7549657483e+01    0.3956936      0.23456  54.41  0.001724334    2.221    0.550
        89 -12.6585    125.3265     86.7147   9.5061883489e+01   4.0776786148e+01    0.3689878    0.3502161  38.10  0.002037035    1.052    0.050
        90 -12.9030    132.8714     86.1527   9.2955631711e+01   3.9238976550e+01    0.3188376    0.2663803  54.38  0.001197281    1.216    0.177
        91 -13.8468    188.3623     84.4629   8.0418072042e+01   2.6507991324e+01    0.6743795    0.3643116  48.93  0.001330109    1.918    0.479
        92 -12.5824    237.9429     79.8781   7.1482815165e+01   1.5913452214e+01    0.4270207    0.2684199 -78.57  0.002016303    1.969    0.492
        93 -14.3166     38.9968     67.9127   1.1669776492e+02   5.8473899519e+01      1.98654    0.5112628  23.98  0.006478838    5.639    0.823
        94 -14.1854     64.7255     65.5701   1.0688926840e+02   5.5758599484e+01    0.7861717    0.6041863  24.90  0.004556707    1.338    0.252
        95 -13.6575     51.2356     69.3700   1.1274610545e+02   5.6821825911e+01    0.7356642    0.5627649  82.09  0.003919957    2.401    0.583
        96 -13.6442     75.3113     74.1313   1.0600535371e+02   5.2575728027e+01    0.9543744    0.5532121  21.16  0.004399662    2.145    0.534
        97 -12.0191    147.0209    238.8278   1.2203363111e+02   3.4544683649e+00    0.2146978    0.1965412 -67.47 0.0008570096    1.238    0.192
        98 -13.5229     56.5919     78.8505   1.1362855222e+02   5.4289833158e+01    0.5527793    0.4028559 -12.93   0.00252293    1.502    0.334
        99 -13.4948     60.8666     75.5220   1.1122565757e+02   5.4397054089e+01    0.5292211    0.3598298 -41.59  0.001242132    1.311    0.237
       100 -12.3662    216.8669     80.5688   7.4663906119e+01   2.0489333799e+01    0.4065077    0.3361778 -35.26  0.001766654    1.294    0.227
       101 -12.6959    210.8180     78.3418   7.5070171130e+01   2.2265876768e+01    0.4707781    0.3007418 -82.36  0.002077224    2.044    0.511
       102 -12.7963     95.8337    236.9574   1.3205921229e+02   1.2337356351e+01     0.293234     0.250704   6.19 0.0009333204    1.797    0.444
       103 -13.4456    134.9447     79.7158   9.0572525212e+01   3.9988242632e+01    0.8964373    0.4226403  55.17  0.002973542    2.284    0.562
       104 -13.0213    128.4322     72.5064   9.0066143137e+01   4.2737195223e+01    0.5518522    0.3119828 -25.46  0.002263536    2.223    0.550
       105 -13.4750    135.4315     66.4197   8.6515249437e+01   4.2211607258e+01     0.666083    0.4349052  42.42  0.003147881    1.523    0.343
       106 -12.0063    113.9371     80.3690   9.6263714891e+01   4.4386755702e+01    0.3785984    0.3388452 -53.90   0.00164283    1.198    0.165
       107 -11.9931     90.4733     80.1058   1.0301962258e+02   4.8908596369e+01    0.4104047    0.3082441   3.56   0.00209205    1.591    0.372
       108 -12.2922     41.8301     77.3581   1.1829780259e+02   5.6304311508e+01    0.3273889    0.2363812 -46.17 0.0008370992    1.184    0.155
       109 -11.9208      6.1748     50.6988   1.2436527661e+02   6.4381029479e+01    0.2764545    0.1760966 -37.27  0.001227778    1.198    0.165
       110 -10.9844    219.5218     74.9446   7.2945236388e+01   2.0829856079e+01    0.2072889    0.1319708 -41.02  0.000426244    1.509    0.337
       111 -11.8582    152.1315     72.0357   8.4338259424e+01   3.7382666678e+01    0.3276373    0.2232845  16.02  0.001376097    2.284    0.562
       112 -13.5083    199.6376     70.0997   7.4834796216e+01   2.6281004394e+01    0.6623489    0.3765053  56.32  0.002032538    1.742    0.426
       113 -11.5360     99.5789     65.0277   9.5605793698e+01   5.0009750915e+01    0.3027959    0.2559184 -53.75  0.001132997    1.376    0.273
       114 -10.9888    138.3199     88.2917   9.2206119985e+01   3.7608707705e+01    0.1520215    0.1200268  11.90 0.0002287212    1.605    0.377
       115 -13.4061     78.8647     61.2501   1.0077629260e+02   5.4355504376e+01    0.4902701    0.4232386  -1.02  0.002471687    1.076    0.070
       116 -11.6914     82.4513     56.7753   9.8138213603e+01   5.4509206204e+01    0.3071263    0.1261168 -41.64 0.0009105157    2.434    0.589
       117 -13.7219    177.8395     57.7290   7.5311974183e+01   3.3506168610e+01    0.7207368    0.5654892 -82.60  0.002360345    1.361    0.265
       118 -11.9776     38.9596     60.5961   1.1455946524e+02   5.9863316202e+01    0.2599726     0.228342  66.48  0.001702975    1.730    0.422
       119 -12.2536     24.5934     60.0682   1.1980756303e+02   6.1317365689e+01    0.2862383    0.1761429 -46.09 0.0009487296    1.325    0.245
       120 -13.0890     63.3319     57.6657   1.0481815566e+02   5.7366122541e+01    0.3832157    0.3245626 -63.69  0.002325582    1.639    0.390
       121 -12.5243    109.6049     54.3049   8.9295576138e+01   4.9764829827e+01    0.4478367    0.2816544 -35.53  0.001650557    1.635    0.389
       122 -15.0262    119.7131     55.0168   8.6865344150e+01   4.7523147669e+01    0.8719758     0.519177  38.71  0.001909643    1.690    0.408
       123 -13.7748    103.1717     50.8817   8.9939716846e+01   5.1588908786e+01    0.4331983    0.3735312 -34.28 0.0008702619    1.229    0.186
       124 -13.4021     97.6761     50.3249   9.1319759248e+01   5.2751092111e+01    0.8452749    0.3950465 -44.77  0.003305265    2.494    0.599
       125 -11.3199     85.9732     50.3384   9.4841822982e+01   5.4921882722e+01    0.3257938    0.1875989 -25.72  0.001588269    1.849    0.459
       126 -13.4117     66.6278     50.4200   1.0122176834e+02   5.8093146010e+01     0.496257     0.359004  26.27  0.002936557    1.355    0.262
       127 -11.0486    136.0181     49.9636   8.1376709896e+01   4.4634111246e+01    0.2294611    0.1627999  25.34   0.00112829    1.681    0.405
       128 -12.6076    198.7899     37.3867   6.6895940830e+01   3.1341338836e+01    0.5251177    0.2991968 -83.28  0.002164199    2.171    0.539
       129 -13.7965    218.0611     41.9197   6.5509046571e+01   2.6207860949e+01     1.264782    0.5978952  72.81  0.004602718    2.137    0.532
       130 -12.6995    205.4490     40.4046   6.6741784409e+01   2.9358654949e+01    0.5192186    0.3029924 -85.54  0.002082514    2.014    0.503
       131 -10.5399    250.6882     47.6583   6.3112537786e+01   1.8193056479e+01    0.1135143    0.1022294  24.39 0.0007046071    1.699    0.411
       132 -13.8897    157.2928     45.0707   7.5543834988e+01   4.0312704535e+01     1.262544    0.3433898  49.59  0.004091407    3.458    0.711
       133 -13.3440     91.1738    231.5310   1.3235588170e+02   1.4162627761e+01    0.4615647    0.2550344  81.99  0.002107356    2.438    0.590
       134 -13.4704      8.7993     42.9631   1.2106235304e+02   6.5597769771e+01    0.7834464    0.5821856  48.34  0.005271663    2.219    0.549
       135 -12.2695     24.4582    217.1844   1.4393450891e+02   2.6130595321e+01    0.5976311    0.3503928  77.73  0.003606566    1.456    0.313
       136 -13.6955     20.2635    224.7552   1.4526769625e+02   2.4993800598e+01    0.4497775    0.3716214  67.37  0.002051463    1.242    0.195
       137 -13.1468     23.8360    230.9813   1.4507550787e+02   2.3316942152e+01    0.2858137    0.2189188 -74.56  0.001472655    1.374    0.272
       138 -13.1565     26.6988    226.0800   1.4420463047e+02   2.4006754970e+01    0.4726178      0.27359 -82.98  0.002222029    1.445    0.308
       139 -13.4332     66.9118    223.1638   1.3627568011e+02   1.9521894376e+01    0.7126515    0.5860086  44.59  0.004570517    1.351    0.260
       140 -14.1248     62.8147    214.9925   1.3623026619e+02   2.1861554722e+01    0.7500419    0.4756619  70.97  0.004156637    1.493    0.330
       141 -13.0460    131.5629     33.6297   7.7274228912e+01   4.7816968818e+01    0.5016634     0.329434  17.64   0.00231445    2.026    0.506
       142 -13.8822    112.0871     40.7096   8.4142615681e+01   5.1198359605e+01    0.8176489    0.4490676  24.98  0.002986117    2.523    0.604
       143 -11.5420    248.5689    225.3385   1.0007600171e+02  -1.1086671757e+01    0.2416998    0.1432191  30.23  0.001361437    1.615    0.381
       144 -11.1765     25.5347     43.0073   1.1418290082e+02   6.4279310489e+01    0.1717429   0.09462776 -42.79 0.0003874453    1.529    0.346
       145 -11.9171    246.7381     37.4342   6.1426687004e+01   2.0459668618e+01    0.3347777    0.1791942 -85.95   0.00165022    2.074    0.518
       146 -11.8458    241.4761     36.0239   6.1656421210e+01   2.1779034281e+01     0.311213    0.1499185  64.25  0.001551041    2.029    0.507
       147 -12.0535    104.9678     36.3282   8.4509539174e+01   5.3248029052e+01    0.3777803    0.1825218 -30.07   0.00174114    2.195    0.544
       148 -12.8461     75.8403     37.4733   9.3497569793e+01   5.8556513020e+01    0.3082109    0.2317579  32.21 0.0008407089    1.246    0.197
       149 -12.1987     70.3530     36.6239   9.4998499374e+01   5.9580197097e+01    0.2654286    0.2102697  24.93 0.0005114687    1.165    0.142
       150 -11.6206     45.4519     36.5185   1.0395857110e+02   6.3165511171e+01    0.2405429    0.1546178  -3.87 0.0006888831    1.616    0.381
       151 -12.4133     47.1991     32.4404   1.0175112305e+02   6.3539350843e+01    0.4093336    0.2161655   3.98   0.00189443    2.854    0.650
       152 -13.2351     34.0626     32.8358   1.0710071873e+02   6.5046827704e+01    0.5202122    0.2793291  41.25  0.002779862    2.534    0.605
       153 -12.7113     27.3563     33.2889   1.1003413857e+02   6.5672274434e+01    0.3586366     0.255193 -54.15   0.00204878    1.945    0.486
       154 -13.0875     23.4523     29.4889   1.1027794875e+02   6.6626564017e+01    0.5166571    0.2935628 -15.28  0.002581373    1.737    0.424
       155 -11.9026    249.0083    216.0067   9.8285463632e+01  -9.7784591719e+00    0.1786316    0.1640697 -81.12  0.001149826    1.764    0.433
       156 -12.3807     98.9954    215.1969   1.2869560494e+02   1.6356239266e+01    0.3690146    0.1786893 -54.64  0.001666392    2.178    0.541
       157 -13.2126    152.3525     31.4715   7.2536841232e+01   4.3234351146e+01    0.4116956    0.3459093  13.83  0.001335682    1.425    0.298
       158 -11.7361     94.6909    218.4306   1.3003065270e+02   1.6354760294e+01    0.2610856    0.1128468  44.64  0.001136113    2.084    0.520
       159 -11.1594    211.1015     33.3237   6.4379927075e+01   2.8973234430e+01    0.1866674    0.1491968 -89.80 0.0004375097    1.094    0.086
       160 -11.2083     13.6547    206.4461   1.4513637747e+02   2.9568823061e+01    0.2061497    0.1494357 -75.76  0.001406293    1.255    0.203
       161 -13.6494      9.2363    211.1032   1.4629925937e+02   2.9003062749e+01    0.6912484    0.2988563  47.03  0.003591563    2.114    0.527
       162 -11.5973    194.9818     23.8411   6.4107881403e+01   3.3937406918e+01    0.3030391     0.260749  -9.35  0.001085467    1.564    0.361
       163 -11.7279    216.2896     29.0047   6.2801457527e+01   2.8326129426e+01    0.1848313    0.1544817 -68.19 0.0006045279    1.094    0.086
       164 -13.0459     56.1287     27.5835   9.6527758873e+01   6.2976154633e+01    0.4200531     0.260408  38.22  0.001716541    1.633    0.388
       165 -11.5232     97.4731     27.0403   8.3255485463e+01   5.5883365792e+01    0.2345525    0.2068458  36.67  0.001519281    1.090    0.083
       166 -12.8325    215.1979     21.2028   6.1183309245e+01   2.9535328002e+01    0.2919305    0.2567663  -2.73  0.001254435    1.655    0.396
       167 -11.3978    223.0179     21.8643   6.0522248713e+01   2.7678983639e+01    0.1934355    0.1588323 -88.29 0.0004894932    1.052    0.050
       168 -11.8331    200.7313    215.6092   1.0731806312e+02  -1.8487074803e+00    0.2466847    0.1691228  45.23  0.001296559    1.479    0.324
       169 -11.1541     70.9225     16.9704   8.7251464901e+01   6.1896277553e+01     0.179703    0.1466751  18.95 0.0004114201    1.020    0.020
       170 -11.4248    156.7914    214.1985   1.1614712828e+02   6.3802254118e+00    0.3033113    0.1899905  32.04  0.001439288    1.658    0.397
       171 -10.8637    149.0605    206.9664   1.1657780735e+02   9.2708881014e+00    0.2221125    0.1770452   3.59 0.0007727786    1.668    0.401
       172 -12.7709     57.4132    204.2399   1.3616935017e+02   2.4987941349e+01    0.4610714    0.2575104  87.37  0.002267198    1.923    0.480
       173 -10.8546    185.6605    204.3286   1.0829990093e+02   2.9276403112e+00    0.1409471    0.1127499  78.84 0.0007051711    1.736    0.424
       174 -13.0980     39.2872    195.3787   1.3903134083e+02   2.9269860178e+01    0.4550685    0.3466585  77.55  0.002886479    1.119    0.107
       175 -12.6757     16.6214    196.3763   1.4375952921e+02   3.1484692283e+01    0.5416349    0.2173162 -59.24  0.002653331    2.386    0.581
       176 -12.0710    248.4279    194.7280   9.4326975569e+01  -6.3586527963e+00    0.2541176    0.1145392 -42.07  0.001141365    2.147    0.534
       177 -13.5719     22.6451    181.1064   1.4112606929e+02   3.4344304686e+01    0.6667657    0.3869785 -59.92  0.003504603    1.623    0.384
       178 -14.9898      7.9437    183.7027   1.4444368889e+02   3.5128316321e+01      1.13331    0.9022886  82.74  0.008074944    1.102    0.092
       179 -15.1842     15.4938    175.3538   1.4210487020e+02   3.6348431863e+01     2.314121      1.10674  75.35   0.01084922    2.367    0.578
       180 -12.3999    201.3789    191.6081   1.0261315096e+02   2.3963687107e+00    0.3926276    0.3126251  24.37  0.002106924    1.274    0.215
       181 -10.3891     81.6665    193.3220   1.2949678866e+02   2.4026662424e+01    0.1482304   0.09537364  72.85  0.000577479    1.704    0.413
       182 -11.6264    122.5019    181.9844   1.1818546745e+02   1.9729750464e+01    0.3934073    0.2374475 -82.16  0.001523543    2.555    0.609
