#   1 NUMBER                 Running object number                                     
#   2 MAG_AUTO               Kron-like elliptical aperture magnitude                    [mag]
#   3 X_IMAGE                Object position along x                                    [pixel]
#   4 Y_IMAGE                Object position along y                                    [pixel]
#   5 X_WORLD                Barycenter position along world x axis                     [deg]
#   6 Y_WORLD                Barycenter position along world y axis                     [deg]
#   7 A_WORLD                Profile RMS along major axis (world units)                 [deg]
#   8 B_WORLD                Profile RMS along minor axis (world units)                 [deg]
#   9 THETA_WORLD            Position angle (CCW/world-x)                               [deg]
#  10 FWHM_WORLD             FWHM assuming a gaussian core                              [deg]
#  11 ELONGATION             A_IMAGE/B_IMAGE                                           
#  12 ELLIPTICITY            1 - B_IMAGE/A_IMAGE                                       
         1 -15.1441     70.2419     56.5855   8.0625909251e+01   5.7246142103e+01     1.108896    0.7554973 -48.02  0.005413306    1.592    0.372
         2 -14.4897     24.1526     48.7191   9.7101689386e+01   6.4354627621e+01     3.803852     1.266456 -27.45    0.0108441    6.482    0.846
         3 -12.5180     28.6197     10.3678   7.9124562569e+01   7.0446512262e+01    0.8819917    0.2698601 -42.47  0.003594381    3.771    0.735
         4 -14.6769      7.5423     22.1006   9.5859069276e+01   7.0573127753e+01     1.697675    0.6022993 -39.45  0.008525019    2.120    0.528
         5 -10.6727    242.0196     22.5888   3.5681006450e+01   2.3597657124e+01    0.2045909    0.1394482 -54.04 0.0005313105    1.255    0.203
         6 -13.5045     95.2961      3.4015   5.0925968258e+01   5.9552865084e+01    0.8041049    0.3434207  60.41   0.00363758    2.204    0.546
         7 -12.9766     75.6659     13.3559   6.0909534518e+01   6.2658520716e+01    0.4704163    0.2926632  41.25 0.0008636858    1.418    0.295
         8 -13.8111     85.1923     11.9340   5.7302668488e+01   6.0916050608e+01     1.084383    0.9405599 -45.78  0.006848002    1.516    0.340
         9 -12.4392    124.0846     10.4356   4.7311544942e+01   5.2432759525e+01    0.2919512     0.210988  52.66 0.0003851679    1.199    0.166
        10 -11.7855     64.3110     18.5169   6.7282816747e+01   6.4146046650e+01    0.4184358    0.2189876  45.88  0.001457939    1.942    0.485
        11 -10.6585    188.1465      5.7401   3.6693193382e+01   3.7450926697e+01    0.1861448    0.1496221 -76.05  0.001154072    1.162    0.139
        12 -11.5921    138.7750      5.2669   4.2931779790e+01   4.9377670952e+01     0.502577    0.1597287  59.20  0.002014848    2.443    0.591
        13 -13.5611     19.7946     22.2571   8.9341603557e+01   6.9574285390e+01      1.01245    0.5232167   0.43  0.005293753    2.268    0.559
        14 -11.6687    111.7742      3.5019   4.7232016521e+01   5.5871248462e+01    0.4426305    0.2550223  64.13   0.00203486    1.614    0.380
        15 -11.9858    104.0688      4.1339   4.9146587514e+01   5.7563163310e+01    0.3013158    0.2079028   3.91  0.001532569    1.580    0.367
        16 -11.2166     33.8255      3.2225   7.2756467089e+01   7.0690421689e+01    0.2015424    0.1163561   4.16  0.001141906    1.753    0.429
        17 -11.4219     73.3732      1.5708   5.6220800149e+01   6.4228154342e+01    0.2167859    0.1364651  47.75 0.0005803194    1.413    0.292
        18 -14.1474     30.9149     88.4615   1.0486095533e+02   5.5127039613e+01    0.7656775    0.4471233 -68.17  0.003892608    1.667    0.400
        19 -11.8276    134.7696     92.1279   7.2025725459e+01   3.7780929872e+01    0.2305904    0.2135073 -67.64 0.0004151914    1.209    0.173
        20 -12.8407      5.3200     84.1306   1.1330090411e+02   5.7822290187e+01    0.4244349    0.1742398 -46.57  0.002097904    1.958    0.489
        21 -12.5165     77.0159     84.5100   8.7287820689e+01   5.0502166762e+01     0.263908    0.1952231  39.25  0.001035387    1.482    0.325
        22 -14.1335     41.0553     82.6563   9.9766944028e+01   5.5537512523e+01    0.5973506    0.4354077 -44.19  0.003402946    1.157    0.136
        23 -13.6300    137.9407     73.7218   6.5634464627e+01   4.0583094122e+01    0.4944711    0.4075957 -54.46  0.002483345    1.348    0.258
        24 -14.5745     41.9510     42.4320   8.6870840901e+01   6.3766850647e+01      1.04582    0.5543144   5.43  0.004738705    2.599    0.615
        25 -10.3047    246.8139    183.7836   7.0356093662e+01  -1.7823021085e+00    0.1568529    0.1376882 -24.21 0.0002311363    1.270    0.213
        26 -13.9790     77.6705     75.0269   8.4163210458e+01   5.2422824190e+01    0.6861514     0.348775  38.46  0.002960999    2.084    0.520
        27 -14.3404     47.2103     67.3098   9.3144290655e+01   5.8260385558e+01    0.7582237    0.4979392 -59.12  0.003954859    1.651    0.394
        28 -11.7701    152.1666     73.9742   6.2333341130e+01   3.7216272227e+01    0.2803437    0.2010986  69.28  0.001209161    1.667    0.400
        29 -13.6203    118.6120     71.7066   7.0108028063e+01   4.5269672633e+01    0.6034972    0.3767063 -39.82  0.002706131    1.597    0.374
        30 -14.4201     96.5810     71.2432   7.6579465514e+01   4.9848106536e+01    0.8807374    0.5883543  39.72   0.00184118    1.526    0.345
        31 -10.3443    182.5027     71.9731   5.5576624121e+01   3.0321379515e+01     0.218382    0.1420464 -35.60 0.0003593851    1.506    0.336
        32 -11.6385    160.0471     72.2970   6.0100229573e+01   3.5632855747e+01    0.2102767    0.1896772  50.13 0.0002872277    1.107    0.097
        33 -11.7677    124.5089     72.0828   6.8603080822e+01   4.3912600741e+01     0.231412    0.1467907 -37.33  0.001024933    1.568    0.362
        34 -13.3833     80.8133     68.1964   8.0838720076e+01   5.3286374639e+01    0.4637649    0.3109328   3.82  0.002140309    1.909    0.476
        35 -13.0608    130.3935     63.8274   6.4377120880e+01   4.4041007604e+01    0.5339929    0.2577411 -42.81  0.002096992    2.176    0.541
        36 -14.9763     36.2618     56.5651   9.4293849497e+01   6.1666708318e+01    0.9184212    0.7048241  34.13  0.005337297    1.587    0.370
        37 -14.0402     61.5211     34.3491   7.5347629513e+01   6.2413578255e+01     1.692506    0.5274187  35.63  0.006301626    3.337    0.700
        38 -15.4315     59.9389     70.9770   8.9344747456e+01   5.5898368636e+01     1.142791    0.8603537  17.73  0.004393042    1.404    0.288
        39 -10.9517    169.8491     62.8446   5.5341971592e+01   3.4821057295e+01    0.2174201    0.1991749  32.66 0.0004467697    1.143    0.125
        40 -12.8430     84.7048     59.9062   7.6634850091e+01   5.4184943227e+01    0.3376024    0.2430895 -29.78  0.001407817    1.322    0.244
        41 -11.8469    125.1744     57.0695   6.3473825384e+01   4.6346824014e+01    0.3102756    0.2257326  38.88 0.0005285973    1.345    0.256
        42 -11.3855    174.8424     56.7572   5.2661368236e+01   3.4542483961e+01    0.2264947    0.2219706  62.03 0.0004617388    1.033    0.032
        43 -11.5250     92.9805     56.9372   7.2809253239e+01   5.3175186609e+01    0.2131972    0.1818163 -71.43  0.001124393    1.659    0.397
        44 -12.3075    133.9186     53.9997   6.0268646820e+01   4.4811987772e+01     0.507506    0.3337667  76.78   0.00200333    2.200    0.546
        45 -12.5868    153.3790     53.1103   5.5667418346e+01   4.0298838785e+01    0.5009672    0.2608976  36.67  0.001966128    2.362    0.577
        46 -12.0047    145.4790     50.7852   5.6592843063e+01   4.2548538171e+01    0.3171605    0.2738827 -26.20 0.0008061666    1.198    0.165
        47 -12.1493    203.1809    171.5561   7.5983846349e+01   7.5105228793e+00    0.3580729     0.185161 -42.17  0.001562592    1.927    0.481
        48 -12.7420    239.9807    156.1376   6.5843691749e+01   3.7113905282e+00    0.7068536    0.3127118 -32.40  0.003047205    2.059    0.514
        49 -12.7883    197.5432    154.1368   7.3353428111e+01   1.1801863139e+01     0.531126     0.368284  45.33  0.002585665    1.552    0.356
        50 -11.3854    116.0607     45.6647   6.1906552261e+01   5.0155549161e+01     0.204463    0.1735682  36.85 0.0004231444    1.105    0.095
        51 -11.6894    121.6234     44.1710   5.9934170223e+01   4.9114236160e+01    0.2888327    0.2407933  41.08 0.0008916709    1.125    0.111
        52 -11.5008    156.9948     43.7772   5.2060657089e+01   4.0740639933e+01    0.2512908    0.2151942  59.08 0.0005021612    1.117    0.105
        53 -10.2356    140.6888     44.2774   5.5512574470e+01   4.4625141387e+01    0.1396292    0.1117638 -76.00 0.0002583641    1.560    0.359
        54 -13.0357     79.7730     42.5574   7.1868685320e+01   5.8033346655e+01    0.3688045    0.3153115 -27.16  0.002180637    1.201    0.167
        55 -10.2914    215.0233     41.9822   4.2832400635e+01   2.7096062894e+01     0.170663    0.1577483  27.67 0.0003128193    1.320    0.242
        56 -11.7786    218.0595     38.3165   4.1588804536e+01   2.6883094309e+01    0.2323558    0.2140001 -86.02 0.0003697331    1.079    0.073
        57 -10.4079    140.4435     35.4595   5.2651515367e+01   4.5845538262e+01    0.1412146    0.1288559  39.72 8.895229e-05    1.045    0.043
        58 -12.3471     78.3397     30.7476   6.7574867843e+01   6.0036678438e+01    0.4230558     0.361172 -53.82  0.002040301    1.641    0.390
        59 -10.9369    137.9683     48.9716   5.7661488935e+01   4.4609019637e+01    0.2339152    0.1770792 -71.12 0.0009047773    1.759    0.431
        60 -12.2118     83.5046     23.0137   6.2588132244e+01   6.0040960657e+01    0.3548372    0.2735099  37.73 0.0008322342    1.191    0.161
        61 -13.1900     41.9763     47.7257   8.8823233833e+01   6.2785801049e+01    0.4082352    0.3129122   6.07  0.001163728    1.282    0.220
        62 -13.4046    247.8699    145.0874   6.2171918069e+01   4.1911157799e+00     1.554157    0.4486143 -36.44  0.005563863    2.991    0.666
        63 -11.0441    138.6057    152.2442   8.6375696244e+01   2.3812144093e+01    0.2212693    0.1406933 -38.34 0.0009523511    1.638    0.389
        64 -13.4934     49.0162    141.8734   1.0875841086e+02   4.0355971728e+01    0.6981513    0.5047398  23.56  0.003832532    1.624    0.384
        65 -12.5732    195.6275    136.1107   6.9594920777e+01   1.5635008436e+01    0.6030119    0.5088167  13.02  0.003157457    1.251    0.200
        66 -11.7908    241.3419    146.0721   6.3451107011e+01   5.1483123641e+00    0.3614999    0.3266585 -15.74  0.002241367    1.091    0.083
        67 -12.8302    203.9303    124.6539   6.5217613992e+01   1.6092132505e+01    0.8337799    0.4924427 -25.91   0.00356643    1.851    0.460
        68 -11.0198    122.1182    127.1475   8.4903726812e+01   3.2751812438e+01    0.2492369    0.2172123 -10.43  0.001199886    1.251    0.201
        69 -10.3864    176.9540    100.7553   6.4541465110e+01   2.6514876666e+01    0.1916111    0.1308599  48.30  0.000226361    1.512    0.338
        70 -11.6594    141.0069     97.2259   7.1889146273e+01   3.5367787592e+01     0.400611    0.2177524 -24.99  0.001427806    2.514    0.602
        71 -10.3532    113.6272     96.8172   7.9258544423e+01   4.1252551514e+01    0.2263825    0.1417109 -53.69 0.0009480488    1.751    0.429
        72 -12.4833    188.0012     94.3957   6.0625374088e+01   2.5167926250e+01     0.410743    0.3223811  53.35  0.001031313    1.335    0.251
        73 -13.8421     36.3136     88.0643   1.0280986400e+02   5.4744836660e+01    0.7518164    0.5104154  85.00  0.003739805    2.189    0.543
        74 -14.2385      3.6709     47.3059   1.0609466016e+02   6.5978514087e+01    0.7184665    0.5565489  89.97  0.003840307    1.818    0.450
