#   1 NUMBER                 Running object number                                     
#   2 MAG_AUTO               Kron-like elliptical aperture magnitude                    [mag]
#   3 X_IMAGE                Object position along x                                    [pixel]
#   4 Y_IMAGE                Object position along y                                    [pixel]
#   5 X_WORLD                Barycenter position along world x axis                     [deg]
#   6 Y_WORLD                Barycenter position along world y axis                     [deg]
#   7 A_WORLD                Profile RMS along major axis (world units)                 [deg]
#   8 B_WORLD                Profile RMS along minor axis (world units)                 [deg]
#   9 THETA_WORLD            Position angle (CCW/world-x)                               [deg]
#  10 FWHM_WORLD             FWHM assuming a gaussian core                              [deg]
#  11 ELONGATION             A_IMAGE/B_IMAGE                                           
#  12 ELLIPTICITY            1 - B_IMAGE/A_IMAGE                                       
         1 -14.9478    163.8087     42.8761   7.7717450558e+01   3.9304850082e+01     1.412152     1.127178 -10.93   0.00392318    1.453    0.312
         2 -14.7419    178.1463     10.1391   6.5290087037e+01   3.9463459637e+01     1.114879     1.038817  75.17  0.003961864    1.066    0.062
         3 -13.1751     11.6704    205.9029   1.4806959170e+02   3.1078876649e+01    0.3877704    0.2839482  27.75   0.00279631    1.937    0.484
         4 -19.9397     73.9707    169.9447   1.3189582606e+02   3.1384652576e+01     17.60723     7.185746 -67.73   0.07483625    2.439    0.590
         5 -10.3633     28.6494    240.6106   1.4696657179e+02   2.2835772506e+01    0.1055086   0.07033375  69.00 0.0001184488    1.049    0.047
         6 -11.1543     21.6629    239.5322   1.4805890498e+02   2.3785990702e+01    0.1001943   0.07335769  76.12 0.0004395019    1.132    0.117
         7 -10.3630    139.7981    200.3644   1.2173136410e+02   1.4150084918e+01    0.3007319    0.1161962  38.87 0.0009220135    2.447    0.591
         8 -10.4991    113.3267    195.6602   1.2662450974e+02   1.9682694249e+01    0.4271256    0.2877648 -10.57  0.001701249    3.965    0.748
         9 -10.6290    131.3150    237.0099   1.2831238727e+02   9.2339359709e+00    0.1386934    0.1123231 -64.62 0.0003276061    1.499    0.333
        10 -10.6001     35.7922    186.9523   1.4212069868e+02   3.2472592960e+01       0.3437    0.2045728 -43.31  0.001814784    2.828    0.646
        11 -13.9958    203.5148    174.4970   1.0412434521e+02   6.6428124696e+00     1.994171    0.8384715 -51.76  0.006905159    3.831    0.739
        12 -11.4748    205.3458    169.2970   1.0271719455e+02   7.1556155485e+00    0.4141573    0.2635218 -40.55  0.001638004    1.650    0.394
        13 -11.9214    151.9796    182.9572   1.1630153134e+02   1.5185464701e+01    0.3219312    0.2361383 -85.28  0.001590646    1.884    0.469
        14 -11.2325     25.6611    184.5396   1.4401223961e+02   3.4059103590e+01      0.27304    0.1363394 -89.16 0.0009799161    1.760    0.432
        15 -11.6859     30.6880    182.9810   1.4285430300e+02   3.3869537824e+01    0.2282899    0.1594785  41.72 0.0005667889    1.527    0.345
        16 -11.1076    118.3579    181.6628   1.2345426861e+02   2.1669903889e+01    0.2951502     0.157691  57.90  0.001289384    2.031    0.508
        17 -11.7904    114.2146    178.1182   1.2382633901e+02   2.3143433450e+01     0.519794    0.2529884  62.60  0.001479788    2.922    0.658
        18 -12.3807    199.1826    178.8714   1.0583184597e+02   6.7510842407e+00    0.5367299    0.3431543 -69.07  0.002161207    3.299    0.697
        19 -13.2442    195.2576    168.7325   1.0457579265e+02   9.2534434402e+00    0.4639913    0.4122543 -27.51 0.0007109306    1.164    0.141
        20 -12.4694    192.9808    164.2620   1.0410835120e+02   1.0501331590e+01    0.4780932    0.3092948  40.33  0.001900501    1.474    0.322
        21 -10.4320      7.5989    237.4038   1.5023358849e+02   2.5605338461e+01    0.1068953   0.06377514  67.71 0.0004748211    1.147    0.128
        22 -12.4399      5.2363    177.8545   1.4769987661e+02   3.7371305672e+01    0.2942955    0.2021785  63.89  0.001157136    1.233    0.189
        23  -9.8004     13.5308    233.5758   1.4911044276e+02   2.5692501963e+01    0.1009464   0.07528475  73.32 0.0008011906    1.143    0.125
        24 -13.3606    138.2216    171.3389   1.1724758201e+02   2.0142846509e+01    0.7804151    0.5201205  62.86  0.003704403    1.677    0.404
        25 -13.9441    144.7649    169.0965   1.1536443007e+02   1.9331647843e+01     1.015566    0.5629072  70.88  0.003449189    3.652    0.726
        26  -9.9025     11.7259    173.6949   1.4610504411e+02   3.7694220522e+01      0.10377   0.07525885 -62.34 0.0002527606    1.543    0.352
        27 -10.6732    165.4924    172.1230   1.1140232128e+02   1.4615426330e+01    0.2083646    0.1438345 -46.20  0.001023376    1.563    0.360
        28 -12.5247    177.0452    170.2054   1.0858486881e+02   1.2653390276e+01    0.3342969    0.2152788 -41.39  0.001603092    1.660    0.397
        29 -10.9861     34.6748    169.8022   1.4085204425e+02   3.6315384198e+01    0.2027013    0.1761358   9.04  0.000997136    1.728    0.421
        30 -11.9240    230.3157    166.8727   9.7598852823e+01   2.7604180834e+00    0.3029486    0.1570676 -44.57  0.001359762    2.203    0.546
        31 -11.1174     25.2825    165.0689   1.4251296431e+02   3.8320665471e+01    0.1788097    0.1646543  68.05 0.0005264337    1.293    0.227
        32 -11.6897    125.7499    171.7972   1.2015782643e+02   2.2402227159e+01    0.3086031     0.245686 -69.62  0.001668701    1.327    0.247
        33 -11.7288    125.0639    243.6784   1.3022252440e+02   9.1646671259e+00    0.2413652    0.1478693 -59.36  0.001325902    2.018    0.504
        34  -9.9984    150.7983    243.2630   1.2545624943e+02   5.1174065090e+00    0.1440837    0.1212984  25.72  0.000453757    1.283    0.220
        35 -10.8119    190.3465    158.1422   1.0334950138e+02   1.2146610097e+01    0.3954535    0.1896137  34.59  0.001510233    2.401    0.583
        36 -10.7235    138.9149    250.4263   1.2845665455e+02   5.9562144126e+00    0.1705697    0.1141424  40.50   0.00108876    1.219    0.180
        37 -11.5803     23.1171    155.0650   1.4210226744e+02   4.0762492710e+01    0.4060654    0.2063122 -68.53  0.002191968    1.654    0.395
        38 -12.3811    202.4672    170.4685   1.0351347737e+02   7.5241105744e+00    0.7381495    0.2658183 -35.83  0.002674626    3.055    0.673
        39 -10.6588     22.4726    221.1092   1.4697195721e+02   2.7060355263e+01    0.1367091   0.08595525 -79.55 0.0005561642    1.476    0.323
        40 -12.6684    161.7382    153.3695   1.0841525069e+02   1.9075252361e+01    0.4403254    0.3489232  67.32  0.002133247    1.419    0.295
        41 -11.4793    174.2865    148.6853   1.0465200591e+02   1.7335833767e+01     0.344979    0.2769588 -76.32  0.001112381    1.586    0.370
        42 -14.2097    144.3728    145.4633   1.1069321769e+02   2.4362917284e+01     1.212041    0.5503306 -61.67  0.003863051    3.551    0.718
        43 -11.9650      7.1115    138.4084   1.4440328868e+02   4.5845934107e+01    0.2761928    0.2514678  78.59  0.001201923    1.245    0.197
        44 -10.8411      1.7202    139.9676   1.4583303879e+02   4.5877845662e+01    0.1667769    0.1208071 -72.69  0.000527718    1.199    0.166
        45 -10.3936    171.7800    137.8386   1.0273658336e+02   2.0028951456e+01    0.2086574    0.1817085  87.50 0.0005131487    1.333    0.250
        46 -12.2720    160.6619    127.8673   1.0285325344e+02   2.4539947866e+01     0.431998    0.3086933 -61.57  0.001788991    1.630    0.387
        47  99.0000     12.8715    242.7700   1.4961838699e+02   2.4138053007e+01    0.2477403   0.09984892 -60.38  0.001379945    3.477    0.712
        48 -11.1643    112.0391    214.2900   1.2932467703e+02   1.6300645630e+01     0.185573    0.1517166  77.24 0.0006497992    1.184    0.155
        49 -13.0925    108.3442    208.3585   1.2934028571e+02   1.8019958208e+01    0.4811624    0.3407432  80.83  0.002768832    1.519    0.341
        50 -11.0329    167.4257    112.5573   9.7467443322e+01   2.6103360692e+01    0.3517064    0.2533197 -87.54  0.001462987    2.028    0.507
        51 -10.2982     23.3602    215.5888   1.4650268774e+02   2.8017913300e+01    0.1039038   0.08149388  82.49 0.0002246378    1.178    0.151
        52 -10.8832    205.3315    110.2439   8.9167600877e+01   1.7604339276e+01    0.3161362    0.2100903  46.17  0.001016958    1.549    0.355
        53 -10.3709    130.7360    213.5673   1.2547717038e+02   1.3320115005e+01    0.1876013    0.1360203  86.97 0.0006704103    1.698    0.411
        54  -6.5254    116.4219    212.0395   1.2816173383e+02   1.6002300507e+01    0.3436347    0.1645683 -66.55  0.001121984    2.628    0.619
        55 -11.3591    109.0080    240.4373   1.3282515103e+02   1.2177648333e+01    0.1782986    0.1611917 -34.83 0.0009832055    1.631    0.387
        56 -10.6130    144.6647     80.9463   9.3869115008e+01   3.7792290335e+01     0.222564    0.2006668 -40.91 0.0005305741    1.110    0.099
        57 -14.4339    152.3688     57.5200   8.4730104780e+01   4.0034680258e+01     1.212808     1.097998   9.12 0.0009328536    1.210    0.174
        58 -11.0511    160.1387    246.3355   1.2413633414e+02   3.1651038215e+00    0.3023777    0.1520855 -35.47  0.001541614    3.023    0.669
        59 -13.0372    167.8476     34.8210   7.4438694632e+01   3.9338491025e+01     0.436465    0.3777355  33.75 0.0009649954    1.255    0.203
        60 -11.0510     13.3953     59.8831   1.3109408732e+02   6.3118176751e+01    0.1638832    0.1581251 -77.19 0.0004274003    1.249    0.199
        61 -10.5213    142.1417     32.9230   7.8616490265e+01   4.6222386938e+01    0.2138415    0.1895426 -77.90 0.0003011197    1.241    0.195
