#   1 NUMBER                 Running object number                                     
#   2 MAG_AUTO               Kron-like elliptical aperture magnitude                    [mag]
#   3 X_IMAGE                Object position along x                                    [pixel]
#   4 Y_IMAGE                Object position along y                                    [pixel]
#   5 X_WORLD                Barycenter position along world x axis                     [deg]
#   6 Y_WORLD                Barycenter position along world y axis                     [deg]
#   7 A_WORLD                Profile RMS along major axis (world units)                 [deg]
#   8 B_WORLD                Profile RMS along minor axis (world units)                 [deg]
#   9 THETA_WORLD            Position angle (CCW/world-x)                               [deg]
#  10 FWHM_WORLD             FWHM assuming a gaussian core                              [deg]
#  11 ELONGATION             A_IMAGE/B_IMAGE                                           
#  12 ELLIPTICITY            1 - B_IMAGE/A_IMAGE                                       
         1 -13.8627    234.2853     58.0714   2.6230623891e+02  -6.0343901369e+01    0.1688387   0.08624791 -29.75  0.005126533    2.562    0.610
         2 -11.0304     81.7134     24.1927   2.5680131166e+02  -5.5545303820e+01    0.1017337   0.01343298  31.75   0.00218162    4.556    0.780
         3 -11.5952     14.7163     18.0161   2.5530833136e+02  -5.3303966017e+01   0.04751684   0.03583235 -11.34  0.001407133    1.413    0.292
         4 -10.7325      8.7012     15.3675   2.5506238740e+02  -5.3121978148e+01   0.05042185   0.02942581 -12.11    0.0012265    1.989    0.497
         5 -12.5732      3.2578     13.1236   2.5485053184e+02  -5.2955594757e+01   0.09896232    0.0498786  16.39  0.003040776    1.957    0.489
         6 -12.2677      9.9805     10.8560   2.5482288815e+02  -5.3207268064e+01    0.0824649   0.04930686 -47.42  0.002977907    1.678    0.404
         7 -12.5809     76.0133     10.6483   2.5587863980e+02  -5.5482045190e+01   0.06664948   0.04106828  52.08   0.00089846    1.734    0.423
         8 -13.1084     65.5631     11.6436   2.5576115122e+02  -5.5112695862e+01    0.0488141   0.03907314 -85.27 0.0005431402    1.283    0.221
         9 -11.7909     59.6330     11.7548   2.5566831048e+02  -5.4907465344e+01   0.04697715   0.03375338  -0.79  0.001391813    1.472    0.321
        10 -10.2023     26.8497     12.5261   2.5518150639e+02  -5.3772013582e+01   0.05295125   0.01200446  30.24  0.001297031    3.460    0.711
        11 -10.0254    177.8572     12.1510   2.5790040616e+02  -5.8966292704e+01   0.02506489   0.02037484  56.04  0.001028849    1.285    0.222
        12 -10.5281    139.9551     10.9508   2.5706109596e+02  -5.7679048647e+01     0.026517   0.02626741  49.24 0.0002999284    1.017    0.017
        13 -10.9152    249.0323      8.9777   2.5927182579e+02  -6.1424880478e+01    0.0301924   0.02028663  55.47 0.0005326219    1.631    0.387
        14 -10.9301    234.5960      8.4571   2.5889555371e+02  -6.0940866040e+01   0.03207321   0.02804111  -4.50 0.0007838135    1.174    0.148
        15  -9.3020    100.2851      9.7019   2.5624523865e+02  -5.6326990631e+01   0.01902579   0.01294433 -35.45  0.000214952    1.549    0.354
        16  -9.8355    154.4369      8.4730   2.5718356450e+02  -5.8201458980e+01   0.01814322   0.01750513 -31.68 2.501978e-05    1.036    0.035
        17 -10.7583    146.1257      7.4665   2.5695591147e+02  -5.7926139390e+01   0.03810742   0.02684628  55.10  0.001459663    1.513    0.339
        18 -11.1184     82.1423      6.9574   2.5575867646e+02  -5.5728391758e+01   0.02785939   0.02566207 -73.51  0.000310752    1.084    0.077
        19 -10.3608     68.1665      5.7200   2.5544736185e+02  -5.5258311240e+01   0.02710347   0.02372491 -40.40 0.0004799022    1.150    0.131
        20 -10.0453     35.9827      6.2052   2.5495534016e+02  -5.4144585561e+01   0.03195801   0.01844979  64.88  0.001073205    2.004    0.501
        21  -9.4842    222.7763      5.3760   2.5841154030e+02  -6.0572011029e+01   0.01882329   0.01299305 -23.27 0.0006873597    1.600    0.375
        22 -10.2704    164.2348      4.7972   2.5713697594e+02  -5.8575076914e+01   0.02655437   0.02353711 -35.48 0.0003878071    1.139    0.122
        23 -11.0290    179.9301      3.5732   2.5737216437e+02  -5.9126051211e+01   0.04724997   0.02938103  87.62 0.0009642763    1.820    0.451
        24  -9.9852    159.7899      3.7817   2.5698241593e+02  -5.8432640290e+01   0.02519698   0.02002488 -36.24 0.0003024102    1.289    0.224
        25 -11.1589     98.2335      2.6097   2.5576865490e+02  -5.6324445342e+01   0.03234551   0.03083085  11.41  0.000463004    1.052    0.049
        26 -10.1084     90.9811      2.4636   2.5563415065e+02  -5.6075685718e+01   0.02774869   0.02376897  20.47 0.0004869873    1.163    0.140
        27 -12.0827     31.9369      2.2876   2.5466190914e+02  -5.4040709282e+01   0.04004663   0.03066023 -81.91 0.0002514535    1.330    0.248
        28  -9.8245    126.2204      2.5766   2.5626698780e+02  -5.7289501645e+01    0.0241056   0.01738235  85.52 0.0003912449    1.494    0.331
        29 -10.8109     23.1963      1.7795   2.5449834550e+02  -5.3744001488e+01    0.0609188   0.02566156 -88.14  0.001716411    2.861    0.650
        30  -9.6352    230.3079      1.3032   2.5829650382e+02  -6.0871995900e+01   0.01926998   0.01303867  54.97 0.0002429689    1.604    0.376
        31 -10.1560     73.5685      1.3687   2.5527312422e+02  -5.5485156350e+01   0.02890773   0.01732685 -76.31 0.0002568582    1.681    0.405
        32 -11.8133      5.4724    210.4665   2.6566808076e+02  -5.0718493871e+01   0.03796789   0.01768883  23.40  0.001195305    2.139    0.533
        33 -11.3482     22.2041    248.8821   2.6802829019e+02  -5.0695880897e+01   0.06690329   0.03376006 -45.88  0.002205673    2.027    0.507
        34  -9.6964     71.4944    208.5608   2.6715697386e+02  -5.2883929727e+01   0.01787425   0.01768171  77.52  0.000105345    1.030    0.030
        35 -12.2258     11.1455    209.0049   2.6572299642e+02  -5.0923069891e+01   0.04070993   0.03766286 -56.04  0.001525945    1.074    0.068
        36  -9.8669    174.6007    202.2415   2.6962722991e+02  -5.6293701220e+01   0.02516191   0.01631181  38.84 0.0003399795    1.536    0.349
        37 -10.2552    237.6487    198.7851   2.7138930906e+02  -5.8344150383e+01   0.05736233   0.02932532   6.16  0.001533371    3.502    0.714
        38  -9.5246    120.4292    200.4563   2.6799346196e+02  -5.4585865787e+01   0.01784912   0.01767078  45.01 0.0002844404    1.021    0.021
        39 -11.4084     21.6502    198.5032   2.6541813887e+02  -5.1412231437e+01    0.0534331   0.03098685  84.05  0.001260737    2.477    0.596
        40 -10.1456    134.7908    196.1950   2.6814676699e+02  -5.5114161500e+01   0.02699953   0.02403356 -13.72 0.0005338294    1.183    0.155
        41 -12.3498     15.4421    192.1200   2.6494098903e+02  -5.1298718327e+01   0.06043123   0.04669073  69.24  0.001839986    1.475    0.322
        42 -10.1639    186.0021    193.2896   2.6944873655e+02  -5.6801804957e+01    0.0258239   0.02478514 -64.31 0.0009452436    1.043    0.041
        43 -10.7974    156.2207    186.9445   2.6821722350e+02  -5.5947663574e+01    0.0425831   0.02273877   6.28  0.001279958    2.635    0.620
        44  -9.6183     61.7088    184.6720   2.6562502192e+02  -5.2913658554e+01   0.01914065   0.01331148  56.58 0.0007018044    1.621    0.383
        45 -12.5751     15.6011    182.4419   2.6443474812e+02  -5.1436497075e+01   0.06768998   0.03870193 -35.94  0.002299599    1.993    0.498
        46 -10.6023    244.0000    180.5078   2.7049300380e+02  -5.8852469241e+01   0.04086329   0.01032443  27.86 0.0009382798    3.963    0.748
        47 -11.2404     23.5406    180.6436   2.6451782024e+02  -5.1721081267e+01   0.04182241   0.02668866 -40.62 0.0001488838    1.649    0.394
        48  -9.7884      1.4800    180.4871   2.6401990521e+02  -5.1000144221e+01   0.01791883   0.01763364  47.67 0.0008100001    1.032    0.031
        49 -10.2684    176.3950    169.4008   2.6776570865e+02  -5.6869558608e+01   0.03882908   0.01095335  39.03 0.0009622155    3.371    0.703
        50 -10.5663    216.7463    154.8039   2.6806479089e+02  -5.8397275821e+01   0.02703592   0.02490268  68.31 0.0006690464    1.136    0.120
        51 -10.1036    158.0020    153.9948   2.6634282162e+02  -5.6503446242e+01   0.03067149    0.0210247  58.77 0.0006410006    1.681    0.405
        52 -11.7916    237.9827    151.3459   2.6849781134e+02  -5.9134082988e+01   0.05555893   0.02541397 -38.18  0.001588592    2.799    0.643
        53  -9.4914     35.2546    150.6835   2.6316338343e+02  -5.2507152918e+01   0.01845852   0.01335138 -26.28 0.0002353247    1.532    0.347
        54 -12.4217     13.7630    147.8170   2.6254541055e+02  -5.1832140472e+01   0.04235352    0.0353155   3.31 0.0003797724    1.244    0.196
        55 -11.0885     17.3532    143.6531   2.6239584237e+02  -5.2004217889e+01   0.04084303   0.02414335 -28.40  0.001380544    2.030    0.507
        56 -11.7607     13.9879    140.4790   2.6215326343e+02  -5.1932553882e+01   0.04983528   0.02572087  35.33  0.001297483    1.868    0.465
        57 -11.1420    234.3008    147.0012   2.6811196364e+02  -5.9083853723e+01   0.02655819   0.02331998  23.26 0.0006218318    1.143    0.125
        58 -11.4823      6.4110    145.3163   2.6225685326e+02  -5.1620039654e+01   0.03661102   0.02242829 -64.68  0.001028335    1.601    0.376
        59 -11.7963    239.7549    140.4782   2.6786778337e+02  -5.9360682577e+01   0.03343593   0.02533674  26.15 0.0006324588    1.316    0.240
        60  -9.5788    188.5906    139.5196   2.6631144891e+02  -5.7714950299e+01   0.01803638     0.017519 -14.15 9.971829e-05    1.036    0.035
        61 -10.4758    235.3497    138.0237   2.6757805892e+02  -5.9256334413e+01   0.02593629    0.0230811  21.80 0.0004343328    1.128    0.114
        62 -12.9942     37.5364    135.4226   2.6237422830e+02  -5.2779590181e+01   0.03882845   0.03666489 -36.83 0.0007235107    1.059    0.056
        63 -10.0526     32.7824    137.0306   2.6236120360e+02  -5.2600998035e+01   0.02592075   0.02442684 -33.02 0.0003953099    1.064    0.060
        64 -10.9456    249.0000    135.0046   2.6780361164e+02  -5.9743101646e+01   0.03077734   0.01033221  25.53 0.0008076807    2.979    0.664
        65 -11.2835    241.7896    134.8108   2.6756967748e+02  -5.9513521070e+01   0.02603067   0.02106527 -25.67 0.0005542399    1.342    0.255
        66 -11.2564     57.9933    132.2637   2.6264303566e+02  -5.3500851236e+01   0.05213546   0.03165491  63.62 0.0009645218    2.044    0.511
        67 -10.4679     53.2476    132.9777   2.6257877532e+02  -5.3333708547e+01   0.02496267    0.0233208  29.05 0.0002999565    1.068    0.064
        68 -11.5029     17.1155    131.1577   2.6171082309e+02  -5.2152980161e+01   0.04480003   0.02763224 -75.68  0.001242341    1.712    0.416
        69 -11.4781      4.7244    130.0940   2.6140061068e+02  -5.1753008464e+01   0.03168895    0.0282633 -64.91 0.0002458467    1.120    0.107
        70 -11.8747     81.8270    125.2203   2.6277584019e+02  -5.4385554431e+01   0.06981132   0.04778488  22.44  0.002190058    1.452    0.311
        71 -11.2330     73.6881    128.9698   2.6280635520e+02  -5.4065895809e+01   0.04061036   0.03561344 -49.72 0.0008747654    1.132    0.117
        72  -9.9379    217.4217    129.4496   2.6650543170e+02  -5.8803849334e+01   0.01794152   0.01759254 -18.22 9.273589e-05    1.021    0.021
        73 -10.4481     24.5018    126.5287   2.6160930748e+02  -5.2456578047e+01   0.01805851   0.01761556  53.81  0.000809664    1.040    0.038
        74 -11.3890     46.9783    124.2941   2.6195712623e+02  -5.3234768486e+01   0.03225309   0.03060617  67.76 0.0003368868    1.083    0.077
        75 -11.9952      9.5080    121.3957   2.6102325388e+02  -5.2018327761e+01   0.06799094   0.03736498 -27.22  0.001229957    2.276    0.561
        76  -9.6763     61.4328    121.5018   2.6211116094e+02  -5.3752616985e+01   0.01798784    0.0176485 -15.18 0.0001594073    1.017    0.017
        77 -11.9194    248.9288    117.8028   2.6668974604e+02  -6.0001618114e+01   0.04199898   0.03165584  61.12  0.001656204    1.488    0.328
        78 -11.0582      2.1525    117.5130   2.6066597027e+02  -5.1818785807e+01   0.04124033    0.0283554  45.17  0.001580262    1.495    0.331
        79 -10.7516     16.0269    115.3527   2.6082185693e+02  -5.2309080261e+01   0.03227608    0.0265095   0.09 0.0004470921    1.270    0.213
        80 -11.8062     12.7357    110.1376   2.6046943537e+02  -5.2260766932e+01   0.06286392   0.03972614 -43.45  0.001251299    1.626    0.385
        81 -10.3079     23.9530    114.7306   2.6094649657e+02  -5.2582062548e+01   0.02709049   0.02408746 -68.66 0.0006790018    1.127    0.113
        82  -9.5240    182.2948    114.6675   2.6460660575e+02  -5.7863215233e+01   0.01937127   0.01338375 -28.78 0.0007026272    1.639    0.390
        83 -11.2064     55.2185    109.8310   2.6131583717e+02  -5.3689631404e+01   0.03524464   0.02983646  37.98 0.0005621525    1.181    0.153
        84 -11.8892     30.9208    107.5742   2.6068860643e+02  -5.2901497995e+01   0.06277465   0.03949782 -18.43  0.002210143    1.903    0.474
        85 -10.0714     20.0054    108.4350   2.6051865852e+02  -5.2524833819e+01   0.02896804   0.01773151 -70.15  0.001040132    1.639    0.390
        86 -11.3808    249.5357    106.0292   2.6593660823e+02  -6.0194531935e+01   0.02876626    0.0179099  23.04  0.001037806    1.613    0.380
        87 -11.5387     74.9443    104.1674   2.6141083686e+02  -5.4421011357e+01   0.03033577     0.027394 -12.98 0.0002790107    1.139    0.122
        88 -10.4494     62.1128     98.5818   2.6081714586e+02  -5.4057590469e+01   0.04003187   0.02011152  38.30  0.001315189    1.954    0.488
        89  -9.8901     51.8305     97.3938   2.6053716046e+02  -5.3725667364e+01   0.03273798   0.01901801  44.00 0.0006976941    1.773    0.436
        90 -10.7493     14.9993     97.0155   2.5978715714e+02  -5.2489715996e+01   0.03174036   0.02008217  53.25  0.001139139    1.731    0.422
        91  -9.6280    226.2780     93.6013   2.6445474096e+02  -5.9607062638e+01   0.01979182   0.01323533 -24.98 0.0006989997    1.758    0.431
        92 -11.5473     57.2428     90.9373   2.6027731112e+02  -5.3984290888e+01   0.04430094   0.03690648  56.01 0.0005930133    1.254    0.202
        93  -9.8989     31.5414     92.5286   2.5985606353e+02  -5.3098855282e+01   0.02429898    0.0178161  88.75 0.0001176908    1.495    0.331
        94 -10.6974     35.4822     90.2462   2.5980409180e+02  -5.3258101080e+01   0.03063545   0.03018598   2.87  0.000355575    1.012    0.012
        95 -10.2385     13.8057     92.4155   2.5950853220e+02  -5.2502049828e+01   0.02432637   0.01757851 -88.80 0.0004315546    1.507    0.336
        96 -10.3919     95.6177     88.7251   2.6095207813e+02  -5.5304591316e+01   0.04781201   0.01681726 -59.32  0.001362778    2.531    0.605
        97 -10.7957    184.8836     85.2120   2.6281917963e+02  -5.8345009594e+01   0.02795975   0.02539748   8.86 0.0003290606    1.115    0.103
        98 -11.7238    239.5325     84.6714   2.6423423545e+02  -6.0167275479e+01   0.03496638    0.0253492  46.89 0.0009250279    1.431    0.301
        99 -10.5912     68.0980     82.0150   2.5998105654e+02  -5.4455060973e+01   0.03757419   0.02249423 -48.16 0.0007241404    1.667    0.400
       100 -10.4181     64.4443     80.1562   2.5979898745e+02  -5.4352974415e+01   0.03406924   0.02194894  30.22  0.001186563    1.508    0.337
       101 -10.5249    120.0584     79.9612   2.6096055085e+02  -5.6234477707e+01   0.02860194   0.02728919  58.71 0.0008095477    1.068    0.063
       102 -12.5373     88.3600     77.3006   2.6012020433e+02  -5.5195232497e+01   0.03942481   0.03714642  78.48 0.0003782971    1.089    0.082
       103  -9.9461     50.2090     77.9820   2.5939117309e+02  -5.3895945770e+01   0.02524825   0.02322171  15.82 0.0003337404    1.087    0.080
       104 -11.3826     22.1311     76.0498   2.5874697727e+02  -5.2966439143e+01   0.04858939   0.03002369 -31.88  0.001603992    1.805    0.446
       105 -10.9293     73.2347     76.0175   2.5973419654e+02  -5.4698124575e+01     0.030046   0.02598515  88.96 0.0002002629    1.205    0.170
       106  -9.4965     44.4789     74.4635   2.5907780491e+02  -5.3741356331e+01   0.01836007   0.01732909 -34.41 0.0001237554    1.063    0.060
       107  -9.5086      1.3535     81.2387   2.5865669288e+02  -5.2206277995e+01   0.01864378   0.01315231  64.14 0.0003285338    1.578    0.366
       108 -11.1281    102.9853     69.6061   2.5996543517e+02  -5.5779919126e+01   0.03972287   0.02684913   9.83 0.0008954662    1.550    0.355
       109  -9.9407     45.0051     70.7248   2.5887267073e+02  -5.3800763892e+01   0.02462407   0.02272135 -67.43 0.0002422046    1.082    0.076
       110 -13.7610     16.5247     67.3921   2.5815567904e+02  -5.2870331565e+01   0.05832864   0.05087799  12.63 0.0008046153    1.150    0.130
       111 -10.9854     92.8426     67.8685   2.5965038708e+02  -5.5456107254e+01   0.03332328   0.03070008  20.67 0.0006906443    1.084    0.077
       112  -9.8844     78.0372     69.2447   2.5943172700e+02  -5.4938201011e+01   0.02333301   0.01548511 -72.76  0.000314756    1.520    0.342
       113 -11.6651     50.3805     68.1460   2.5882609654e+02  -5.4011737359e+01   0.03959241   0.03068761  35.99  0.000479845    1.279    0.218
       114 -11.5759      6.3606     67.8752   2.5800145912e+02  -5.2520186899e+01   0.03256708   0.03165523   4.72 0.0003033334    1.027    0.026
       115 -10.5407    110.2862     65.2176   2.5985310460e+02  -5.6078147364e+01   0.06348016   0.02676519 -32.18  0.001660141    3.366    0.703
       116 -10.0416    129.2929     66.0563   2.6031203357e+02  -5.6712310582e+01    0.0390988   0.02060184  69.14   0.00116901    2.627    0.619
       117 -12.7123     30.0693     63.2468   2.5816534621e+02  -5.3374930968e+01   0.06282385   0.04520791 -43.14  0.001126157    1.413    0.292
       118 -10.9296    159.4356     64.8892   2.6091486657e+02  -5.7745079021e+01   0.03573396   0.03147278  50.17 0.0003178529    1.162    0.139
       119 -10.2994     82.1396     64.8464   2.5925300304e+02  -5.5127131666e+01   0.02609635   0.02096775  61.05 0.0006337982    1.322    0.244
       120 -10.1777    247.5058    249.5208   2.7467807511e+02  -5.7745430196e+01   0.01792535   0.01761826 -30.84 0.0001479096    1.022    0.022
       121  -9.8697    189.4660     63.4374   2.6153181070e+02  -5.8774458358e+01   0.02642919   0.01624181  35.12  9.84303e-05    1.592    0.372
       122 -10.3033    189.2752     60.0612   2.6130769945e+02  -5.8809525272e+01   0.03146527   0.02320261  33.23  0.000270563    1.337    0.252
       123 -10.4674    122.9058     62.6802   2.5996584119e+02  -5.6535369126e+01    0.0362528   0.02526928  10.42 0.0009261636    1.492    0.330
       124 -12.0136      3.5688     62.0788   2.5762766390e+02  -5.2486567284e+01   0.05410645   0.03886125  44.25  0.001168701    1.412    0.292
       125 -10.0517    161.9831     61.9558   2.6078740396e+02  -5.7866340252e+01   0.02467957   0.02364497 -42.72 0.0002967278    1.040    0.038
       126 -10.4416     90.7710     61.1918   2.5920791026e+02  -5.5461454423e+01   0.03440863   0.02222296 -54.76  0.001278282    1.506    0.336
       127 -11.3467     46.7058     60.3125   2.5830274053e+02  -5.3972346278e+01   0.05081439   0.03082623  55.73 0.0007807738    1.840    0.457
       128 -10.3460    135.7047     58.6319   2.5999113981e+02  -5.7016246451e+01   0.04545357   0.01873308 -56.97  0.001380742    2.231    0.552
       129  -9.6930     57.3186     59.2590   2.5844045889e+02  -5.4344921081e+01   0.01866798    0.0132168  59.86 0.0001490608    1.542    0.352
       130  -9.7927    154.0199     58.5419   2.6039000291e+02  -5.7637713494e+01   0.02586681   0.01786868 -70.17 0.0002121843    1.446    0.308
       131  -9.4001     15.4684     58.4304   2.5762997566e+02  -5.2929361831e+01   0.01795856   0.01750639  59.19 0.0002724254    1.037    0.035
       132  -9.6705     68.5967     56.7872   2.5850979699e+02  -5.4755750574e+01   0.02470481   0.01726715  -3.05  0.000368884    1.564    0.360
       133  -9.7257    177.5139     56.5294   2.6079960289e+02  -5.8455786157e+01   0.01858551   0.01723571 -34.14 5.557824e-05    1.085    0.079
       134 -10.9843    115.8163     55.2996   2.5936244428e+02  -5.6379140675e+01   0.03658067   0.02809604 -52.22 0.0005664538    1.284    0.221
       135 -11.1471     88.9022     54.7501   2.5878359145e+02  -5.5469519174e+01   0.03462749   0.02686477   1.12 0.0006399699    1.354    0.261
       136 -12.3329      5.5880     42.5964   2.5656440010e+02  -5.2754263188e+01    0.1103803    0.0526078  43.59  0.003533634    2.151    0.535
       137 -11.5834     16.8375     42.1047   2.5672469840e+02  -5.3143347211e+01   0.07564532   0.04156045   1.68  0.002522197    2.054    0.513
       138 -11.2663      3.6857     53.0982   2.5712526373e+02  -5.2583443263e+01   0.04942504   0.03013557 -88.44  0.001749176    1.825    0.452
       139 -12.3093      8.2796     51.8292   2.5713193882e+02  -5.2752896287e+01   0.06253894   0.03959977 -15.05   0.00183856    1.816    0.449
       140 -11.1120     13.0965     53.1113   2.5728720368e+02  -5.2903841839e+01   0.04107261   0.02720736  54.60 0.0009350271    1.625    0.385
       141 -13.2040     12.5309     48.0141   2.5698828082e+02  -5.2936701992e+01   0.04945799   0.04460192 -22.10 0.0005718099    1.132    0.117
       142 -12.1811    149.7474     51.5181   2.5985060165e+02  -5.7574790469e+01   0.04734081   0.03415571 -12.56  0.001016613    1.542    0.352
       143  -9.8673    154.2467     52.3624   2.6000327631e+02  -5.7717642379e+01   0.02760825   0.01863423 -75.75 0.0004156683    1.522    0.343
       144 -11.5287    105.2792     52.5277   2.5897660440e+02  -5.6051711990e+01   0.03521212   0.03205007 -59.29  0.000198001    1.089    0.082
       145  -9.6845     38.3252     53.2811   2.5774204651e+02  -5.3761833209e+01   0.01916036   0.01306358  57.44 0.0006998014    1.595    0.373
       146  -9.9740    127.4299     51.9153   2.5939617312e+02  -5.6812209657e+01   0.02669416    0.0142495 -18.48 0.0008055262    2.472    0.596
       147  -9.7928     62.5193     50.4964   2.5802328466e+02  -5.4616356108e+01   0.01792328   0.01784975 -21.59 1.626989e-05    1.001    0.001
       148 -11.7808     53.3053     48.7981   2.5775311415e+02  -5.4319942863e+01   0.06628133   0.03458096 -72.97  0.002221257    1.925    0.480
       149 -11.9695     55.3779     41.2562   2.5734743318e+02  -5.4469329023e+01    0.1004327    0.0323955  19.85  0.002717757    2.919    0.657
       150 -11.0874     57.8227     34.2206   2.5697544809e+02  -5.4624948573e+01   0.03430898   0.02659963  53.91 0.0003818094    1.343    0.256
       151 -11.9087     44.9635     44.2384   2.5733578706e+02  -5.4082589550e+01   0.07468758   0.04674492  -4.70 0.0004748592    1.806    0.446
       152 -10.3350    180.2781     47.0219   2.6024686997e+02  -5.8661799720e+01   0.02469748   0.02303831   4.50 0.0001987803    1.082    0.075
       153 -10.5610    118.2589     40.3877   2.5849143582e+02  -5.6627492960e+01   0.04351668   0.01250333 -61.00  0.001145925    2.934    0.659
       154 -10.4275    121.4999     46.5722   2.5894108218e+02  -5.6670187413e+01   0.03815647   0.02394726 -65.93  0.001399324    1.551    0.355
       155 -10.5344    122.4865     43.5427   2.5877314158e+02  -5.6737245509e+01   0.03703352   0.02747846 -30.92 0.0008855385    1.431    0.301
       156  -9.9022     78.4606     47.4802   2.5814471787e+02  -5.5192504141e+01   0.01847322   0.01724515  53.46 0.0008075244    1.088    0.081
       157 -11.3419    209.8701     62.9366   2.6200405229e+02  -5.9465573521e+01   0.02793781   0.02764009  44.30 0.0002878501    1.019    0.019
       158 -11.4509    236.4654     43.6942   2.6138327721e+02  -6.0596088091e+01   0.04172779   0.02948768 -14.78  0.001062441    1.607    0.378
       159 -11.4176     74.9652     43.7714   2.5785673586e+02  -5.5112579388e+01   0.05008937    0.0202032 -62.37 0.0008584029    2.265    0.559
       160 -10.9918    247.3949     47.1725   2.6190497782e+02  -6.0919297620e+01   0.02610013   0.01736343   1.34 0.0006698309    1.688    0.408
       161 -10.0121    126.7520     43.2421   2.5884186761e+02  -5.6885966629e+01    0.0241549   0.02020667  58.32 0.0003541311    1.249    0.199
       162  -9.5370    143.9402     42.0182   2.5912370159e+02  -5.7485100820e+01   0.02127462   0.02055414 -64.45 0.0003048678    1.031    0.030
       163 -11.2992    149.5571     40.7902   2.5916508432e+02  -5.7690035769e+01   0.03127468   0.02986528 -44.15 0.0002701146    1.042    0.041
       164 -11.1258     98.9154     41.1276   2.5815444922e+02  -5.5958952775e+01    0.0815872   0.02376923 -69.87   0.00209357    3.222    0.690
       165 -10.2271     68.6388     41.3140   2.5759243428e+02  -5.4922152524e+01   0.02042318   0.01244898 -37.64 0.0007042023    1.755    0.430
       166  -9.5614    112.2698     45.3584   2.5867826368e+02  -5.6368967279e+01   0.01967913   0.01268317  49.78 0.0003110137    1.643    0.391
       167 -11.8910     83.6125     37.1435   2.5762042303e+02  -5.5477840947e+01   0.05516329   0.04598913 -76.12  0.001335843    1.208    0.172
       168 -11.1028     24.3898     34.7891   2.5643195125e+02  -5.3474425853e+01   0.04903899   0.02604138  36.04  0.001499372    1.824    0.452
       169 -11.1693     65.0059     36.5237   2.5724087690e+02  -5.4847433032e+01   0.03249117   0.02413683 -12.73 0.0006658914    1.457    0.314
       170 -11.5387    248.0189     36.0617   2.6115096688e+02  -6.1076690504e+01   0.02741368   0.02689978  46.22 0.0003905399    1.030    0.029
       171 -10.4056    110.7208     33.9483   2.5794302794e+02  -5.6438920473e+01   0.03250008   0.03148856  17.96  0.001167264    1.033    0.032
       172 -12.0489     27.7111     37.6625   2.5665379300e+02  -5.3559518855e+01    0.0366575   0.03136743 -38.73 0.0002399523    1.184    0.155
       173 -10.9371     75.2934     33.1863   2.5722814189e+02  -5.5233954308e+01   0.04072659   0.02284169 -60.39  0.001424265    1.700    0.412
       174  -9.8841     34.5115     33.1047   2.5650523776e+02  -5.3837654545e+01   0.02735899    0.0176706  18.61  0.001010529    1.531    0.347
       175 -11.5313      7.4644     30.0027   2.5587969326e+02  -5.2941682043e+01    0.0737806   0.03202278  -3.58  0.002030205    3.076    0.675
       176 -10.4497     15.9366     31.9965   2.5613122518e+02  -5.3212451571e+01   0.03196315   0.02520478 -88.18 0.0003932361    1.320    0.242
       177 -10.3859     19.2416     30.9836   2.5612734835e+02  -5.3335486374e+01   0.02834261    0.0240749 -32.70  0.001203154    1.205    0.170
       178 -10.1401     49.0183     28.9061   2.5650748192e+02  -5.4376444541e+01   0.02995828   0.01933671  49.78 0.0006527893    1.625    0.385
       179 -10.4991     12.0782     29.1522   2.5590550225e+02  -5.3107869713e+01   0.02893209   0.02358153  54.56 0.0006230322    1.265    0.210
       180 -11.5455    112.1792     27.0858   2.5754553797e+02  -5.6560781292e+01    0.0489762   0.03261155  36.87  0.001158555    1.484    0.326
       181 -11.0495    224.6032    248.8707   2.7385781915e+02  -5.7057995481e+01   0.03650522   0.02391208  10.29  0.001292076    1.933    0.483
       182 -11.1353    231.5050     26.4845   2.6007624735e+02  -6.0633572844e+01   0.03066278   0.03063967  45.83 0.0006817492    1.011    0.011
       183 -10.8160    176.7979     26.7173   2.5884009731e+02  -5.8773790614e+01   0.03031137    0.0279828   2.07 0.0002485891    1.095    0.087
       184 -10.8335    119.6060     27.1796   2.5769494571e+02  -5.6814245647e+01   0.03080068   0.02483815 -69.99 0.0002666403    1.232    0.188
       185 -10.3304     91.5954     24.9435   2.5702682823e+02  -5.5876898329e+01    0.0368291   0.02469668  79.02  0.001226886    1.683    0.406
       186 -10.4824     11.0509     24.7377   2.5563631420e+02  -5.3114896038e+01   0.03415133   0.02115279  37.80 0.0007618568    1.589    0.371
       187  -9.1907    129.2939     24.6916   2.5772817521e+02  -5.7172091779e+01   0.01930869   0.01297472 -34.62 0.0005076478    1.586    0.369
       188  -9.8770    156.4866     21.4716   2.5806905075e+02  -5.8136855544e+01   0.02551155     0.017621  89.14 0.0005687241    1.584    0.369
       189 -11.5031     34.1832     22.7036   2.5589359371e+02  -5.3927948293e+01   0.03107727   0.02776332  58.69 0.0002333327    1.145    0.127
       190 -11.4172    249.2265     20.8375   2.6011516775e+02  -6.1297209712e+01   0.03120433   0.02888378  57.52 0.0002723903    1.110    0.099
       191 -10.4632    193.0887     20.9431   2.5881303033e+02  -5.9392155116e+01   0.02645857   0.02606265  68.45 0.0003273716    1.028    0.027
       192 -10.1980    122.4339     19.8003   2.5728645748e+02  -5.6987518421e+01   0.04241958    0.0198334  52.38  0.001267676    2.492    0.599
       193 -10.6116     68.7046     21.1428   2.5638650546e+02  -5.5128826274e+01   0.02926097   0.02222519 -10.72  0.001160995    1.406    0.289
       194 -12.2018     28.7832     19.9040   2.5564213534e+02  -5.3769269349e+01   0.03498305   0.03119867  50.22 0.0003349454    1.135    0.119
       195 -11.3675    219.4093    247.7878   2.7362339105e+02  -5.6918071392e+01   0.05150699   0.03451756  -4.63  0.001799568    2.097    0.523
       196  -9.6969    109.9882    250.0000   2.7039632282e+02  -5.3466499146e+01   0.02997357   0.01025503 -61.99  0.000797152    2.906    0.656
       197 -10.0627      6.9975    249.2931   2.6767858344e+02  -5.0204401099e+01   0.02487172   0.02365573 -52.79 0.0005135459    1.044    0.042
       198 -10.1076     10.5022    248.0407   2.6770026652e+02  -5.0334991661e+01   0.02695907   0.01764342  25.59 0.0005363876    1.521    0.343
       199  -9.7717     87.8281     19.1497   2.5660407576e+02  -5.5805642979e+01   0.02509197   0.02009207  47.62 0.0002355327    1.273    0.215
       200 -11.1279     64.0159     17.7188   2.5609987713e+02  -5.5001095250e+01   0.03171651   0.02594487  16.12 0.0004776006    1.222    0.182
       201  -9.6823    165.1593     17.2005   2.5796958959e+02  -5.8478713497e+01   0.02439638   0.02009906 -35.34 0.0003053942    1.241    0.194
       202 -10.1842    109.0734     16.7573   2.5684396580e+02  -5.6559587575e+01   0.02508465   0.02300588 -79.58 0.0002529836    1.097    0.088
       203 -10.1130     35.8714     17.3007   2.5560519183e+02  -5.4037485498e+01   0.02463976   0.02243276 -86.76 0.0002449981    1.114    0.102
       204 -11.4754    240.2989     15.0349   2.5949064805e+02  -6.1061469105e+01   0.03239182   0.02931247  71.29 0.0003663067    1.151    0.131
       205 -10.7385    217.0001     15.9224   2.5900876144e+02  -6.0261016030e+01   0.06171399   0.02523615  89.99  0.001526383    3.815    0.738
       206 -10.1544    193.8579     16.2010   2.5851192123e+02  -5.9469885563e+01   0.02979226    0.0231737 -42.42  0.001205392    1.298    0.230
       207 -10.7800    137.4091     15.1089   2.5727809480e+02  -5.7549391768e+01   0.03463567     0.024802 -38.01 0.0004054937    1.446    0.308
       208 -10.4507    131.8844     16.1736   2.5723886700e+02  -5.7348906918e+01   0.02770432   0.02323823 -36.63 0.0003070334    1.212    0.175
       209  -9.9676    151.3833     15.2008   2.5755960708e+02  -5.8027772964e+01   0.02480907   0.01732203  -0.57 0.0004534437    1.540    0.351
       210 -11.2499     73.1817    244.8186   2.6912026131e+02  -5.2382971488e+01   0.03739175   0.03310417  42.24 0.0009721091    1.147    0.128
       211 -12.5006     74.9083    239.6675   2.6889628412e+02  -5.2518685299e+01   0.09177786   0.05654018  32.54  0.003386315    1.592    0.372
       212 -10.1790     45.7617    244.5603   2.6839664489e+02  -5.1513303714e+01   0.02719781   0.01559809 -50.01 0.0009498431    1.708    0.415
       213 -10.3222      3.7790    238.5180   2.6705946987e+02  -5.0260696779e+01   0.03418284   0.02439699  26.54 0.0007887995    1.389    0.280
       214  -9.7635    195.6578    238.3251   2.7232027740e+02  -5.6350770465e+01    0.0195188   0.01360602 -26.52  0.000705098    1.734    0.423
       215 -10.2395     40.5366    237.4994   2.6790148570e+02  -5.1453784301e+01   0.01803319   0.01747013 -25.38 -0.0002290642    1.027    0.026
       216 -10.0097     91.7614    235.9572   2.6914953153e+02  -5.3114068160e+01   0.02392309   0.01512291  27.46 0.0003644842    1.576    0.366
       217 -10.3864    160.3273    235.3460   2.7106451801e+02  -5.5295957194e+01   0.01956492   0.01360485  62.78  0.000705021    1.749    0.428
       218 -10.7568     30.7939    234.1285   2.6748682301e+02  -5.1192142697e+01   0.04582956   0.02494719  10.34  0.001454151    2.257    0.557
       219 -10.2429    182.9772    234.4883   2.7170742524e+02  -5.6021206016e+01    0.0279288   0.01772258 -59.97  0.001010959    1.560    0.359
       220 -10.4301     54.6845    231.6509   2.6795391957e+02  -5.1995628979e+01   0.01954902    0.0133367  59.00  0.000704733    1.727    0.421
       221 -10.6856    248.5462    229.0342   2.7353746903e+02  -5.8151365505e+01   0.02780694   0.01791314  28.17  0.001022902    1.582    0.368
       222 -10.3090    192.0601    227.0385   2.7157150419e+02  -5.6432898221e+01   0.03034521   0.02159836 -25.34  0.001136072    1.680    0.405
       223 -10.3813      4.1720    225.8840   2.6642803126e+02  -5.0456850916e+01   0.03583153   0.02304529  73.98  0.001238197    2.081    0.519
       224 -10.1350    233.6508    223.3331   2.7270215130e+02  -5.7793372096e+01   0.01965942   0.01361887 -25.87 0.0007047989    1.774    0.436
       225  -9.9895     79.0025    223.5071   2.6814909367e+02  -5.2899818244e+01   0.02585131   0.01558776  80.12  0.000809705    2.474    0.596
       226 -10.3908     15.9962    222.0532   2.6650957047e+02  -5.0893422452e+01   0.02163115   0.02131022 -32.79 0.0003970529    1.005    0.005
       227 -11.3494     49.5694    218.6836   2.6714631497e+02  -5.2025750602e+01   0.04424752   0.03530752  79.75  0.001421454    1.433    0.302
       228 -10.7918     38.6212    217.1529   2.6679753000e+02  -5.1695055639e+01   0.03210722   0.02287561 -52.00 0.0007160335    1.376    0.273
       229 -11.1439    234.2632    215.4124   2.7226078512e+02  -5.7951362270e+01    0.0318696   0.02262157  -1.30  0.001037081    1.787    0.440
       230 -10.3303     30.0078    214.4912   2.6645093751e+02  -5.1455494053e+01   0.02763795   0.01791921 -66.69 0.0006003059    1.561    0.359
       231 -10.1621     23.8613    216.0714   2.6638676141e+02  -5.1233899911e+01   0.02717809   0.02326351 -24.59  0.000285893    1.222    0.182
       232 -11.3696    217.7732    210.6217   2.7144303848e+02  -5.7519037586e+01   0.04483474   0.02679869  18.19  0.001389556    1.898    0.473
       233  -9.8689     19.9762    211.4872   2.6605709241e+02  -5.1174027782e+01   0.02747505   0.01232627 -42.82 0.0008093567    2.457    0.593
