#   1 NUMBER                 Running object number                                     
#   2 MAG_AUTO               Kron-like elliptical aperture magnitude                    [mag]
#   3 X_IMAGE                Object position along x                                    [pixel]
#   4 Y_IMAGE                Object position along y                                    [pixel]
#   5 X_WORLD                Barycenter position along world x axis                     [deg]
#   6 Y_WORLD                Barycenter position along world y axis                     [deg]
#   7 A_WORLD                Profile RMS along major axis (world units)                 [deg]
#   8 B_WORLD                Profile RMS along minor axis (world units)                 [deg]
#   9 THETA_WORLD            Position angle (CCW/world-x)                               [deg]
#  10 FWHM_WORLD             FWHM assuming a gaussian core                              [deg]
#  11 ELONGATION             A_IMAGE/B_IMAGE                                           
#  12 ELLIPTICITY            1 - B_IMAGE/A_IMAGE                                       
         1 -13.0343     38.1931     49.5766   7.2522282454e+01   6.4127508711e+01     1.393294    0.7907391 -51.83  0.006745546    2.048    0.512
         2 -12.0294     26.1417     48.6794   7.8327812259e+01   6.5877024047e+01    0.9756563    0.6343426  68.54   0.00386885    4.224    0.763
         3 -11.6910    128.3603     10.3895   3.0868577459e+01   5.0257154088e+01    0.4092322    0.2773438 -75.91  0.000106771    1.527    0.345
         4 -11.6535    129.3822     18.6284   3.3209230464e+01   4.9231761920e+01    0.7632396    0.2594851 -26.26  0.003061204    3.526    0.716
         5 -12.5699      4.1176     17.9167   7.8654328744e+01   7.3640934881e+01    0.6273981    0.4524122 -68.63  0.002946115    2.617    0.618
         6 -11.1807     18.5967     16.1597   6.8212977221e+01   7.2250701417e+01    0.5818171    0.3144718  -1.40  0.002773245    2.597    0.615
         7 -10.6945     10.2294     15.2639   7.3106410583e+01   7.3413078767e+01    0.3777383    0.1955019  -4.16  0.001732009    2.614    0.617
         8 -10.9828      5.4190     11.3855   7.4366448308e+01   7.4515738130e+01    0.2483633    0.1700412 -20.44 0.0009918481    1.284    0.221
         9 -10.7597      9.0660      8.7640   7.0352400205e+01   7.4477086471e+01    0.3262705    0.1988384  31.83  0.002012876    1.584    0.369
        10 -10.3713    100.0956     21.5848   3.9590213118e+01   5.5791102271e+01    0.5069444    0.2153576 -55.69  0.001751401    4.534    0.779
        11 -11.0571     66.8815     20.6787   4.8258889871e+01   6.3240416951e+01    0.3134962    0.2433479 -19.30  0.001245165    1.437    0.304
        12 -10.0436     75.9983     15.3281   4.3185030692e+01   6.1852364314e+01    0.2703588    0.2009576  30.29 0.0007248544    1.346    0.257
        13 -11.5467     70.1648     16.3388   4.5332117496e+01   6.3009803631e+01    0.3417162    0.2637385 -14.03  0.000872066    1.472    0.320
        14 -11.7348     77.7776     10.4900   4.0691782970e+01   6.1914521123e+01    0.7567563    0.1535152  55.38  0.002077378    3.330    0.700
        15 -11.4405    159.5015     17.5040   2.8945726098e+01   4.2365238596e+01    0.3804628    0.1519804  72.23   0.00174807    2.229    0.551
        16 -12.9643    238.0679     17.4845   2.2583982432e+01   2.6310939002e+01    0.2974684    0.1979948 -70.58 0.0005257974    1.170    0.145
        17 -11.9878    234.9636     10.1961   2.1433116526e+01   2.7659940943e+01    0.3506476    0.2540615 -10.07   0.00228565    2.631    0.620
        18 -10.4821     39.3532      8.7756   5.3215675803e+01   6.9875070117e+01    0.6591752    0.4942801  74.71  0.003787335    2.268    0.559
        19  -9.4784     27.5352      9.5163   5.9457890591e+01   7.1799224981e+01    0.1903562    0.1533591  18.96 0.0006638197    1.039    0.037
        20  -9.5465     39.9051     14.5551   5.5960354286e+01   6.9139995825e+01    0.2842197    0.1367751  31.15 0.0007763835    2.061    0.515
        21 -10.5548     35.0350     14.8291   5.8429682226e+01   6.9944340931e+01    0.5002323    0.2258753  23.69  0.002073742    3.099    0.677
        22 -11.5355     30.7295     12.8037   5.9550396840e+01   7.0897129749e+01    0.3112995    0.2016685 -27.43 0.0003583077    1.633    0.388
        23 -12.3029    169.2431     15.1583   2.7331261761e+01   4.0419471543e+01    0.2866178    0.2286928  80.21  0.000506599    1.139    0.122
        24  -9.8433     50.1802     13.2749   5.0916438690e+01   6.7387183962e+01     0.345104    0.2662922 -33.22  0.002187454    1.538    0.350
        25 -11.3535     61.1587     13.4160   4.6948093295e+01   6.5188431965e+01    0.5260929    0.3191102  50.85  0.002943846    1.399    0.285
        26 -10.8519    155.5894     13.1998   2.8263532164e+01   4.3688757296e+01    0.2753457    0.1938853 -13.68  0.001621939    1.990    0.498
        27 -10.8602    154.6699      9.3263   2.7351737278e+01   4.4270326618e+01    0.1963408    0.1456609 -71.29  0.001049185    1.224    0.183
        28 -10.6107    117.8613     10.4755   3.2467319469e+01   5.2709320323e+01    0.4584191    0.2227703 -15.90  0.002150929    2.885    0.653
        29 -10.4977    138.5411     11.4524   2.9812026484e+01   4.7783764529e+01    0.3121893    0.1621846 -49.01   0.00161847    2.001    0.500
        30  -9.8273     23.0619     11.9078   6.3271487084e+01   7.2193124997e+01    0.1826014    0.1187789   4.78 0.0004206723    1.559    0.358
        31 -11.6572     55.4906     12.5422   4.8540205713e+01   6.6423102377e+01    0.2776291    0.2293468  -0.06 0.0008804504    1.274    0.215
        32 -11.8610    145.8120      8.1281   2.8004949050e+01   4.6407345522e+01    0.3898444    0.2780626 -25.63  0.002413935    1.703    0.413
        33 -10.3202    241.2125      9.1972   2.0922910280e+01   2.6654375881e+01    0.1522456   0.08732063 -64.56 0.0005431522    1.314    0.239
        34 -12.0251    214.2313      5.9302   2.1814230048e+01   3.1981102512e+01    0.3932146    0.3189933 -65.75  0.001832042    1.147    0.128
        35 -10.6745    209.7684      1.6328   2.1231922955e+01   3.3279831526e+01    0.2788814    0.1392928 -82.63  0.001656296    1.775    0.437
        36 -10.9701    164.4910      6.2245   2.5592192572e+01   4.2350177650e+01      0.38094    0.1740679 -34.02   0.00166333    2.249    0.555
        37  -9.7538    100.1831      7.4541   3.4509383028e+01   5.7091148507e+01    0.2220637    0.1317253  22.62  0.001122023    2.344    0.573
        38 -10.9982     92.1372      6.6459   3.5809153612e+01   5.9009317701e+01     0.282261    0.1719704  55.43 0.0005460573    1.353    0.261
        39 -10.1811     74.5585      2.2849   3.8077627183e+01   6.3302350150e+01     0.308334    0.1789441  88.86  0.001481546    2.577    0.612
        40 -10.4605    222.9875      5.1418   2.1155758920e+01   3.0390732205e+01    0.1969641    0.1234949 -45.23  0.001366098    1.415    0.293
        41  -9.9082     68.8303      5.8056   4.1132508461e+01   6.4269064441e+01    0.1805806    0.1425962  38.25  0.000426892    1.133    0.117
        42 -10.8915     11.4135      3.1356   6.5440492665e+01   7.4912035427e+01    0.2508057    0.1753914 -14.34 0.0008172088    1.331    0.249
        43 -11.5224     27.6604      2.9232   5.5656000314e+01   7.2502914778e+01    0.2834344    0.2383588  61.06  0.001821262    1.729    0.422
        44 -10.7013     31.3571      1.2258   5.2810113563e+01   7.2043301021e+01    0.3555755   0.07302991  47.54  0.001291738    3.846    0.740
        45 -10.8914     19.9805      4.2194   6.0693563043e+01   7.3575642985e+01    0.2721188    0.2039662  22.11  0.001578851    1.074    0.069
        46 -11.0142     16.5416      3.2572   6.2204393582e+01   7.4190359048e+01    0.3609599    0.2149654 -24.39  0.002217405    1.713    0.416
        47 -10.1518     22.3156      1.3706   5.7642579934e+01   7.3528449346e+01    0.1867222   0.09633274  35.66 0.0005814756    1.604    0.377
        48  -9.7855    107.9457     10.3239   3.4085743387e+01   5.5042384484e+01    0.1762352    0.1433022  63.42 0.0007669153    1.053    0.050
        49 -10.6356     59.4558      5.1279   4.3663192717e+01   6.6306862686e+01    0.2852356    0.1347591  51.73  0.000654215    1.688    0.408
        50 -10.7034    192.0111      4.4834   2.2964912596e+01   3.6586995297e+01    0.1695627   0.09484858  80.43 0.0006997042    1.560    0.359
        51 -10.7462    178.7006      3.6311   2.3765567539e+01   3.9481785698e+01    0.2246474    0.1544166 -75.71  0.000249835    1.206    0.171
        52 -10.4130    243.1585      2.3463   1.9625898196e+01   2.7027088045e+01    0.1914896    0.1075359 -51.45 0.0003410327    1.331    0.249
        53  -9.7270    126.1913      2.7621   2.8857401507e+01   5.1414160906e+01    0.1596629    0.1277941  49.72 0.0005949465    1.327    0.246
        54 -10.0735     73.7486      6.2543   3.9976954875e+01   6.3164461835e+01    0.2341179    0.1740304  18.56 0.0006266642    1.489    0.328
        55  -9.3555     24.5433      7.7901   6.0135146041e+01   7.2469886573e+01    0.1614395    0.1101106 -23.73 0.0004763661    1.521    0.343
        56  -9.8277     90.9794      1.9976   3.4288872553e+01   5.9637198209e+01    0.1765004      0.14981  59.51            0    1.038    0.037
        57  -9.3530    109.4168      5.4446   3.2179793649e+01   5.5110329112e+01    0.1248442    0.1027176  62.89 0.0002569781    1.071    0.066
        58  -8.9236    222.6767    178.3533   5.5595558165e+01   4.2650105356e+00     0.119089   0.09649266 -63.88 0.0001540435    1.758    0.431
        59 -10.7807    247.4887    249.9809   6.3540926537e+01  -9.3165249039e+00     0.167318    0.1157832   1.47   0.00119637    1.201    0.168
        60 -12.4458    233.1625    245.7761   6.5258658814e+01  -7.4302196239e+00    0.4555161    0.2864878 -34.29  0.003069917    1.473    0.321
        61 -10.1776    109.9346    249.1351   9.0725682126e+01   6.6372513894e+00    0.2111955     0.195212 -42.44  0.001389946    1.243    0.196
        62 -12.2933     18.6112    237.2193   1.1070655245e+02   1.9909305131e+01    0.5468596    0.3720328  44.06  0.003335437    1.247    0.198
        63 -11.8106     28.2661    245.3564   1.0904291107e+02   1.7194745980e+01    0.5916902    0.2882939  77.46  0.002875438    2.339    0.573
        64 -12.7294      6.4735    245.2395   1.1377720544e+02   1.9337234690e+01    0.6980348     0.501814  70.55   0.00350446    1.199    0.166
        65 -11.9712     22.4906    248.6521   1.1050844500e+02   1.7090919724e+01    0.4035953     0.268651  41.56  0.002002112    1.251    0.200
        66 -11.1081     17.6311    247.1577   1.1147905266e+02   1.7882718323e+01    0.3106775    0.2037698  74.11 0.0007682966    1.420    0.296
        67 -11.7101     14.4149    244.7200   1.1204640676e+02   1.8705252860e+01    0.3906429    0.1989901 -81.14  0.001298852    1.983    0.496
        68  -9.7068    167.5956    183.1894   6.7058891312e+01   1.1520089537e+01     0.208095    0.1217469 -35.32 0.0009509227    1.671    0.401
        69  -9.7932     46.8385    176.8626   9.8051769756e+01   3.1585530740e+01    0.2133553    0.1637506  61.55   0.00108569    1.330    0.248
        70  -9.5960    118.3322    176.6756   7.7668612543e+01   2.1129470787e+01    0.1550388    0.1193099  69.70 0.0007050695    1.707    0.414
        71 -10.5258     18.5133    173.0341   1.0595512967e+02   3.5507511961e+01     0.272464    0.1698159  45.05  0.001072436    1.580    0.367
        72  -9.7477    177.0003    168.9387   6.2266782451e+01   1.2879857508e+01    0.1756945    0.1502545 -31.94 0.0004261207    1.059    0.056
        73 -10.9055     35.4892    161.3428   9.9513119271e+01   3.6991048731e+01    0.3305243     0.293072 -14.81 0.0001375305    1.280    0.219
        74 -11.4351     37.0168    165.9888   9.9631090112e+01   3.5580957615e+01    0.5418006    0.3370906  75.57  0.002423183    1.867    0.464
        75 -10.8734     33.1553    166.1910   1.0083992841e+02   3.5932217648e+01     0.257086    0.2436881  45.08 0.0003113894    1.102    0.092
        76 -10.2781      5.2348    168.5713   1.0942707572e+02   3.7747475804e+01    0.1741264    0.1309085  -7.24 0.0009498256    1.665    0.399
        77 -12.0092     51.8725    162.2887   9.4516403006e+01   3.4856310983e+01    0.7359452    0.5774377 -86.86  0.003464025    1.326    0.246
        78  -9.7710     67.1714    165.3713   9.0274715343e+01   3.2014136021e+01    0.2285408     0.129491  40.36 0.0009533237    1.750    0.429
        79  -9.3569    111.7716    163.9981   7.6992649523e+01   2.5305415088e+01     0.207194    0.1268972 -53.03 0.0005994109    1.629    0.386
        80  -9.3118    210.7794    166.0448   5.5286541187e+01   8.1133186843e+00    0.1753538   0.09336569 -41.78 0.0005881005    1.610    0.379
        81  -9.2008     10.3349    162.3070   1.0737762044e+02   3.9016774712e+01    0.1430603   0.09375752 -42.75 0.0007040995    1.671    0.402
        82  -9.6436    221.3203    160.7395   5.2500072104e+01   7.5060228852e+00    0.1145988   0.09707966 -67.19 0.0002067535    1.548    0.354
        83 -11.9020     21.0608    156.8721   1.0350910386e+02   3.9588366893e+01    0.5028698     0.384752  -6.67  0.002658757    1.578    0.366
        84  -9.0590      7.6806    157.3048   1.0772407518e+02   4.0542853004e+01     0.144737   0.09162609  61.02 0.0003566653    1.631    0.387
        85  -9.3337    105.5324    152.9994   7.6508312631e+01   2.9110584919e+01    0.2263379    0.1238632 -32.79  0.000807165    2.416    0.586
        86 -10.7451     10.6820    152.9382   1.0636588101e+02   4.1486759024e+01    0.3282024    0.2096156  22.38  0.000970381    1.712    0.416
        87  -9.2688    222.7755    152.0152   5.0584431044e+01   8.8167834704e+00    0.1748549   0.08926298 -41.24 0.0005163592    1.616    0.381
        88  -9.7024    176.6823    149.9490   5.8408478796e+01   1.6774220486e+01    0.2042766    0.1727825 -41.52 0.0005312447    1.090    0.083
        89  -9.3511     15.2999    148.3509   1.0439358420e+02   4.2362550660e+01    0.1512736   0.09242415 -44.41 0.0007037386    1.693    0.409
        90  -9.8894    207.2366    146.5815   5.2036558163e+01   1.2210548974e+01    0.1674611    0.1271598  24.36 0.0008058323    1.581    0.368
        91  -9.2888     41.0057    146.0053   9.5550763778e+01   4.0539866802e+01    0.1694328    0.1675691  89.91 0.0009599206    1.052    0.050
        92 -10.5317    216.9827    145.0000   5.0120739023e+01   1.0939084235e+01    0.2403814    0.1566693  28.62 0.0009168583    1.978    0.494
        93 -10.1075      8.6976    144.9906   1.0618414013e+02   4.3758565327e+01    0.2758387     0.150679  -6.05  0.001203731    2.462    0.594
        94  -9.6562    240.2176    140.3876   4.5796945102e+01   8.2378163168e+00    0.1363353    0.1194783  69.65 0.0003901032    1.534    0.348
        95  -9.8401     13.8309    140.1342   1.0392792723e+02   4.4688091322e+01    0.1923527     0.150865 -40.45 0.0003132739    1.316    0.240
        96  -9.4613    143.7796    137.0791   6.2827370276e+01   2.5685142086e+01    0.2012268    0.1210467 -48.11 0.0004613876    1.608    0.378
        97  -9.1209     17.3693    137.2556   1.0235995305e+02   4.5187748469e+01    0.1460048   0.09708276 -34.73 0.0006967349    1.639    0.390
        98 -10.5249      9.2895    136.1431   1.0500672964e+02   4.6088636142e+01    0.2050216    0.1817798 -37.00 0.0003005601    1.187    0.157
        99 -10.7710    241.2182    134.2996   4.4509984896e+01   9.0950164207e+00    0.2218493    0.1582087 -43.59  0.000484728    1.124    0.110
       100  -9.8455     20.8513    134.5548   1.0078538298e+02   4.5629360976e+01    0.2343319    0.1807259  83.05 0.0007577733    1.356    0.263
       101 -10.1108      2.9284    134.6663   1.0702170350e+02   4.6894413635e+01    0.1839023    0.1758656 -69.21  0.001001225    1.093    0.085
       102 -10.9371     53.8727    132.4349   8.8766268798e+01   4.2624971479e+01     0.417461    0.2472567  26.41  0.001119118    1.768    0.435
       103  -9.8564     58.9926    131.7591   8.6847358693e+01   4.2109659600e+01    0.2578773    0.2114651 -42.52 0.0006974497    1.204    0.169
       104  -9.7936     79.8080    132.1939   7.9904827481e+01   3.8817263432e+01     0.212847    0.1806286 -16.46 0.0003835394    1.303    0.233
       105 -11.5593     36.8977    130.5558   9.4450404749e+01   4.5166558060e+01    0.5148385    0.2631539 -51.98  0.001404474    1.790    0.441
       106 -11.1331     73.9130    128.8764   8.1124723940e+01   4.0630080377e+01    0.3505441    0.3318772  32.47  0.001101238    1.080    0.074
       107  -9.6950     64.5350    127.9783   8.4135382126e+01   4.2308089837e+01    0.2166763    0.1151727 -37.02 8.660273e-05    2.228    0.551
       108  -9.4945     56.5206    126.6192   8.6665195211e+01   4.3809452761e+01     0.148163    0.1443321 -29.49 -5.396344e-05    1.029    0.028
       109 -10.9364     15.7800    125.6624   1.0135791026e+02   4.8425089466e+01    0.4005655    0.2086356  26.74  0.001807489    2.028    0.507
       110  -9.4867    126.8903    129.8637   6.5382292776e+01   3.0651945341e+01    0.2092478    0.1847459  78.56 0.0004078922    1.299    0.230
       111 -11.2358     10.7383    123.0063   1.0284319875e+02   4.9498609858e+01    0.4442016    0.2949618 -66.14  0.001885019    1.316    0.240
       112  -9.5109    219.6144    124.1720   4.5529763284e+01   1.4170914899e+01     0.187523    0.1062377 -34.04 0.0009399301    1.669    0.401
       113 -10.2319    243.5313    122.0992   4.1897283418e+01   1.0737038805e+01    0.1912929   0.09599266 -41.81 0.0006248854    1.555    0.357
       114 -10.4991     72.7512    116.8457   7.8731510739e+01   4.3883902018e+01    0.4554917      0.29075 -76.53  0.001665245    2.195    0.545
       115 -12.4651     15.9392    115.0484   9.9707470967e+01   5.1231070767e+01    0.6360283    0.5041573 -86.64  0.001246138    1.306    0.234
       116 -11.7713     15.2128    108.3046   9.8891443873e+01   5.3051538627e+01     0.548989    0.2814743   2.81   0.00193967    2.383    0.580
       117 -10.0794      1.3444    118.6788   1.0576831780e+02   5.1220398378e+01    0.2295955    0.1162267 -76.54 0.0003404282    1.795    0.443
       118 -11.0410     30.2222    117.7502   9.4659851703e+01   4.9271818367e+01    0.3164468     0.199171  -3.52 0.0007001035    1.961    0.490
       119  -9.7712     86.2707    116.0157   7.3945222549e+01   4.1760713696e+01    0.2217174    0.1953273 -51.51 0.0004260645    1.127    0.113
       120 -10.6468     52.3129    115.1057   8.5724357413e+01   4.7385436456e+01    0.4363742    0.2279894 -72.86 0.0009479329    2.511    0.602
       121  -9.7618    213.8006    115.6275   4.4622622171e+01   1.6640855019e+01    0.1582914    0.1243623  72.43 0.0003689123    1.562    0.360
       122 -10.2827    183.2381    114.2824   4.9272392394e+01   2.2552642874e+01    0.2301105    0.1802469  49.26  0.001005564    1.412    0.292
       123  -9.7582     23.9485    117.7413   9.7062161326e+01   4.9861389403e+01    0.1752246     0.125707  14.18 0.0006277385    1.527    0.345
       124 -11.1200    249.5665    112.0199   3.9275821600e+01   1.1431369745e+01    0.2590922    0.1701262 -47.07 0.0005451358    1.189    0.159
       125 -10.4633     94.4432    112.3337   7.0361721563e+01   4.1128136640e+01    0.3205675     0.291582 -19.88   0.00106291    1.144    0.126
       126 -11.4605     54.9674    109.0606   8.3327647204e+01   4.8562553898e+01    0.3934034    0.2735397 -55.93 0.0005583972    1.389    0.280
       127 -10.7523     52.0785    103.6239   8.3120070085e+01   5.0328802481e+01    0.3132005    0.2631355  20.16   0.00107406    1.221    0.181
       128 -10.8124      2.4660    107.1137   1.0381804893e+02   5.4178529316e+01    0.4782724    0.2621764 -61.51  0.002339397    1.517    0.341
       129 -10.4498     82.9033    107.9047   7.2973184483e+01   4.4324387380e+01    0.3065607       0.2156  30.27   0.00139364    1.471    0.320
       130  -9.7138     35.0904    107.9741   9.0840260955e+01   5.1322272671e+01    0.2404565    0.1579826 -28.57 0.0009564557    1.662    0.398
       131 -11.9210     26.4076    105.0921   9.3757193875e+01   5.2942070529e+01    0.6889412    0.4454041   4.55  0.003309507    1.760    0.432
       132 -10.3907     37.9186    102.7980   8.8571130863e+01   5.2329001066e+01     0.253392    0.2369999 -82.65 0.0009102024    1.174    0.148
       133 -10.8553    144.1989     98.8775   5.3316630860e+01   3.3654806213e+01    0.3658193    0.2945901 -68.61  0.001088995    1.355    0.262
       134  -9.8619    107.8986     99.6454   6.2830476415e+01   4.1312039447e+01    0.2104115    0.1909745  52.37 0.0004299444    1.116    0.104
       135 -11.6441     62.1180     98.7389   7.7986712885e+01   5.0038812871e+01    0.3740097    0.3126733  -1.71 0.0008951598    1.278    0.217
       136 -10.4515     66.8483     97.8993   7.5976776288e+01   4.9478236818e+01     0.222557     0.208317 -14.08   0.00120465    1.040    0.038
       137 -10.4058    111.5650    105.9021   6.3489998730e+01   3.9184879272e+01    0.3835718     0.201966  42.51            0    1.911    0.477
       138 -10.5929      9.6828     99.1064   9.9596828781e+01   5.5806726564e+01    0.2005182    0.1845849  43.13 0.0006725272    1.244    0.196
       139 -11.2600     52.5717     94.8105   8.0662119881e+01   5.2412692689e+01    0.5550858    0.2651471 -53.41   0.00223747    2.002    0.501
       140  -9.7604     96.0162     96.6578   6.5582867510e+01   4.4394136952e+01    0.2103904     0.196443  31.66  0.000565187    1.064    0.060
       141  -9.3977     42.3503     97.6750   8.5549742853e+01   5.3081214005e+01    0.1496088    0.1119733  63.98 6.892582e-06    1.755    0.430
       142 -10.8152     14.9476     96.6743   9.6911097572e+01   5.6055530301e+01    0.2621764    0.1687718 -51.69  0.001334611    1.345    0.257
       143  -9.9844    101.7293     95.5825   6.3513445672e+01   4.3465295255e+01    0.3810122    0.1460647  45.25  0.001294985    2.608    0.617
       144 -12.0362    166.7486     83.4852   4.4853550946e+01   3.1561654424e+01    0.9350169    0.7668552  -0.23  0.004969527    1.717    0.417
       145 -10.1926    173.1935     82.8792   4.3592984394e+01   3.0271590930e+01    0.2203344    0.1760919 -65.68 0.0009336163    1.219    0.180
       146 -11.7784    157.9940     90.2233   4.8188308998e+01   3.2277549454e+01     0.444226    0.2948338  49.20  0.002158898    1.581    0.367
       147 -12.1771    156.4097     83.2105   4.6688756967e+01   3.3882798909e+01     1.265391    0.5892016 -55.08  0.004819223    2.596    0.615
       148  -9.7557    227.3331     92.6050   3.8099984112e+01   1.8087510444e+01    0.1876432    0.1222958 -64.38 0.0005654573    1.584    0.369
       149 -10.0686     66.5163     93.0686   7.4751764218e+01   5.0660876779e+01    0.2155831    0.1460888 -51.78 0.0001966182    1.482    0.325
       150 -11.0915      2.3280     92.3742   1.0160775928e+02   5.7941347963e+01    0.3138307    0.2284902 -35.29   0.00177444    1.278    0.217
       151 -10.1576     36.3451     91.5103   8.6539020660e+01   5.5310247592e+01    0.2730824    0.2359888  47.56  0.001184425    1.330    0.248
       152  -9.9015     31.1286     91.4131   8.8764997605e+01   5.5910582162e+01    0.3798763    0.1710985 -59.46  0.001556378    2.075    0.518
       153 -10.8631     84.1140     89.1196   6.7276743034e+01   4.8376831953e+01    0.4430174    0.3070996  62.06  0.001958764    1.878    0.468
       154 -10.1031     78.6997     87.6731   6.8719144510e+01   4.9716287761e+01     0.343074    0.2241303 -37.55   0.00141305    1.592    0.372
       155 -10.8651     22.0662     87.6175   9.1873619302e+01   5.7722929227e+01    0.4186186     0.213832 -50.79  0.001337133    1.695    0.410
       156 -10.0173     10.8559     90.5440   9.7514866276e+01   5.7884009932e+01    0.1867575    0.1325279   8.05 0.0007568428    1.513    0.339
       157 -10.5665     97.2464     89.0545   6.2986679203e+01   4.5771812684e+01    0.3282792    0.2164235  47.06 0.0008717242    1.515    0.340
       158 -10.9514     47.7567     88.0943   8.0802182814e+01   5.4680671573e+01     0.242631    0.2289376 -27.26 0.0002693971    1.043    0.041
       159 -11.6044     66.4734     85.7810   7.2637426373e+01   5.2316230083e+01     0.555618    0.3311076 -32.64  0.002378335    1.906    0.475
       160  -9.7912     41.9720     88.5167   8.3357497541e+01   5.5347328392e+01    0.2076131    0.1196628  -6.60 0.0008100699    2.535    0.605
       161 -10.6803    111.7084     85.8104   5.7782205081e+01   4.3363285440e+01    0.5254211    0.3555245  87.48  0.002101802    2.507    0.601
       162  -9.4566     38.8093     86.1352   8.4079343037e+01   5.6305426645e+01    0.1991339    0.1494806 -28.83 0.0003696183    1.311    0.237
       163 -10.2208      9.2847     85.9655   9.7316575290e+01   5.9118989834e+01    0.2659528    0.1977852  59.09 0.0009149784    1.711    0.415
       164 -10.7744      7.2889     81.8463   9.7401356585e+01   6.0249858507e+01    0.3428085    0.2069742 -38.90  0.001769133    1.481    0.325
       165 -10.9433     27.0376     84.2601   8.8821382253e+01   5.8061418175e+01    0.2142415    0.2003767  86.96 0.0002081716    1.271    0.213
       166 -11.6474     30.1475     81.8276   8.6782425560e+01   5.8314843127e+01    0.3885326     0.258218 -42.05  0.001169522    1.376    0.273
       167  -9.4403    116.8092     83.6037   5.5754378914e+01   4.2674479527e+01     0.206981    0.1400028  59.63 0.0008190264    1.583    0.368
       168  -9.5035     16.0150     83.5093   9.3694842817e+01   5.9230131592e+01    0.1934856    0.1322382  10.54  0.001014994    1.541    0.351
       169 -10.2465     74.3849     89.8839   7.0919643260e+01   5.0020268283e+01    0.3294716    0.2047202 -21.38 0.0008957749    2.291    0.564
       170 -10.2674     74.1416     81.6717   6.8516525591e+01   5.1847195812e+01    0.3033074    0.2139313 -37.99  0.001456291    1.444    0.307
       171 -10.5108     42.3256     81.6866   8.1311428702e+01   5.6895422620e+01    0.2684537     0.223923 -67.62 0.0009386828    1.383    0.277
       172 -11.9330      5.1845     50.0414   9.0491697408e+01   6.7580986232e+01    0.8353925    0.6248654  83.92  0.004708035    2.115    0.527
       173 -10.4578      7.0986     41.3096   8.6472851104e+01   6.9202637199e+01    0.3346301    0.1580344 -54.56  0.001659453    2.048    0.512
       174 -11.5550     14.3648     75.9023   9.2692901992e+01   6.1170246669e+01    0.4902082    0.3226926 -20.55  0.002580164    1.527    0.345
       175 -11.9160      7.1077     73.2969   9.5631382172e+01   6.2296056052e+01    0.6353855    0.3405147  16.21  0.002157499    1.956    0.489
       176 -14.0846     16.6698     67.2386   8.9298276866e+01   6.2967756706e+01    0.8107782    0.5456887 -74.62 0.0009324842    1.883    0.469
       177 -11.3107     12.5739     50.4817   8.6414509260e+01   6.6912524129e+01    0.4386134    0.2408245 -56.64  0.001559957    1.838    0.456
       178 -10.4416     11.0801     44.2942   8.5156535204e+01   6.8283814039e+01     0.316481    0.1628145 -50.68 0.0006665321    1.807    0.446
       179 -12.0897     10.7594     61.5936   9.0790038826e+01   6.4699874442e+01    0.3665922    0.2805945  27.80 8.679659e-05    1.453    0.312
       180 -10.6413     12.0427     57.0598   8.8784556307e+01   6.5581666388e+01    0.2154733    0.1943833 -39.38 0.0003826155    1.157    0.136
       181 -10.5652      6.4734     67.9705   9.4692754515e+01   6.3569313273e+01    0.2714641    0.1758377 -46.79 0.0007391865    1.303    0.232
       182 -12.1577      2.7456     62.6240   9.5323606869e+01   6.5009693317e+01    0.5856889    0.3359214 -67.44  0.002259392    1.787    0.440
       183  -9.8735    183.3795     80.8565   4.1472368887e+01   2.8448044578e+01    0.1825243    0.1233925 -29.85 0.0004236501    1.687    0.407
       184 -10.2197    101.1123     80.9151   5.9356301451e+01   4.6610689999e+01    0.2198336     0.201801  85.48            0    1.205    0.170
       185  -9.9027    111.7951     78.8152   5.5675942775e+01   4.4693525373e+01    0.2007938    0.1728693 -73.88  0.001043596    1.307    0.235
       186 -10.1737     59.5955     78.5949   7.3124905190e+01   5.5034942187e+01    0.3554617    0.2418114 -21.54  0.001405146    1.735    0.424
       187 -10.1806      3.0407     78.2721   9.8684124988e+01   6.1359934530e+01    0.1770325    0.1531537 -43.02 0.0003768197    1.025    0.025
       188 -10.5409     99.3073     76.0716   5.8394178767e+01   4.7931539892e+01       0.3886    0.2184021 -57.10  0.001554414    2.329    0.571
       189 -12.2918     44.8498     74.7068   7.8121344560e+01   5.8116986075e+01    0.3905905    0.2660919  44.82 0.0007678788    1.693    0.409
       190 -10.2878     74.8169     74.5420   6.5995703234e+01   5.3191072147e+01    0.3611951    0.2352726  14.28  0.001551932    2.085    0.520
       191 -10.6432     55.2834     74.2560   7.3509397186e+01   5.6656582292e+01    0.3542312    0.2881721 -82.50  0.001816454    1.735    0.424
       192  -9.3650    206.8690     73.6034   3.6600553491e+01   2.4834094534e+01    0.1616206    0.1132333  86.89 0.0004678088    1.564    0.361
       193  -9.4855    167.9653     73.4499   4.2124536600e+01   3.2977996970e+01    0.1946341    0.1317395  63.93  0.000381401    1.500    0.333
       194  -9.5445     61.5267     73.5005   7.0719835043e+01   5.5789170976e+01    0.1441031    0.1345623   0.94 1.954683e-05    1.010    0.010
       195  -9.8970    102.6041     72.4271   5.6277818872e+01   4.7899145273e+01       0.2853    0.1395153  53.26  0.001125922    2.095    0.523
       196 -12.4629     50.9534     68.1807   7.3348835118e+01   5.8602242853e+01    0.5749322    0.4105095   2.29  0.001283271    1.596    0.374
       197 -10.8056     51.9848     62.5184   7.0957957098e+01   5.9575089673e+01    0.3487861    0.2292003  -5.31  0.001606622    1.999    0.500
       198 -11.2886     46.9559     59.4836   7.2097302966e+01   6.0954985502e+01    0.5634497    0.3331029 -47.76  0.002064977    1.762    0.433
       199 -10.0994    184.1231     74.6210   3.9886358380e+01   2.9303060441e+01    0.3044983    0.1343338 -39.61 0.0008267714    2.111    0.526
       200 -10.2626    123.0072     68.4331   4.9690154220e+01   4.4024537079e+01    0.3239073    0.2458559 -31.64  0.001632239    1.447    0.309
       201 -10.7616    122.8671     63.9190   4.8361293016e+01   4.4808617013e+01     0.540874    0.3031808 -62.25  0.001795974    2.618    0.618
       202 -10.5546     77.9531     69.8914   6.3334472142e+01   5.3500805341e+01    0.2132948    0.2042794   4.73 0.0004994175    1.031    0.030
       203  -9.6987    167.7349     69.4388   4.1151010005e+01   3.3673458910e+01    0.1749432    0.1258803  52.50 0.0004058723    1.485    0.326
       204 -11.4652     42.8720     67.9058   7.6836448432e+01   5.9850544644e+01    0.2866487    0.2338703  27.55   0.00160796    1.229    0.186
       205 -10.8962     27.2001     54.9704   8.0041579791e+01   6.4517056679e+01     0.414802    0.1870599 -43.10  0.001269346    2.058    0.514
       206 -10.9314     28.5062     66.0262   8.3025855875e+01   6.2062013692e+01    0.2774436    0.2457913 -24.43 0.0006480676    1.039    0.037
       207 -11.8773     30.7254     62.4908   8.0805876723e+01   6.2558816513e+01    0.6121992    0.3753462  51.30  0.002824851    2.420    0.587
       208 -12.0258     36.9427    242.7861   1.0692256951e+02   1.6825337318e+01    0.6244037    0.3240898  83.61  0.002026642    2.259    0.557
       209 -11.5088     34.8426     42.2476   7.1275234389e+01   6.5917775418e+01    0.6455569    0.3592976  -0.97  0.002538654    2.846    0.649
       210 -12.4032    226.4523    245.8442   6.6417278211e+01  -6.7820405652e+00    0.4838764    0.2938178 -15.19  0.003127221    1.379    0.275
       211 -11.2107     23.9986     41.7966   7.6835502681e+01   6.7419989097e+01    0.4927032    0.4104955  82.94 0.0005939775    2.087    0.521
       212 -12.9205     27.4822     37.7108   7.3247892471e+01   6.7708598238e+01    0.3438924    0.2792157 -24.33 0.0006967002    1.166    0.142
       213 -11.8693     24.5151     34.5331   7.3524812571e+01   6.8633664316e+01    0.2757492    0.1976258   8.19  0.000522704    1.280    0.219
       214  -9.5924    155.8529     63.8164   4.1687753848e+01   3.7224821480e+01    0.1945452    0.1507201 -72.62 0.0004687884    1.324    0.245
       215  -9.9788    130.8428     63.8833   4.6559062253e+01   4.2972477003e+01     0.303138    0.1088245 -32.15  0.001003218    3.523    0.716
       216  -9.3164    233.2752     63.6644   3.1702562730e+01   2.1358615715e+01    0.1244382   0.07050582 -60.80 0.0003294278    1.605    0.377
       217 -12.1486    201.9912     62.5173   3.4761660031e+01   2.7457914641e+01    0.2324022    0.1849287 -50.96 -4.288471e-06    1.130    0.115
       218 -10.2696     76.7996     62.2600   6.1128800165e+01   5.5146470069e+01    0.2323592       0.1848  37.68 0.0002148676    1.187    0.158
       219 -10.1877    113.6331     61.0627   4.9706452505e+01   4.7393198185e+01    0.2259082     0.189556  75.13 0.0004936676    1.248    0.198
       220 -11.7846     97.0321     59.2626   5.3597503396e+01   5.1416626393e+01    0.4824299    0.3211075  76.41  0.001102723    2.199    0.545
       221 -11.4442     85.5895     57.6142   5.6531640018e+01   5.4155662074e+01    0.5355861    0.3066615 -38.50  0.002462076    1.855    0.461
       222 -10.9035     89.1732     54.3592   5.4259677523e+01   5.3926830570e+01    0.3412381    0.2130271  59.95 0.0009430741    1.756    0.430
       223  -9.5626    169.1533     59.8344   3.8504649314e+01   3.4834867690e+01     0.164026    0.1570864  45.45 0.0003069757    1.264    0.209
       224 -10.3745    127.1522     58.9674   4.5898961601e+01   4.4606642170e+01    0.2266387    0.1884322  62.83 0.0002574102    1.137    0.120
       225 -11.0272     58.7180     58.6028   6.6714321708e+01   5.9192331715e+01     0.378683    0.2779479  19.65  0.001306905    1.386    0.279
       226 -10.8544     81.0057     55.5203   5.7293079807e+01   5.5461966929e+01    0.4466314    0.2865229  -0.25  0.001796036    2.597    0.615
       227 -10.3397     78.4433     47.0868   5.5056673177e+01   5.7341711911e+01    0.1936885    0.1738077  32.51 0.0003153729    1.015    0.015
       228 -12.0407     75.0893     55.7995   5.9429713290e+01   5.6617661988e+01    0.3943532     0.320713  51.39 0.0002178729    1.265    0.209
       229 -11.5406     77.2403     51.0430   5.6936657899e+01   5.6969183322e+01    0.5297933    0.2654856  47.61 0.0007846452    1.868    0.465
       230  -9.0435    174.2941     56.2541   3.6863312381e+01   3.4220761248e+01    0.1177933    0.1010199  38.80            0    1.490    0.329
       231  -9.7370    147.1664     56.4971   4.1229457031e+01   4.0330321861e+01       0.1917    0.1284027  63.57 0.0003893215    1.427    0.299
       232 -12.7534    105.3616     52.5733   4.9062622024e+01   5.0613098219e+01    0.4259084    0.3283618  63.54 0.0002514518    1.281    0.219
       233  -9.5980    230.6364     54.7140   3.0189589726e+01   2.3066560407e+01    0.1005316   0.09188949  26.73 0.0007021378    1.690    0.408
       234  -9.5663    182.4646     54.5509   3.5347354588e+01   3.2682209407e+01    0.1281168      0.11363 -74.75 6.051709e-06    1.051    0.048
       235 -11.0301    119.7930     52.7504   4.5622605460e+01   4.7262579564e+01    0.2507827    0.2147695  43.78 0.0002870899    1.191    0.160
       236 -10.4965     62.0045     52.7545   6.3212350507e+01   5.9649017904e+01     0.215142    0.1903297 -23.27 0.0003944456    1.155    0.134
       237 -11.0935     57.1390     51.1217   6.4567201825e+01   6.0807437443e+01      0.67111    0.2835801 -36.61  0.002545103    2.567    0.610
       238 -11.2398     51.5611     46.7596   6.5234022281e+01   6.2521713755e+01    0.7400357    0.2245559 -46.68  0.002512525    3.976    0.749
       239 -11.4580     54.1532     41.0696   6.1813185068e+01   6.2995149618e+01    0.5608542    0.3565425 -28.55  0.002920537    1.684    0.406
       240 -12.2964     57.6327     33.9021   5.7369057567e+01   6.3420789547e+01    0.3647712    0.2913939  16.88 0.0005213683    1.200    0.166
       241 -12.0648    130.6169     49.7988   4.2420184089e+01   4.5162413605e+01    0.5635205    0.4184828  79.42  0.001656993    1.387    0.279
       242  -9.8238     96.0948     52.0951   5.1421054012e+01   5.2769195405e+01    0.2006845    0.1732069  30.11            0    1.177    0.150
       243 -10.2114     68.7626     47.7779   5.8719253873e+01   5.9191932268e+01    0.2822955     0.230836 -71.64 0.0007862659    1.738    0.425
       244  -9.7328     62.0569     47.9206   6.1335237989e+01   6.0452448939e+01    0.2180189    0.1569494   3.80   0.00111449    1.652    0.395
       245  -9.9560    104.3612     46.7391   4.7359804323e+01   5.1701396357e+01    0.2860635    0.2181297  58.50  0.001553707    1.219    0.180
       246 -11.1799     95.8364     42.2272   4.8031525550e+01   5.4269357852e+01    0.4766105    0.3112993 -10.05  0.002264675    2.167    0.538
       247  -9.2381     91.7034     45.3368   5.0297669450e+01   5.4751741462e+01     0.188204    0.1357221  69.04 0.0005242711    1.569    0.363
       248 -10.4645     91.4167     41.6399   4.9045033843e+01   5.5338651123e+01    0.3165574    0.2128288 -41.76  0.001642072    1.649    0.394
       249  -9.8845     85.8606     45.3069   5.2022894225e+01   5.6033945526e+01    0.3375723    0.1500941 -32.96   0.00139438    2.521    0.603
       250 -10.8721     82.5295     46.5501   5.3523237722e+01   5.6563531162e+01    0.3372931    0.2035391 -38.31  0.001643367    1.794    0.443
       251 -10.7488     81.7322     42.0233   5.2082862638e+01   5.7397119840e+01    0.2443541    0.1729709  40.93 0.0008649899    1.298    0.230
       252  -9.2732    151.5132     45.5120   3.7473945995e+01   4.0878125708e+01    0.1333891    0.1194975  89.42 5.170562e-05    1.016    0.016
       253  -9.9563    143.0470     45.3451   3.8821409251e+01   4.2868878334e+01    0.1880847    0.1566536  74.72 0.0004320015    1.101    0.092
       254 -10.2728    113.0658     44.7355   4.4588485606e+01   4.9974925146e+01    0.2676389    0.1920925  31.10  0.001337912    1.660    0.398
       255 -11.2972     44.4464     43.4513   6.7102134281e+01   6.4256708828e+01    0.4193163    0.3089933 -83.46  0.001920229    3.037    0.671
       256 -11.7790     45.1291     38.3193   6.4641802231e+01   6.4983525459e+01    0.3284416    0.2410829  50.43            0    1.638    0.390
       257  -9.7224    139.1743     43.7854   3.9045925876e+01   4.3984075734e+01    0.1803987    0.1576166  35.78 0.0008626326    1.348    0.258
       258  -9.5846    187.3992     43.1434   3.2066098837e+01   3.3174982215e+01    0.1762265   0.09816051 -49.88 0.0003786041    1.611    0.379
       259 -10.0810     72.1306     42.6089   5.5502826566e+01   5.9315346670e+01    0.2978108    0.2793814 -76.92  0.001056035    1.317    0.241
       260 -10.2900    131.0695     41.6437   3.9882312122e+01   4.6170575936e+01    0.2738174    0.1935323 -65.80  0.001443999    1.577    0.366
       261 -10.0458    121.1005     41.1280   4.1679998086e+01   4.8582233709e+01    0.2089412    0.1734656  44.76 0.0006118427    1.239    0.193
       262  -9.4790    110.8181     41.6116   4.4076014795e+01   5.0921400120e+01    0.1875076    0.1224644  71.26 0.0002728369    1.608    0.378
       263 -10.9344     84.2294     21.3219   4.3347700442e+01   5.9425388004e+01    0.4668725    0.2269695  39.57  0.002143553    2.122    0.529
       264 -11.3126     68.6971     38.5158   5.5097938464e+01   6.0605641932e+01    0.7618353    0.4025359  24.21  0.003079912    2.810    0.644
       265 -10.6426     83.2956     34.9860   4.8923392565e+01   5.8019219760e+01    0.3395602    0.2747004  36.90  0.001712446    1.154    0.133
       266 -11.6425     74.9964     34.9315   5.1499944619e+01   5.9803813098e+01    0.4366947    0.3919027  36.92  0.001088521    1.022    0.022
       267 -10.9141     80.1478     30.1639   4.7990553901e+01   5.9312738913e+01    0.3315078    0.2517807  23.17 0.0007424865    1.416    0.294
       268 -10.0906     80.1542     26.1176   4.6384885782e+01   5.9793185665e+01    0.2439543    0.2217441  12.76 0.0008076116    1.163    0.140
       269 -10.1628    148.3916     39.1932   3.6225958393e+01   4.2429545781e+01    0.2572072    0.1719681 -64.43 0.0006825223    1.575    0.365
       270 -10.7806    226.0703     33.0545   2.6322137095e+01   2.6692085631e+01    0.1870643    0.1490636 -57.57 0.0003017924    1.131    0.116
       271 -11.0454    224.4156     37.4843   2.7321332443e+01   2.6457136524e+01    0.4297826    0.2108822 -71.97  0.001435628    2.176    0.540
       272 -10.9735    221.6767     31.7872   2.6408685042e+01   2.7673151210e+01    0.2077869    0.1494979 -57.47 0.0002821156    1.109    0.098
       273  -9.2910     87.6324     39.3018   4.9273539667e+01   5.6495970723e+01    0.1363137    0.1055421 -87.81 0.0005002278    1.739    0.425
       274 -10.7483    101.2603     36.8673   4.4735801945e+01   5.3749549528e+01    0.4121042    0.2436083  41.60  0.001940925    1.715    0.417
       275 -10.5352    248.4771     37.0053   2.5465979942e+01   2.2212322024e+01     0.164091   0.08418416 -43.42  0.000656031    1.552    0.356
       276  -9.7768    114.0296     37.2345   4.1915435819e+01   5.0741690251e+01    0.2001337    0.1631198  86.67  0.000274159    1.278    0.217
       277 -10.5745    111.0195     35.5672   4.2018130948e+01   5.1654122392e+01    0.3412705    0.2616919  64.55  0.001431616    1.185    0.156
       278 -10.0347      1.5800     36.9143   8.8336597784e+01   7.0471443522e+01    0.2008157    0.1489609 -51.52  0.001265925    1.377    0.274
       279  -9.8075    134.6389     35.1965   3.7318404949e+01   4.6147494065e+01    0.2138883    0.1758728 -22.28 0.0009877081    1.466    0.318
       280  -9.2628    128.2960     36.2882   3.8772572879e+01   4.7506693760e+01    0.1301104   0.09713842  37.79 0.0002272623    1.551    0.355
       281 -10.7642      9.4652     34.4972   8.2444998637e+01   7.0289928755e+01    0.2467753    0.1859368 -12.22 0.0009492835    1.122    0.109
       282 -11.5151      8.3394     31.1399   8.1786374807e+01   7.1000837618e+01    0.2519216    0.1901903  -1.75 0.0004171288    1.139    0.122
       283 -10.2647    192.6525     33.9007   2.9398155653e+01   3.3230016960e+01    0.1986287    0.1507291  71.26 0.0006550622    1.332    0.249
       284  -9.8415    177.4956     34.0088   3.1028872370e+01   3.6476003011e+01    0.1793854    0.1173392 -37.73    0.0010235    1.569    0.362
       285 -10.6043    123.1823     32.7586   3.8631418566e+01   4.9141147297e+01    0.5424188    0.1452368  60.40  0.001912708    3.116    0.679
       286  -9.6588    183.5407     37.0808   3.1083166686e+01   3.4779453729e+01    0.1950833    0.1553308  51.03   0.00121643    1.542    0.352
       287  -9.6976    166.9972     31.9196   3.1745066188e+01   3.9062748493e+01    0.1831977    0.1496489  33.71  0.001110636    1.678    0.404
       288 -11.8845     49.8233     30.8485   5.9281519041e+01   6.5289426682e+01    0.2301327    0.2065154 -10.32            0    1.166    0.142
       289 -10.5735     49.1888     26.1748   5.7442141992e+01   6.6040282224e+01     0.246425    0.2113017  48.93  0.001559219    1.314    0.239
       290 -10.7236     18.0644     31.2740   7.5831081035e+01   6.9968367027e+01    0.4177273    0.1998375  27.31  0.002105101    1.957    0.489
       291  -9.8588      1.3078     31.7030   8.6581259410e+01   7.1479926494e+01    0.1671299   0.08807129 -43.21 0.0004348814    1.623    0.384
       292 -11.9616    237.3099     28.0487   2.4572962053e+01   2.5237093837e+01    0.3206552    0.2563225  53.71  0.001087649    1.828    0.453
       293 -10.8295    101.9520     29.0671   4.1829519900e+01   5.4540203974e+01    0.3505253    0.2452297 -78.90  0.001814818    1.871    0.466
       294 -11.5824    197.8121     28.0702   2.7620147171e+01   3.2853023189e+01    0.2784053    0.1912212  66.20  0.001257633    1.519    0.342
       295 -10.1046    163.0183     28.3023   3.1309579945e+01   4.0386044877e+01    0.1799644    0.1459131  85.98 0.0005694362    1.077    0.072
       296  -9.3551    156.5569     28.4496   3.2158597953e+01   4.1842407752e+01    0.1265859    0.1097974  88.56 9.002189e-06    1.038    0.036
       297 -11.5799    112.3207     27.3218   3.8991299052e+01   5.2323926220e+01    0.5064001    0.2549758  53.92  0.002427084    1.739    0.425
       298 -10.2957    107.6729     27.5807   4.0043882963e+01   5.3381586396e+01    0.2075407     0.199098 -83.60 0.0008595061    1.121    0.108
       299  -9.2765     71.5384     28.5544   5.0051036256e+01   6.1346788528e+01    0.1316905    0.1149095  39.51 5.782111e-05    1.020    0.019
       300 -10.4892    215.0176     25.0567   2.5570565499e+01   2.9750174633e+01    0.2242901    0.1810111 -35.34  0.001179073    1.480    0.324
       301 -10.0997    172.3812     25.9347   2.9639216798e+01   3.8557012938e+01     0.199013    0.1462304 -83.20 0.0004196806    1.202    0.168
       302 -10.7198     73.0012    244.8089   9.8776214949e+01   1.2208868271e+01    0.3056226    0.2210686  20.42  0.001230768    1.370    0.270
       303  -9.8065    132.9965     19.0033   3.2776113153e+01   4.8345081425e+01    0.1933077    0.1587239 -83.94 0.0004781742    1.141    0.123
       304 -10.6551    129.0000     23.9321   3.4879273137e+01   4.8769933570e+01    0.3228257    0.1576067 -33.39 0.0007425249    2.210    0.547
       305 -13.2203     75.1543    238.6441   9.7648765540e+01   1.3226630799e+01    0.8743225    0.6640952  48.53  0.004708417    1.222    0.181
       306 -10.0751     71.8089     25.1173   4.8535578454e+01   6.1702398531e+01     0.448697    0.1321255  41.69  0.001531765    3.582    0.721
       307 -10.5731      1.7502     24.4184   8.3302630200e+01   7.2759301354e+01    0.3639725    0.1446546 -47.04    0.0018062    2.237    0.553
       308 -10.3446     61.4201    242.1509   1.0122550780e+02   1.4172649487e+01    0.4106238    0.1328371  52.17   0.00139217    3.947    0.747
       309 -11.9239     89.2294    249.3061   9.5483132688e+01   9.2667417903e+00    0.3509728     0.248295  26.17 0.0008256579    1.254    0.203
       310 -10.0962     72.1574    250.2195   9.9490633879e+01   1.1210951605e+01    0.1824626    0.1621718   6.37 0.0007435494    1.243    0.195
       311  -9.8470     15.1406     13.6235   6.9018716637e+01   7.3055807668e+01    0.1694511    0.1230565  15.36 0.0003749325    1.145    0.127
       312 -10.1227    195.2964    238.3345   7.0943340514e+01  -2.2965427864e+00    0.2268942    0.1554088 -12.80  0.001394006    1.290    0.225
       313  -9.7996    134.5409    237.9454   8.3669587684e+01   5.4986523775e+00    0.1899255   0.09756891 -28.80 0.0008090697    2.587    0.613
       314 -10.6133     10.7136     24.6742   7.7420094695e+01   7.1881714747e+01    0.2181926    0.1468207 -17.73 0.0006028319    1.337    0.252
       315 -10.7519     13.9819     23.0172   7.4545661844e+01   7.1793345371e+01    0.2589015    0.1764869  -8.97 0.0003554862    1.353    0.261
       316 -10.5434     22.5770     24.2387   6.9914662825e+01   7.0540198901e+01    0.2555979    0.1779109  -0.04 0.0007305553    1.367    0.269
       317 -10.1622     24.6316     21.3216   6.7297610684e+01   7.0691323965e+01    0.1792684    0.1657828  27.37  0.001239315    1.390    0.281
       318 -10.3894    160.0001    235.6920   7.7725450136e+01   2.5269244640e+00    0.1868772    0.1468377  11.62 0.0004439981    1.104    0.094
       319 -11.0900     58.8085     21.3260   5.1382038722e+01   6.4808883581e+01    0.4033629    0.1911663  39.11  0.001909053    1.929    0.482
       320 -10.3476     63.3570     23.3122   5.0616551327e+01   6.3664176765e+01    0.2635709    0.1682043  31.23  0.001418739    1.535    0.349
       321  -9.9125     24.2571    232.1137   1.0910425487e+02   2.0475845811e+01     0.254661    0.1645817  21.70 0.0009386472    1.653    0.395
       322  -9.7966    177.3915    234.8169   7.3946912251e+01   4.4817647620e-01    0.1807348    0.1031837 -31.29 0.0009503767    1.700    0.412
       323 -10.7991     86.9798    232.9762   9.4192737870e+01   1.2906510856e+01    0.3182065    0.1378675  47.79  0.001294569    2.464    0.594
       324  -9.2902     38.5138    232.4795   1.0579589545e+02   1.8900769939e+01     0.128497    0.1120727  54.50 2.113485e-05    1.019    0.019
       325 -10.9744    186.3368     22.6274   2.7453508753e+01   3.5890061314e+01    0.2220783    0.1690741 -68.01 0.0002892003    1.103    0.093
       326  -9.2350    221.3010    234.3436   6.5509195675e+01  -4.5932557264e+00    0.1249422   0.07182198 -13.19 0.0003774424    1.678    0.404
       327 -10.6593    161.5214     20.5036   2.9488388111e+01   4.1591840726e+01    0.2360393     0.209265  -0.94  0.001563282    1.562    0.360
       328  -9.5438     97.2944     23.3192   4.0849600260e+01   5.6253493717e+01    0.1889547    0.1139587  69.21 0.0004340114    1.628    0.386
       329  -9.8937     93.6687     21.7121   4.1111814759e+01   5.7254366113e+01     0.182037    0.1492858  88.13 0.0005243906    1.349    0.259
       330 -10.4500    192.4487     21.2093   2.6585820681e+01   3.4754577798e+01    0.1659915   0.09021886 -49.88 0.0004887392    1.603    0.376
       331 -10.0232    168.3107     21.0967   2.8889041147e+01   4.0000679874e+01    0.1711342    0.1395126 -69.80 0.0005119186    1.090    0.082
       332 -10.3608    159.3402     23.3285   3.0470429406e+01   4.1781356584e+01    0.1828836    0.1704745  58.73 0.0009512195    1.278    0.218
       333  -9.0056    120.6600     21.2784   3.5456996592e+01   5.1013992540e+01    0.1316346   0.09086704 -78.04 0.0007004949    1.621    0.383
       334  -9.8253    114.3370     20.8920   3.6467455530e+01   5.2540740305e+01    0.1643561    0.1228689  -4.87  0.000631529    1.764    0.433
       335  -9.0549     74.3177     21.2763   4.6151902919e+01   6.1601306211e+01    0.1331844    0.0859179  32.64 0.0002624545    1.571    0.363
       336  -8.8348     34.6393     21.1165   6.1813451866e+01   6.9208898263e+01    0.2341107    0.1611835 -51.74 0.0006764687    2.226    0.551
       337  -9.4909     58.7979    229.3930   1.0065693383e+02   1.7259139604e+01    0.1822186    0.1220001  17.07 0.0009405828    1.633    0.388
       338 -10.8697     30.4786    234.4174   1.0781853898e+02   1.9327941710e+01    0.4253401    0.1919453  74.18  0.001833765    2.733    0.634
       339 -10.4983    121.1727    226.7573   8.5173015350e+01   9.5334981321e+00    0.2258583    0.1374494  62.63 0.0009485846    2.779    0.640
       340  -9.8844    190.6178    226.2314   6.9913205223e+01   2.3943591861e-01    0.1787515    0.1010243 -31.06 0.0007503704    1.643    0.391
       341 -10.8552     41.8870     18.6538   5.7102357358e+01   6.8302600464e+01     0.410442    0.2477562  46.77  0.001667474    1.596    0.373
       342  -9.7522    113.4124    223.2201   8.6527376837e+01   1.1361280679e+01    0.1798283    0.1372043 -73.65 0.0006953854    1.663    0.399
       343 -10.2957     28.6783     19.7193   6.4239698347e+01   7.0327091116e+01    0.2500452    0.1472421 -10.83 0.0008084165    2.056    0.514
       344 -11.1288     88.7688    240.9340   9.4674589568e+01   1.1009486987e+01    0.2647628    0.1681657 -45.84  0.001393261    1.804    0.446
       345 -10.7599     21.5471    220.1635   1.0894577827e+02   2.3465985573e+01     0.220377    0.1685743  76.73 0.0008615214    1.198    0.166
       346 -10.2396    108.4770     17.3821   3.6395637832e+01   5.4265231414e+01    0.2076299    0.1876233  32.11 0.0006047885    1.236    0.191
       347 -10.6844    194.8513     16.7702   2.5410617085e+01   3.4739023138e+01    0.1962363    0.1454796 -78.00 0.0003108556    1.097    0.089
       348 -10.7099      4.0794    226.4938   1.1340440032e+02   2.3627517143e+01    0.3228453    0.1662017 -86.75  0.001696764    1.849    0.459
       349  -9.4458    126.3238    220.6594   8.3055641075e+01   1.0054804721e+01    0.1388203    0.1053988  60.68 0.0007050954    1.726    0.421
       350  -9.5590    211.7815    219.0275   6.4702995335e+01  -1.1525472436e+00    0.1631921   0.08658241 -38.89 0.0008729283    1.686    0.407
       351  -9.2202    176.3260    219.2793   7.1653499889e+01   3.2978235417e+00    0.1350764   0.08989017  -7.20 0.0003748056    1.593    0.372
       352 -10.9046     15.7603    221.8435   1.1043734673e+02   2.3631379941e+01    0.3092133    0.1469726  37.04  0.001143481    1.812    0.448
       353 -10.0303    192.0000    217.9674   6.8266733439e+01   1.4686020631e+00    0.2083611   0.06615596 -44.25 0.0008098533    2.994    0.666
       354 -11.7679     10.2192    216.8864   1.1145216066e+02   2.5290263726e+01    0.4717776    0.3357405   2.18  0.002682517    1.870    0.465
       355  -9.6195     83.8020     13.5806   4.0399766382e+01   6.0292738576e+01    0.1695648    0.1111109  71.07 0.0002743759    1.534    0.348
       356 -10.0250     12.5317    212.4958   1.1062473035e+02   2.6117172689e+01    0.2141902    0.1670553  84.96 0.0008444263    1.166    0.142
       357 -10.6341     11.1415    208.0638   1.1068293764e+02   2.7300793527e+01     0.297632    0.2269985 -83.08 0.0009110341    1.232    0.188
       358  -9.6958     38.2281    217.3557   1.0463457404e+02   2.2398671725e+01    0.1938062    0.1047989  38.34 0.0008082164    1.634    0.388
       359 -11.1230     29.2434    215.5941   1.0672840579e+02   2.3767694390e+01    0.2558986    0.2300888  66.20  0.001208676    1.036    0.034
       360 -10.8058     24.2368    215.7564   1.0797874534e+02   2.4234971767e+01    0.2287266    0.2018797 -45.60 0.0006731655    1.354    0.261
       361  -9.5911    136.6276    215.6965   7.9853073719e+01   9.5840056235e+00    0.1481682    0.1009553  -8.11  0.000703137    1.756    0.431
       362 -11.2652    236.1382    213.9071   5.9629389656e+01  -3.1210008662e+00    0.1725464    0.1393458 -27.74 0.0006382755    1.240    0.194
       363 -12.1573      5.6670    208.5660   1.1205916961e+02   2.7652823991e+01    0.5495385    0.2497735 -73.86  0.002629704    2.035    0.509
       364 -10.2287    109.4681    212.2945   8.5914827615e+01   1.4290358126e+01    0.3938937   0.09530726  36.11  0.001224559    3.497    0.714
       365  -9.9708     20.1907    211.2794   1.0865571548e+02   2.5695392977e+01    0.2587315     0.133293  67.87  0.001020491    2.009    0.502
       366 -11.1106      1.6748    211.4083   1.1318247233e+02   2.7309500531e+01    0.3467788    0.1681934  86.74  0.001144489    1.972    0.493
       367  -9.6182    185.0006    208.4799   6.8032544458e+01   4.0718370531e+00    0.1857295    0.1045159   4.77 0.0008088967    2.455    0.593
       368 -10.2356    246.8014    203.8231   5.6233237827e+01  -2.7491566973e+00    0.3360922    0.1543961 -50.30  0.001577191    3.051    0.672
       369 -10.8078     19.8349    200.7659   1.0796406776e+02   2.8289803536e+01    0.5615698     0.142379 -68.32   0.00199083    3.338    0.700
       370 -10.6743    175.3091    202.3161   6.8941817105e+01   6.5793768807e+00    0.2307088    0.2106327   0.88 0.0004350249    1.118    0.105
       371  -9.1627     53.2370    202.3454   9.9278596090e+01   2.4302544074e+01    0.1369132    0.1013989 -41.24 0.0002931599    1.560    0.359
       372  -9.5497    238.4987    200.5258   5.6973257260e+01  -1.3242897481e+00    0.1212426   0.09122696 -21.66 7.870325e-05    1.018    0.017
       373  -9.4968    117.6628    201.6964   8.2210610298e+01   1.5433141657e+01    0.1505713    0.1090217 -12.35 0.0006456221    1.669    0.401
       374  -9.9781    215.5567    194.2868   5.9721974604e+01   2.4838767737e+00    0.1778144    0.1003659 -31.10 0.0009373534    1.547    0.354
       375 -11.4680     16.3585    192.9581   1.0827128576e+02   3.0559256358e+01    0.4146236    0.2778008  17.78  0.001967853    1.687    0.407
       376  -9.1436     38.6941    190.6685   1.0197949174e+02   2.8919957612e+01    0.1427051    0.1022922 -37.82 0.0007038512    1.661    0.398
       377 -10.3140    244.7094    188.2184   5.3868758115e+01  -1.1253760486e-01    0.2113545    0.1185313 -38.49 0.0005170587    1.427    0.299
       378  -9.6455     61.6426    184.7977   9.4796934877e+01   2.7680741972e+01    0.2070381    0.1364425 -81.20 0.0009431595    1.679    0.404
       379 -12.2603     16.8668    181.3783   1.0718104570e+02   3.3473476127e+01    0.6879755    0.4145511  16.39   0.00338518    1.904    0.475
       380  -9.7225     58.8648    181.8390   9.5194350114e+01   2.8804597427e+01    0.2193523    0.1987353 -31.33 0.0006631867    1.212    0.175
       381  -9.4856      1.8021    180.1147   1.1125122007e+02   3.5011352812e+01    0.1779866    0.1428692 -55.37 0.0006621824    1.322    0.243
       382  -9.9824    244.4948    178.0206   5.2101167649e+01   1.5276552890e+00    0.2867043   0.08942676 -36.36  0.001199569    2.716    0.632
