#   1 NUMBER                 Running object number                                     
#   2 MAG_AUTO               Kron-like elliptical aperture magnitude                    [mag]
#   3 X_IMAGE                Object position along x                                    [pixel]
#   4 Y_IMAGE                Object position along y                                    [pixel]
#   5 X_WORLD                Barycenter position along world x axis                     [deg]
#   6 Y_WORLD                Barycenter position along world y axis                     [deg]
#   7 A_WORLD                Profile RMS along major axis (world units)                 [deg]
#   8 B_WORLD                Profile RMS along minor axis (world units)                 [deg]
#   9 THETA_WORLD            Position angle (CCW/world-x)                               [deg]
#  10 FWHM_WORLD             FWHM assuming a gaussian core                              [deg]
#  11 ELONGATION             A_IMAGE/B_IMAGE                                           
#  12 ELLIPTICITY            1 - B_IMAGE/A_IMAGE                                       
         1 -11.5894     57.6026     17.6656   9.4073035799e+01   3.9263445684e+01  0.001053332 0.0007600067 -86.90  0.001621781    1.367    0.268
         2 -11.3012     33.6108     17.8570   9.4051953258e+01   3.9263678238e+01 0.0008451432  0.000596327  79.16  0.001714182    1.432    0.302
         3 -11.0666     10.6494      3.6100   9.4032223774e+01   3.9253954591e+01  0.001172586 0.0009158791 -47.95  0.002055996    1.226    0.184
         4 -11.5145     12.3580     15.3476   9.4033360570e+01   3.9262035244e+01  0.001338205 0.0007576388 -72.08  0.002015462    1.696    0.410
         5 -11.9130     18.3001      7.6653   9.4038818474e+01   3.9256718224e+01  0.001473659 0.0006209568 -15.30  0.001629576    2.350    0.574
         6 -12.1930     23.3290     11.2366   9.4043125444e+01   3.9259158647e+01  0.001477544 0.0006459851  34.84  0.001616597    2.415    0.586
         7 -11.7951     24.8065      7.1226   9.4044550442e+01   3.9256318025e+01 0.0008246838   0.00054526  73.34 0.0004981065    1.544    0.352
         8 -11.8387     65.8605     13.0157   9.4080432360e+01   3.9260206294e+01  0.001352269 0.0008199373 -25.59  0.001596863    1.612    0.380
         9 -11.1389    172.8946     13.6376   9.4174437634e+01   3.9260133469e+01 0.0009630557 0.0005966313 -31.12  0.001063547    1.566    0.361
        10 -11.9512     75.6821     11.0058   9.4089121392e+01   3.9258778535e+01  0.001367065 0.0006798733  57.61  0.001605353    2.113    0.527
        11 -12.4162    211.5921      9.1596   9.4208562379e+01   3.9256848031e+01  0.001583464 0.0007157966 -72.47  0.002606482    2.111    0.526
        12 -11.7576    208.9638      5.0189   9.4206375049e+01   3.9254008703e+01 0.0007649364 0.0006060685  45.31 0.0003710728    1.317    0.241
        13 -10.5484    148.5617     12.7306   9.4153089541e+01   3.9259629146e+01 0.0007474371 0.0003930451 -55.90 0.0009828857    1.801    0.445
        14 -10.1236     50.5456     11.8764   9.4067013957e+01   3.9259486770e+01 0.0007527084  0.000398523  26.62 0.0009047865    1.971    0.493
        15 -10.2874     32.1493     12.1246   9.4050846183e+01   3.9259734490e+01 0.0006654716 0.0004574131   9.78  0.001327975    1.493    0.330
        16 -10.9464     46.5149      9.2050   9.4063555261e+01   3.9257663128e+01   0.00081867 0.0005508005 -43.63  0.001314942    1.424    0.298
        17 -10.7330     86.9019      8.8905   9.4099041451e+01   3.9257271269e+01 0.0008101893 0.0002903933 -57.00  0.001188813    2.586    0.613
        18 -11.1735    176.0420      7.1393   9.4177394827e+01   3.9255639895e+01 0.0005615717 0.0004909297 -79.94 0.0003149911    1.121    0.108
        19 -11.5217    107.4944      7.5099   9.4117171845e+01   3.9256226511e+01 0.0006667908 0.0006493128  67.35 0.0006859245    1.062    0.059
        20  -9.9820     61.5562      7.0221   9.4076834551e+01   3.9256095081e+01 0.0005484297 0.0003379704 -89.26  0.001029755    1.606    0.377
        21 -12.3786    217.9356      3.5974   9.4214297073e+01   3.9252981636e+01  0.001075751 0.0008237427  41.09  0.001871836    1.364    0.267
        22 -11.0427     77.3696      3.7870   9.4090823561e+01   3.9253797117e+01 0.0008859964 0.0003795346 -24.00  0.001408268    2.276    0.561
        23 -11.1425     73.2336      2.1335   9.4087241037e+01   3.9252675965e+01  0.001044993 0.0008103283  60.50  0.002226433    1.334    0.250
        24 -11.3204      1.4981      3.3770   9.4024192782e+01   3.9253830123e+01  0.001071287  0.000400373  88.89  0.001578069    2.667    0.625
        25 -11.7350    160.4955      2.4518   9.4163878287e+01   3.9252487833e+01 0.0008874068 0.0007338906  10.53 -2.159408e-05    1.244    0.196
        26  -9.8945    134.8272      4.2009   9.4141280113e+01   3.9253818128e+01  0.000499335 0.0003733787 -45.17 0.0004558612    1.282    0.220
        27 -10.1378    123.9362      3.5221   9.4131734175e+01   3.9253402161e+01 0.0005282952 0.0004505984 -82.51 0.0003328026    1.152    0.132
        28 -10.1161     35.6971      4.3281   9.4054202922e+01   3.9254347946e+01 0.0004709089 0.0003229569 -17.96 0.0005984002    1.443    0.307
        29 -10.5121     38.1802      2.3777   9.4056444085e+01   3.9252993794e+01 0.0009112073 0.0003982299 -12.26  0.001440608    2.277    0.561
        30 -10.8742     30.9079      3.6244   9.4050017873e+01   3.9253882740e+01 0.0006765107 0.0005105382 -83.30 0.0006998937    1.300    0.231
        31 -10.7407    191.2756      5.9913   9.4190809623e+01   3.9254771050e+01 0.0004980001 0.0004519668 -80.50 0.0004043957    1.083    0.077
        32 -10.7313     68.9420      3.9460   9.4083416168e+01   3.9253943581e+01 0.0005670352  0.000434176 -44.33 0.0004770886    1.253    0.202
        33 -11.6838    180.1578      1.9370   9.4181163877e+01   3.9252034381e+01 0.0007236735 0.0006810513  -2.48 0.0001478521    1.084    0.078
        34 -10.2029     91.2613      2.3121   9.4103070293e+01   3.9252718988e+01  0.000481247 0.0003817447  52.69 0.0006557649    1.311    0.237
        35 -10.1742    138.0954      1.4540   9.4144232968e+01   3.9251909669e+01 0.0005025336 0.0003423101  -3.65 0.0004308297    1.482    0.325
        36 -11.0567    162.3447    221.2853   9.4158987042e+01   3.9403266413e+01 0.0008566082 0.0005095555  61.29 0.0003663011    1.747    0.428
        37 -11.2767    160.5968    247.9645   9.4156651798e+01   3.9421658285e+01  0.001031867 0.0005988118  80.78  0.001375411    1.739    0.425
        38 -12.0433    140.0714    245.4729   9.4138654512e+01   3.9420040716e+01  0.001778884 0.0008284683 -81.31  0.002960821    2.086    0.521
        39 -11.2874    124.2636    238.2738   9.4124953690e+01   3.9415154714e+01  0.001116295 0.0005621089 -69.05  0.001575129    1.893    0.472
        40 -11.5405    129.8930    247.4112   9.4129634458e+01   3.9421424407e+01  0.001173401 0.0006198725 -63.09  0.001952293    1.798    0.444
        41 -12.0021    128.6371    239.8289   9.4128757160e+01   3.9416205789e+01  0.002221026    0.0010042 -51.08  0.002158226    2.084    0.520
        42 -12.0091    105.6460    247.8563   9.4108271978e+01   3.9421843086e+01  0.001192288 0.0007697106 -81.93  0.001563367    1.513    0.339
        43 -11.5106    109.3499    247.7246   9.4111537190e+01   3.9421735500e+01 0.0007449515 0.0006456524 -76.73 0.0003083017    1.125    0.111
        44 -11.7071    108.9029    244.1850   9.4111250931e+01   3.9419298615e+01 0.0006209427 0.0005613496  52.18 0.0004006225    1.150    0.131
        45 -11.9743     96.1834    248.2081   9.4099929651e+01   3.9422128147e+01  0.001289856  0.000825643  62.15  0.001623031    1.619    0.382
        46 -11.4915     86.8028    243.5365   9.4091812625e+01   3.9418950911e+01  0.001395845 0.0005987806  14.73  0.002209333    2.409    0.585
        47 -11.6402    106.0102    235.7046   9.4108961312e+01   3.9413468457e+01 0.0007072382 0.0005153125 -74.65   0.00068057    1.329    0.247
        48 -12.4910    101.8008    234.4055   9.4105294949e+01   3.9412592428e+01 0.0007430707  0.000671341 -46.84 0.0003651509    1.062    0.059
        49 -12.0664     84.3264    238.4571   9.4089787364e+01   3.9415461984e+01  0.001290284 0.0009614513  26.01  0.002010836    1.396    0.284
        50 -12.3906    101.7536    239.5293   9.4105097707e+01   3.9416123147e+01  0.001076195 0.0007583456 -75.97  0.001041815    1.376    0.273
        51 -13.9579     93.4471    237.1324   9.4097857591e+01   3.9414508805e+01  0.001981209  0.001283429  39.89  0.001998849    1.616    0.381
        52 -10.1314     91.6607    249.8963   9.4095896030e+01   3.9423311540e+01   0.00048069 0.0004255722 -81.79 0.0006091289    1.111    0.100
        53 -12.8207     59.9974    212.1564   9.4069176167e+01   3.9397445144e+01  0.004012453  0.002068709   4.49  0.004429051    1.978    0.494
        54 -14.7352     22.0182    196.6832   9.4036228083e+01   3.9386940208e+01  0.007243473   0.00339331  32.68    0.0119723    2.244    0.554
        55 -12.9689     47.4379    244.4457   9.4057125823e+01   3.9419745997e+01 0.0009835219 0.0007318805 -14.65  0.001554513    1.337    0.252
        56 -12.0580     43.7720    237.2324   9.4054120906e+01   3.9414791071e+01  0.002549192 0.0008857608 -10.99  0.003478562    2.865    0.651
        57 -13.7551     41.2912    226.7545   9.4052260531e+01   3.9407581827e+01  0.003329942  0.002318966  58.48  0.004353068    1.491    0.329
        58 -13.2177      4.7388    226.1532   9.4020102015e+01   3.9407313492e+01  0.002080438  0.000705468 -43.46  0.003002893    2.750    0.636
        59 -13.6797      3.9593    214.5138   9.4019779071e+01   3.9399296820e+01  0.002274137  0.001455594  85.91  0.004420245    1.561    0.359
        60 -13.8610      5.6091    203.6062   9.4021571485e+01   3.9391774954e+01  0.003496903  0.001318627  60.72  0.005116139    2.836    0.647
        61 -13.7236     11.8863    217.5963   9.4026660401e+01   3.9401389795e+01  0.001954942 0.0007394414 -71.61  0.002215931    2.496    0.599
        62 -14.2841     37.7200    248.3131   9.4048450005e+01   3.9422450770e+01  0.002012992  0.001865658  27.82  0.003228149    1.124    0.110
        63 -14.2194     27.8069    241.1667   9.4039943247e+01   3.9417566911e+01  0.003286304  0.001779074  84.29  0.005868137    1.854    0.461
        64 -15.2440      9.0772    232.9606   9.4023708846e+01   3.9411987046e+01  0.004825706  0.001808513 -62.14  0.007317825    2.486    0.598
        65 -14.6726     19.2764    249.0056   9.4032188985e+01   3.9423002153e+01  0.001945233  0.001399934 -38.28  0.002858174    1.339    0.253
        66 -14.9391      7.5145    248.5796   9.4021845921e+01   3.9422754754e+01  0.001963275  0.001222538  30.92  0.003752064    1.677    0.404
        67 -14.6833     14.1437    246.8473   9.4027736848e+01   3.9421535307e+01  0.003030859 0.0007115736 -63.38  0.003730512    3.768    0.735
        68 -11.1332    162.6652    217.4352   9.4159384026e+01   3.9400611896e+01 0.0008257836 0.0005796251 -29.27 0.0009195648    1.387    0.279
        69 -10.9453    183.4999    232.3427   9.4177280891e+01   3.9410779974e+01 0.0009493202 0.0004604164 -25.24 0.0009112709    2.010    0.502
        70 -12.5058     74.8342    229.3377   9.4081709492e+01   3.9409219898e+01  0.001202304 0.0006599351 -37.44 0.0007280533    1.750    0.428
        71 -10.7183     81.2264    230.7574   9.4087293355e+01   3.9410170279e+01 0.0006801158 0.0005002132  13.91 0.0009953175    1.402    0.287
        72 -12.0329     58.6899    230.9043   9.4067449119e+01   3.9410368529e+01 0.0006058272 0.0005548582  71.73 0.0004401402    1.117    0.105
        73 -10.9569    243.3113    230.1648   9.4229998417e+01   3.9408964890e+01  0.001277531 0.0003590107  52.31  0.001441258    3.964    0.748
        74 -11.2628     95.1727    230.0003   9.4099593796e+01   3.9409586893e+01 0.0005862106 0.0005444144  -5.99 0.0003121298    1.092    0.085
        75 -10.5994    114.0336    223.1261   9.4116405555e+01   3.9404764727e+01   0.00108426 0.0004225369 -26.11 0.0009500114    2.486    0.598
        76 -11.8125    100.1718    226.2328   9.4104109137e+01   3.9406968474e+01   0.00129277 0.0007222665  34.26  0.001873457    1.876    0.467
        77 -10.0243    111.3857    227.4886   9.4113942633e+01   3.9407782830e+01 0.0005080521  0.000445268  34.17 0.0001181088    1.190    0.160
        78 -11.9224    106.1563    223.9125   9.4109447576e+01   3.9405342607e+01  0.001147448 0.0007953931  63.40  0.001500317    1.490    0.329
        79 -12.1192     95.2022    224.5815   9.4099784639e+01   3.9405852989e+01  0.001642455 0.0008870739 -21.77  0.002604505    1.818    0.450
        80 -10.8048     96.9808    220.3409   9.4101479264e+01   3.9402923118e+01 0.0008738831 0.0005625901   2.64  0.001080364    1.581    0.367
        81 -12.1425    124.6519    225.1455   9.4125691639e+01   3.9406107018e+01   0.00119419 0.0008942534  32.89  0.002011577    1.394    0.282
        82  -9.9784    125.5004    220.9958   9.4126563674e+01   3.9403243715e+01 0.0005286162 0.0002280465  59.03 0.0008095234    2.453    0.592
        83  -9.6668     85.6331    229.2761   9.4091217889e+01   3.9409130269e+01 0.0003797279 0.0002373874  41.29 0.0003915665    1.676    0.403
        84 -10.4631    202.0386    226.8563   9.4193763023e+01   3.9406904655e+01 0.0009207679 0.0003175313 -50.27   0.00133032    2.687    0.628
        85 -10.6496    249.2021    225.9497   9.4235306749e+01   3.9406028138e+01 0.0009643008 0.0003533043 -77.96  0.001002999    2.613    0.617
        86  -9.9886    174.2524    227.1847   9.4169293351e+01   3.9407272358e+01 0.0006237662 0.0003874085 -32.92 0.0008064073    1.558    0.358
        87 -10.0290    171.1607    225.2180   9.4166630300e+01   3.9405932593e+01 0.0006314859 0.0003729509  60.45 0.0006376847    1.762    0.432
        88 -11.8713    225.0572    225.1673   9.4214075551e+01   3.9405619797e+01 0.0005877163 0.0005403407  40.68 0.0002357796    1.135    0.119
        89 -10.6223     71.4408    225.0645   9.4078853059e+01   3.9406290255e+01 0.0006173064  0.000474365  -5.54  0.001163621    1.312    0.238
        90 -10.5789     78.5601    222.0469   9.4085212389e+01   3.9404180127e+01 0.0007904943 0.0007111411  29.80  0.001122003    1.159    0.137
        91 -10.3284    216.8943    223.1734   9.4206948551e+01   3.9404289161e+01 0.0005065551 0.0004508117  49.47 0.0003698221    1.170    0.145
        92 -10.4603    148.0376    223.2239   9.4146335211e+01   3.9404671915e+01 0.0005730431 0.0004284638 -44.22 0.0008284953    1.283    0.221
        93 -10.2886    180.8454    222.0976   9.4175248105e+01   3.9403733987e+01 0.0005063544 0.0004549095  51.12 0.0002733332    1.158    0.136
        94 -11.0365    132.1000    220.4160   9.4132390369e+01   3.9402813172e+01  0.001288784  0.000551282 -38.52   0.00178328    2.225    0.550
        95 -10.9291     85.0018    221.5216   9.4090898775e+01   3.9403789922e+01 0.0008868916 0.0006090355  -1.46 0.0005795717    1.475    0.322
        96 -11.0749     89.4753    217.5167   9.4094958653e+01   3.9401010650e+01 0.0008297914  0.000562728 -67.87 0.0009940987    1.415    0.293
        97 -11.8854     86.3177    217.3232   9.4092185150e+01   3.9400891265e+01   0.00123161 0.0008214554  88.76  0.001586105    1.489    0.329
        98 -10.5351    169.0280    220.8008   9.4164884403e+01   3.9402899505e+01 0.0005502555  0.000469401 -82.06 0.0002861215    1.151    0.131
        99 -11.8653    196.6843    219.3058   9.4189272757e+01   3.9401729551e+01 0.0009163727 0.0006894454  10.68 0.0003600851    1.366    0.268
       100 -12.1792     62.5753    219.6958   9.4071213728e+01   3.9402629032e+01  0.000592686 0.0005658746 -31.45 0.0003937474    1.034    0.033
       101 -10.7952    217.8076    216.9632   9.4207934707e+01   3.9400005114e+01 0.0008227032 0.0004575897 -64.18  0.001491171    1.712    0.416
       102 -11.3994    210.0106    207.7600   9.4201342593e+01   3.9393704601e+01 0.0008351007 0.0005697542 -13.56  0.001279456    1.459    0.315
       103 -11.0852    217.0459    212.6767   9.4207390108e+01   3.9397055528e+01 0.0006820739 0.0005973998 -24.11 0.0005057686    1.124    0.110
       104 -11.2466    214.9099    209.3173   9.4205608832e+01   3.9394751910e+01 0.0007012631 0.0006595359  -9.82 0.0007754759    1.076    0.070
       105 -14.9850     24.0704    218.4676   9.4037358147e+01   3.9401941843e+01  0.004336051  0.002595236 -65.02  0.004783649    1.595    0.373
       106 -11.4748    176.7287    216.3139   9.4171796196e+01   3.9399769379e+01 0.0008756316 0.0005980913 -14.77 0.0004739936    1.455    0.313
       107 -12.0279    114.0096    205.4802   9.4116918310e+01   3.9392606161e+01   0.00170998  0.001084547  17.79  0.003303091    1.631    0.387
       108 -12.5238     96.3954    212.5961   9.4101199440e+01   3.9397589274e+01   0.00150559  0.001042554  37.35  0.001639614    1.510    0.338
       109 -11.8951     89.6253    202.5833   9.4095545504e+01   3.9390720339e+01  0.002565602   0.00101632 -61.10  0.003988973    2.360    0.576
       110 -10.0625     90.0096    196.9504   9.4096055342e+01   3.9386837394e+01   0.00058633 0.0004240135 -86.62 0.0002942359    1.363    0.266
       111 -12.1525    108.4229    215.5748   9.4111695493e+01   3.9399587323e+01   0.00203136 0.0009176383 -14.96  0.002358059    2.194    0.544
       112 -11.4826    108.7888    210.2410   9.4112179155e+01   3.9395910448e+01 0.0007372313  0.000667176  70.57 0.0006366167    1.132    0.116
       113 -11.4842    104.0624    208.2996   9.4108078128e+01   3.9394594246e+01  0.002130635 0.0006696055 -56.81  0.001574219    2.915    0.657
       114 -12.1197     96.7919    203.1160   9.4101836647e+01   3.9391055392e+01  0.001890135 0.0007092297  52.45  0.002754103    2.864    0.651
       115 -11.6950    100.4548    199.1907   9.4105179457e+01   3.9388334245e+01  0.001334356  0.000652008 -21.44  0.001289228    2.008    0.502
       116 -12.2366    102.8450    193.3180   9.4107461221e+01   3.9384276908e+01  0.001825345 0.0007837914  16.32  0.001292195    2.412    0.585
       117 -11.5344    110.7743    197.5482   9.4114310992e+01   3.9387155533e+01  0.001061528 0.0005656009   3.91  0.001672106    1.913    0.477
       118 -11.2154    113.7017    194.0620   9.4116992716e+01   3.9384739960e+01 0.0007687903 0.0005507397 -37.17 0.0003329498    1.347    0.258
       119 -10.8855    121.4940    199.4506   9.4123687382e+01   3.9388416835e+01 0.0006058013 0.0005338479  26.31 3.530466e-06    1.181    0.153
       120 -10.6887     77.7592    216.8267   9.4084666944e+01   3.9400586736e+01  0.000835543 0.0004677493  -9.86  0.001385854    1.787    0.440
       121 -10.0624     73.0821    217.5160   9.4080528967e+01   3.9401082011e+01 0.0005143686 0.0003425256  -5.41 0.0004599431    1.512    0.339
       122 -10.5614    229.0688    216.3454   9.4217864936e+01   3.9399519429e+01 0.0006922701 0.0004741908  14.20  0.001379325    1.506    0.336
       123 -10.9189    230.8784    212.5165   9.4219569653e+01   3.9396871399e+01  0.001204869  0.000491974  58.97  0.001832623    2.601    0.615
       124 -11.4132    146.1471    215.2238   9.4144910870e+01   3.9399168587e+01 0.0007122312 0.0005143245 -78.07 0.0004560331    1.347    0.258
       125 -10.5879    125.6481    215.7807   9.4126850972e+01   3.9399649622e+01 0.0006022615 0.0004360309 -20.60 0.0008652571    1.362    0.266
       126 -13.5200     41.3719    200.5141   9.4053141941e+01   3.9389501269e+01  0.004301586  0.001896087  83.83  0.006916045    2.288    0.563
       127  -9.9379    161.1050    212.2281   9.4158166111e+01   3.9397031656e+01 0.0007762639 0.0002853196 -30.14  0.001143052    2.610    0.617
       128 -11.6669    195.6739    205.9472   9.4188778073e+01   3.9392529942e+01 0.0009811948 0.0003471659 -59.12  0.001219964    2.620    0.618
       129 -11.7375    188.4114    205.9132   9.4182387248e+01   3.9392543696e+01 0.0008902832 0.0005632064  62.71 0.0009764567    1.637    0.389
       130 -11.4286    128.5935    209.0141   9.4129647356e+01   3.9394973349e+01  0.001362462 0.0006741997 -59.12  0.001641909    1.911    0.477
       131 -12.5033     80.5697    209.2613   9.4087371819e+01   3.9395361651e+01  0.001110943 0.0006594367 -89.05  0.001310565    1.667    0.400
       132 -11.3783     76.2327    199.4106   9.4083855811e+01   3.9388593157e+01  0.001126743 0.0004821271  71.23 0.0005863389    2.431    0.589
       133 -11.0516    237.3896    208.8877   9.4225406518e+01   3.9394335720e+01 0.0008706999 0.0005453869 -63.84  0.001511234    1.525    0.344
       134 -10.9851    184.1204    209.9985   9.4178489645e+01   3.9395380505e+01 0.0005262063 0.0004752733 -45.60 0.0005292768    1.064    0.060
       135 -11.4348    200.1256    204.9758   9.4192724689e+01   3.9391837626e+01 0.0006150744 0.0005147259  83.81 0.0003672124    1.199    0.166
       136 -12.5114    183.3295    204.2433   9.4177964147e+01   3.9391418807e+01 0.0007761782 0.0006161453 -78.04 0.0003455345    1.227    0.185
       137 -10.5320    145.5543    204.1042   9.4144722462e+01   3.9391509484e+01  0.001107865 0.0003302404 -71.66  0.001491622    3.118    0.679
       138 -10.1403     63.8526    199.8531   9.4072946976e+01   3.9388951429e+01 0.0007081492 0.0005426859  61.30  0.001492716    1.349    0.259
       139 -11.2499     73.9086    204.8163   9.4081645099e+01   3.9392327955e+01 0.0008158671 0.0005164442  52.12 0.0003850906    1.651    0.394
       140 -11.4969     68.6470    200.8963   9.4077134383e+01   3.9389649672e+01  0.000772435 0.0006541608  11.54 0.0003135521    1.216    0.178
       141 -11.9210     67.5416    184.9191   9.4076651178e+01   3.9378645664e+01 0.0008407503 0.0006635689   8.13 0.0009038674    1.299    0.230
       142 -12.1196     71.4947    194.9984   9.4079821179e+01   3.9385573568e+01 0.0007372676 0.0006188756 -76.21 0.0003651856    1.159    0.137
       143 -12.3385     69.4577    191.1379   9.4078146781e+01   3.9382922402e+01  0.001108909 0.0005743625 -75.40  0.001306845    1.858    0.462
       144 -12.7267     66.1310    190.5030   9.4075238711e+01   3.9382499225e+01 0.0009127776  0.000755427 -68.51 0.0003962319    1.165    0.141
       145 -11.5141     60.0361    186.9326   9.4069984953e+01   3.9380065166e+01  0.001325491 0.0007131957 -71.96  0.001891359    1.781    0.439
       146 -10.6472     50.0627    197.8181   9.4060873576e+01   3.9387607549e+01 0.0005153364 0.0004889145 -69.06 0.0003801217    1.028    0.027
       147 -11.4845     61.7891    179.6930   9.4071749662e+01   3.9375069399e+01  0.001177766   0.00062923 -60.38 0.0008138125    1.775    0.437
       148 -12.9877     52.1596    202.5788   9.4062572365e+01   3.9390879007e+01   0.00084488 0.0006909275 -51.07 0.0005970023    1.170    0.146
       149 -13.1776     53.1141    192.7722   9.4063714227e+01   3.9384118023e+01  0.001899885 0.0009969946  40.25  0.001419128    2.005    0.501
       150 -12.0961     55.9119    181.2378   9.4066530910e+01   3.9376158706e+01 0.0009610983 0.0006579417  20.50 0.0003907058    1.514    0.340
       151 -12.6317     57.3263    176.7519   9.4067913252e+01   3.9373061864e+01 0.0008731413 0.0006668551  22.57 0.0004333791    1.359    0.264
       152  -9.2249    235.2888    203.2943   9.4223720804e+01   3.9390492870e+01 0.0003761959 0.0002320258 -45.82 0.0002369022    1.549    0.354
       153 -10.5091    209.0186    202.3210   9.4200629503e+01   3.9389961981e+01 0.0006224221 0.0004494636 -66.58  0.000505865    1.329    0.248
       154 -12.0391    206.2115    198.1068   9.4198283148e+01   3.9387072853e+01 0.0009479798 0.0007061862  19.29  0.001200411    1.391    0.281
       155 -11.7812    170.5963    198.9631   9.4166914755e+01   3.9387844397e+01  0.001656937 0.0006769174  80.41  0.002549917    2.495    0.599
       156  -9.6690    166.9996    201.9858   9.4163659457e+01   3.9389945109e+01 0.0004042686 0.0003858021 -58.97 0.0009421108    1.010    0.009
       157 -12.0689    241.5509    199.8995   9.4229330825e+01   3.9388119664e+01  0.001017949 0.0006796761  53.60  0.001341654    1.561    0.359
       158 -10.8856    195.8563    188.9598   9.4189440258e+01   3.9380823645e+01 0.0009540558  0.000483321  70.80  0.001529594    2.037    0.509
       159 -10.9621    189.9741    186.7723   9.4184328854e+01   3.9379346535e+01 0.0007841976 0.0005853221  -4.13  0.001280821    1.353    0.261
       160 -10.9205    190.5020    200.5189   9.4184386824e+01   3.9388816050e+01 0.0006466606 0.0005650655  59.01 9.936142e-05    1.184    0.156
       161 -11.9125    188.4910    195.8096   9.4182756391e+01   3.9385581329e+01 0.0008050389 0.0006238663  59.56 0.0005191541    1.336    0.251
       162 -11.1550    188.5390    191.0309   9.4182940002e+01   3.9382288248e+01 0.0008077343 0.0005207439  87.13  0.001033902    1.545    0.353
       163  -9.5266    232.3611    199.8130   9.4221245872e+01   3.9388109876e+01 0.0004874739 0.0003015104 -69.89 0.0003999462    1.552    0.356
       164  -9.8577    161.1510    200.1799   9.4158566188e+01   3.9388729579e+01 0.0004742063 0.0003855696  51.69 0.0002975062    1.280    0.218
       165 -12.0473    139.4946    195.7478   9.4139640144e+01   3.9385780626e+01  0.001448455 0.0005898622 -68.80  0.001673349    2.318    0.569
       166 -10.9831    224.0391    197.7736   9.4213981841e+01   3.9386749177e+01 0.0006467027  0.000488233 -70.14 0.0003478944    1.277    0.217
       167 -10.0176    116.8313    198.2167   9.4119621201e+01   3.9387588259e+01 0.0005239755 0.0004478272  45.43 0.0004186156    1.220    0.180
       168 -13.1224    246.5991    191.3308   9.4234022810e+01   3.9382187610e+01  0.001463791  0.000835775  32.34  0.001198651    1.834    0.455
       169 -11.2914    249.3737    185.5065   9.4236633619e+01   3.9378159049e+01 0.0009244631 0.0006593954 -79.62  0.000952823    1.366    0.268
       170 -10.5848    233.7290    193.8199   9.4222624759e+01   3.9383972798e+01 0.0005958431 0.0003353927  56.81  0.001062263    1.857    0.461
       171 -10.3359    227.8203    194.3230   9.4217410410e+01   3.9384351311e+01 0.0005698286 0.0004248284  25.03 0.0008094091    1.395    0.283
       172 -10.3225    193.8387    193.8605   9.4187520061e+01   3.9384210936e+01 0.0005370179 0.0004452776 -51.32  0.000453125    1.155    0.134
       173 -11.9648     26.6344    179.0295   9.4040837723e+01   3.9374758001e+01  0.001057675 0.0007570389  53.18 0.0009527293    1.455    0.313
       174 -10.3044     31.4633    194.4065   9.4044610679e+01   3.9385333509e+01 0.0005354705 0.0005042633 -38.48 7.613948e-05    1.032    0.031
       175 -11.0382     33.3716    190.8153   9.4046401170e+01   3.9382851353e+01 0.0009679816 0.0004487167 -67.30  0.001406483    2.045    0.511
       176 -11.4394     32.9229    184.8227   9.4046191746e+01   3.9378724166e+01  0.001023081 0.0006605466 -10.59  0.001658655    1.548    0.354
       177 -11.3600     31.9768    181.4634   9.4045463165e+01   3.9376413389e+01 0.0006206163  0.000439777 -59.97 0.0003125062    1.349    0.258
       178 -11.5123    215.8299    189.6323   9.4206996504e+01   3.9381182881e+01 0.0008642483 0.0005822135 -47.14  0.001093141    1.419    0.295
       179 -10.8694    209.6082    192.9166   9.4201425010e+01   3.9383478715e+01 0.0007225823 0.0003987722  71.63  0.001284147    1.861    0.463
       180 -10.6782    164.4734    192.5049   9.4161718844e+01   3.9383424755e+01  0.001233813 0.0002766721 -30.17  0.001451532    4.137    0.758
       181 -11.3742    163.3302    188.8958   9.4160820378e+01   3.9380943534e+01 0.0008855289 0.0007692468  17.16  0.001031478    1.192    0.161
       182 -12.5885    154.6428    192.2958   9.4153074157e+01   3.9383328941e+01 0.0006640384 0.0006426025 -28.81 0.0003746923    1.033    0.032
       183 -10.6453    149.2909    191.1688   9.4148398270e+01   3.9382578384e+01 0.0005908192 0.0005183523  71.91 0.0006775678    1.164    0.141
       184 -10.4537     86.0823    191.3572   9.4092769578e+01   3.9383000901e+01 0.0009601062 0.0004279636  72.27  0.001531453    2.324    0.570
       185 -10.3210     81.7225    188.8315   9.4089010089e+01   3.9381279782e+01  0.001107756  0.000362564 -37.44   0.00139518    2.872    0.652
       186 -10.5446    120.4404    189.7907   9.4123051724e+01   3.9381765704e+01 0.0006688371 0.0003330072  85.39     0.001129    2.013    0.503
       187 -10.5169    177.8269    189.1796   9.4173568537e+01   3.9381066854e+01 0.0005225916 0.0004615686  48.96 0.0004663254    1.179    0.152
       188 -11.3597    128.4840    187.5171   9.4130198452e+01   3.9380161449e+01 0.0007146073 0.0004989105 -20.14  0.001120101    1.413    0.292
       189 -10.9905    105.0095    187.4914   9.4109542582e+01   3.9380252367e+01 0.0007249466 0.0005609927 -73.62 0.0007697037    1.251    0.201
       190 -11.4698    107.5014    180.5108   9.4111946879e+01   3.9375431069e+01   0.00099431 0.0005184148 -72.59 0.0007648229    1.839    0.456
       191 -11.7297    104.0371    178.0965   9.4108971817e+01   3.9373783290e+01 0.0007694337 0.0006043387  49.62 0.0004468788    1.326    0.246
       192  -9.6873    123.2949    187.3074   9.4125638552e+01   3.9380041277e+01 0.0003823221 0.0002301174 -46.11 0.0003561849    1.586    0.369
       193 -11.7594    230.4279    181.6559   9.4220075304e+01   3.9375608798e+01  0.001246938 0.0006444142 -83.45  0.002178515    1.891    0.471
       194 -10.1508    141.0105    188.9687   9.4141177625e+01   3.9381102228e+01 0.0005503026 0.0003762429  46.45 0.0003792832    1.529    0.346
       195 -12.9237     74.9456    180.8166   9.4083291615e+01   3.9375786915e+01  0.001600208  0.001007693  75.50 0.0009858814    1.616    0.381
       196 -11.8306     76.9827    174.0162   9.4085291884e+01   3.9371092381e+01  0.000612604 0.0005660544 -82.61   0.00142086    1.070    0.065
       197 -11.4677      4.3049    182.6876   9.4021076083e+01   3.9377366811e+01  0.001185216 0.0005250754  59.62 0.0008940092    2.385    0.581
       198 -11.8998      1.3006    182.6883   9.4018432493e+01   3.9377378938e+01   0.00107122 0.0004241572  84.40  0.001619312    2.551    0.608
       199  -9.8450    224.8325    184.4147   9.4215071191e+01   3.9377539836e+01 0.0005067955 0.0002966622 -23.90 0.0005682489    1.673    0.402
       200 -12.7624     92.5853    180.7419   9.4098815121e+01   3.9375657686e+01  0.001500527 0.0006909143 -50.03  0.000259926    2.049    0.512
       201  -9.8533    199.2043    185.5553   9.4192486772e+01   3.9378460470e+01 0.0004981729 0.0003060513 -23.20 0.0008211165    1.596    0.374
       202 -11.2509    121.4595    203.0556   9.4123548236e+01   3.9390901006e+01 0.0008084701 0.0006018672 -72.65   0.00089663    1.298    0.230
       203 -11.8521    122.4286    182.6953   9.4125015382e+01   3.9376867402e+01  0.001093105   0.00050385  28.91   0.00145081    2.276    0.561
       204  -9.5358    220.5171    181.5144   9.4211358975e+01   3.9375564273e+01 0.0003469029  0.000337402 -58.80 0.0008102155    1.017    0.016
       205 -10.3757    189.9771    180.2229   9.4184525186e+01   3.9374833620e+01 0.0007203221  0.000435815  39.51  0.000797313    1.733    0.423
       206  -9.4517    157.3510    181.2790   9.4155786366e+01   3.9375724573e+01 0.0003893847 0.0002264005 -41.80 0.0007010798    1.646    0.392
       207  -9.9253    246.9856    178.9436   9.4234723159e+01   3.9373649887e+01 0.0004184287 0.0004004012 -50.62 0.0003669357    1.005    0.005
       208  -9.3543    147.2879    179.3076   9.4146990849e+01   3.9374415132e+01 0.0003801925 0.0002307173 -46.59 0.0002919371    1.573    0.364
       209 -11.0389     42.0518    178.4289   9.4054421912e+01   3.9374281230e+01  0.001086672 0.0005581127  64.14  0.001868196    2.030    0.507
       210 -10.3841     12.9268    169.6495   9.4029068275e+01   3.9368349664e+01  0.001186058 0.0004145903  -9.15  0.001600233    2.857    0.650
       211 -10.1570     24.4619    167.5102   9.4039283376e+01   3.9366829705e+01 0.0006901855 0.0003429003  -3.32 0.0009861455    2.031    0.508
       212 -11.3968     31.8016    175.4842   9.4045494006e+01   3.9372294262e+01 0.0009453623 0.0007734085 -11.87  0.001228207    1.222    0.182
       213 -11.7024     37.6489    172.3116   9.4050736836e+01   3.9370084431e+01   0.00072164 0.0006648012 -13.09   0.00029702    1.090    0.082
       214 -11.5589     31.5436    169.8031   9.4045442862e+01   3.9368380967e+01  0.001354283 0.0007069763   0.74  0.001864462    1.944    0.486
       215 -11.6207     23.4316    172.1765   9.4038232187e+01   3.9370049022e+01 0.0009609376 0.0005248809 -22.13 0.0002459222    1.797    0.444
       216 -11.1255     19.9550    170.0340   9.4035239879e+01   3.9368586711e+01 0.0008727607  0.000739824 -37.26   0.00152417    1.140    0.123
       217 -10.4586     18.6850    178.2576   9.4033867155e+01   3.9374257958e+01 0.0006786949 0.0004700024 -75.86 0.0006539009    1.399    0.285
       218 -11.2695     16.1380    175.3235   9.4031717212e+01   3.9372246412e+01  0.001007277 0.0008405033  16.10  0.001257548    1.239    0.193
       219 -11.6472    136.4309    176.3282   9.4137527470e+01   3.9372414213e+01 0.0006820052 0.0005800805 -76.08 0.0002438165    1.144    0.126
       220 -11.1926     10.0946    177.5312   9.4026331144e+01   3.9373791427e+01 0.0009646392 0.0004875114  21.43  0.001651307    2.056    0.514
       221 -11.9378      4.3494    174.7018   9.4021364291e+01   3.9371864290e+01  0.001430308 0.0006223567  50.81  0.002255215    2.443    0.591
       222 -11.4901      3.0573    167.7496   9.4020444270e+01   3.9367079177e+01 0.0008820204 0.0005184411 -39.11  0.001197164    1.633    0.388
       223 -10.3083    139.8312    184.3755   9.4140277722e+01   3.9377942952e+01 0.0005100308 0.0003052278 -19.45  0.000943781    1.648    0.393
       224 -11.7401    172.5184    172.9696   9.4169379146e+01   3.9369923912e+01   0.00149254 0.0005163687 -59.24  0.002173995    2.674    0.626
       225 -11.6910    130.3261    175.3227   9.4132186335e+01   3.9371750319e+01 0.0009950125 0.0005650588 -44.82  0.000999075    1.680    0.405
       226 -11.9361    103.4678    182.1223   9.4108348843e+01   3.9376559793e+01 0.0008747072 0.0007087351  40.24  0.001903279    1.288    0.224
       227 -11.1480     67.5057    176.0000   9.4076892792e+01   3.9372500321e+01  0.001042401 0.0005421033  -1.63  0.001821026    1.945    0.486
       228 -11.5612     65.0056    173.3333   9.4074774847e+01   3.9370673598e+01  0.001371606 0.0005670155  55.36  0.002102031    2.576    0.612
       229 -10.4207    195.1262    174.8904   9.4189213305e+01   3.9371132812e+01 0.0005142368  0.000379003 -49.99 0.0005986024    1.298    0.229
       230 -10.1372    177.5108    175.4553   9.4173697766e+01   3.9371611680e+01 0.0003517754 0.0003314048 -49.07 0.0001187224    1.019    0.018
       231 -10.8396    167.0876    174.8774   9.4164544140e+01   3.9371265560e+01 0.0005457799 0.0005061056 -49.22 0.0008872187    1.034    0.033
       232  -9.6161    203.7144    174.6925   9.4196775295e+01   3.9370951969e+01 0.0003794346 0.0002309187 -46.76 0.0002321849    1.568    0.362
       233  -9.9767    188.7891    174.3645   9.4183653164e+01   3.9370802924e+01 0.0005360747 0.0003001729 -18.71  0.000960519    1.762    0.432
       234 -12.8783    156.1025    172.2142   9.4154958502e+01   3.9369484596e+01 0.0008545067 0.0006999412   3.14 0.0005016604    1.245    0.197
       235  -9.9544    144.5089    173.5252   9.4144718901e+01   3.9370444148e+01 0.0003536789 0.0003304395 -49.65 0.0002339342    1.026    0.026
       236 -11.5940     90.5232    173.5348   9.4097220066e+01   3.9370700910e+01  0.001183294  0.000478139  -2.40  0.001822796    2.500    0.600
       237 -11.8078     87.0309    171.2847   9.4094215921e+01   3.9369166061e+01  0.001046794 0.0008324438  73.55  0.001908933    1.280    0.219
       238 -10.1358    120.7790    172.3317   9.4123876551e+01   3.9369734119e+01 0.0005081448 0.0003000814 -17.68 0.0006308248    1.674    0.403
       239  -9.8000     82.4432    172.4365   9.4090144445e+01   3.9369979926e+01 0.0003491225 0.0003305348 -50.56 8.840558e-05    1.013    0.013
       240 -10.8197     51.3353    171.3668   9.4062807685e+01   3.9369376610e+01  0.001002187 0.0004476832  31.92  0.000859605    2.356    0.576
       241 -12.3468     55.6707    167.3050   9.4066746848e+01   3.9366559712e+01  0.001380855 0.0008443519  27.14  0.000645244    1.705    0.413
       242 -10.1733    101.0048    170.2468   9.4106541912e+01   3.9368388354e+01 0.0004462126 0.0002967543  -2.52 0.0004802918    1.520    0.342
       243 -11.2279     71.6664    169.7046   9.4080746262e+01   3.9368144637e+01 0.0005920416  0.000574247  65.19 0.0003792941    1.067    0.063
       244 -10.1943    108.6702    168.9900   9.4113324063e+01   3.9367487467e+01  0.000482851 0.0004344288 -81.75 0.0004084904    1.094    0.086
       245 -11.6143      8.8361    166.1681   9.4025577705e+01   3.9365966952e+01  0.001411203 0.0005179242 -55.46  0.001188145    2.530    0.605
       246 -10.1552    193.5909    168.2795   9.4188057747e+01   3.9366585369e+01 0.0006216267 0.0003079739  -3.11  0.001043689    2.038    0.509
       247 -10.1039     90.3252    167.0006   9.4097244692e+01   3.9366199503e+01 0.0004930821 0.0004177519 -69.84 0.0003830152    1.140    0.123
       248 -11.8269     41.0306    166.4701   9.4053892415e+01   3.9366045563e+01 0.0007332323 0.0005997199 -27.30 0.0006968991    1.196    0.164
       249 -11.0008    186.0096    165.5350   9.4181469045e+01   3.9364733034e+01 0.0006868915  0.000449413  64.53 0.0009031935    1.578    0.366
       250 -10.8328     81.7802    166.2075   9.4089751103e+01   3.9365690881e+01 0.0009285824 0.0003533859 -17.16  0.001389231    2.589    0.614
       251 -10.7909    195.7616    164.3349   9.4190083896e+01   3.9363856131e+01 0.0006758114 0.0004653361  35.84 0.0008464158    1.518    0.341
       252 -10.4153    179.1785    163.9046   9.4175507668e+01   3.9363644216e+01  0.000750996 0.0004448868  71.92  0.001386638    1.730    0.422
       253 -10.8364    104.9189    164.0609   9.4110173017e+01   3.9364108226e+01 0.0006162706 0.0005970025 -37.24 0.0004381638    1.024    0.023
       254 -11.1380    100.0491    162.0574   9.4105949624e+01   3.9362749810e+01  0.001071306 0.0004887923  54.77  0.001220049    2.319    0.569
       255  -9.9650     36.0231    165.5079   9.4049516702e+01   3.9365403182e+01 0.0004938822 0.0003439423  -3.15 0.0009849718    1.451    0.311
       256 -10.6006    203.6921    163.4495   9.4197086814e+01   3.9363204987e+01  0.001027065  0.000383844  58.18  0.001191511    2.866    0.651
       257 -11.3998    140.6086    162.3776   9.4141621675e+01   3.9362781646e+01 0.0009195602 0.0006714667  -1.74  0.001904074    1.387    0.279
       258 -10.2947    124.0044    163.4885   9.4126980842e+01   3.9363625720e+01 0.0005224094 0.0004580769 -78.04  0.000351151    1.114    0.103
       259 -10.0842     93.0059    163.2759   9.4099716366e+01   3.9363621139e+01  0.000480253  0.000438858 -17.63  0.000219691    1.091    0.083
       260 -10.8770     48.7745    161.9527   9.4060844487e+01   3.9362900768e+01 0.0006105719 0.0005046023  -2.34 0.0006084271    1.226    0.184
       261  -9.9881     25.4833    161.9874   9.4040353123e+01   3.9363020258e+01 0.0005073058 0.0003391381 -85.50 0.0003620345    1.471    0.320
       262 -10.6853      3.5160    161.6910   9.4021036785e+01   3.9362902943e+01 0.0005969753 0.0005245328  15.49 0.0006073607    1.177    0.150
       263  -9.9733    242.7124    160.9588   9.4231486845e+01   3.9361280492e+01 0.0004921899 0.0004409009 -76.86 0.0003920647    1.090    0.083
       264 -10.6861    224.0061    161.0196   9.4215028939e+01   3.9361423441e+01 0.0005149108  0.000508988  20.98 0.0003633047    1.054    0.052
       265 -10.7627    161.1072    160.9067   9.4159698879e+01   3.9361668594e+01 0.0005416666 0.0004619109  45.23 0.0004689525    1.223    0.182
       266 -10.9732     18.8034    160.7923   9.4034513596e+01   3.9362223564e+01 0.0006759256 0.0005238316 -23.04 0.0007987399    1.269    0.212
       267 -10.6632    128.7266    158.8155   9.4131275818e+01   3.9360383692e+01 0.0008365794 0.0003814148 -78.15  0.001369302    2.115    0.527
       268 -12.5223     34.4588    158.1801   9.4048366977e+01   3.9360360602e+01 0.0009406414 0.0006591443  39.17 0.0003114427    1.492    0.330
       269 -10.2143    196.5066    159.5192   9.4190881372e+01   3.9360534015e+01 0.0003496522 0.0003347315 -52.85 0.0001589327    1.001    0.001
       270 -10.3485    192.5603    159.4687   9.4187411323e+01   3.9360519506e+01 0.0003501383 0.0003313596 -54.36 0.0001388467    1.012    0.012
       271 -11.5889    107.1867    157.4050   9.4112369702e+01   3.9359511745e+01 0.0009722592  0.000552149  83.32 0.0008713498    1.769    0.435
       272 -10.5784    209.8453    157.1361   9.4202685573e+01   3.9358822486e+01 0.0007825048 0.0004439807  34.99 0.0009824726    1.848    0.459
       273 -10.8857    136.0000    151.9392   9.4137880757e+01   3.9355611128e+01 0.0007239127 0.0005191677  -5.22  0.000982145    1.405    0.288
       274 -11.1443    140.0483    156.7658   9.4141297101e+01   3.9358917560e+01 0.0007505371 0.0004987455  37.94  0.000286078    1.574    0.365
       275 -10.7935    136.6127    156.1605   9.4138292964e+01   3.9358516874e+01 0.0008063487 0.0005299443 -47.80  0.000842595    1.454    0.312
       276 -10.2822     66.4569    158.0615   9.4076519631e+01   3.9360144645e+01 0.0005450101 0.0004654391  -7.64 0.0004741162    1.179    0.152
       277 -10.0283     11.4462    157.7591   9.4028135586e+01   3.9360162823e+01 0.0004872897 0.0003077368 -67.24 0.0003313794    1.516    0.340
       278 -10.2828      1.5084    156.9628   9.4019418084e+01   3.9359652900e+01 0.0005042573 0.0003392573 -85.40 0.0004060721    1.461    0.316
       279 -10.3810    183.6742    155.4999   9.4179711711e+01   3.9357830169e+01 0.0007635239 0.0002869914 -53.14  0.001143866    2.477    0.596
       280  -9.6171    156.3257    156.3066   9.4155629849e+01   3.9358522352e+01 0.0003914354 0.0002265951 -44.44 0.0007035898    1.649    0.394
       281  -9.4944    176.3016    155.2495   9.4173233677e+01   3.9357694880e+01 0.0003649865 0.0002338688 -41.51 0.0001793571    1.497    0.332
       282 -10.6469    113.9385    154.8213   9.4118387279e+01   3.9357700421e+01 0.0005779619  0.000495106  65.06 0.0002379197    1.201    0.168
       283 -10.5659     93.0520    154.9900   9.4100008807e+01   3.9357911636e+01 0.0005454769 0.0004916952 -60.02 0.0004921777    1.064    0.060
       284 -10.9108     85.8282    154.8204   9.4093659369e+01   3.9357826958e+01 0.0006625884 0.0005363459 -64.76 0.0005298754    1.186    0.157
       285 -10.6031     82.5307    154.5056   9.4090768211e+01   3.9357624585e+01 0.0007314602 0.0005410131 -58.56  0.001524059    1.292    0.226
       286 -11.0855     18.0153    154.1159   9.4034027640e+01   3.9357626554e+01  0.000966642 0.0005561804 -11.58  0.001052617    1.734    0.423
       287 -10.9150    233.4368    152.9511   9.4223560718e+01   3.9355813031e+01 0.0008049513 0.0004286191 -27.15 0.0009609489    1.828    0.453
       288 -10.1810     44.4411    154.2661   9.4057269117e+01   3.9357622616e+01 0.0004942259 0.0003192298  74.00 0.0009437129    1.579    0.367
       289  -9.8787     37.5062    154.0184   9.4051176310e+01   3.9357480547e+01 0.0005459752 0.0002223692  59.93 0.0008105368    2.609    0.617
       290 -11.5004    249.2666    151.2295   9.4237535231e+01   3.9354540356e+01 0.0006487078  0.000564874  80.76 0.0005900043    1.159    0.137
       291 -10.8411    188.0222    150.0598   9.4183697395e+01   3.9354059494e+01 0.0005119695 0.0004981164 -43.95  0.001214469    1.019    0.019
       292 -11.0139    178.0278    149.9601   9.4174908980e+01   3.9354041485e+01 0.0005263115 0.0004995741 -48.58  0.001233953    1.012    0.012
       293 -10.7643    123.3431    150.1452   9.4126801176e+01   3.9354434749e+01 0.0005983572 0.0004909243  16.06 0.0003505924    1.260    0.206
       294 -10.7729    104.4127    149.4628   9.4110170025e+01   3.9354051874e+01 0.0006247321  0.000524043 -64.07 0.0006723062    1.145    0.127
       295 -11.4916    164.7571    147.3712   9.4163312814e+01   3.9352323908e+01  0.001181414 0.0006160602  38.61  0.002051737    2.017    0.504
       296 -10.2330     31.9262    148.0000   9.4046453859e+01   3.9353356595e+01 0.0005719813 0.0001988357  -0.66  0.000614261    2.913    0.657
       297 -10.3401    155.5306    145.9789   9.4155238737e+01   3.9351409962e+01 0.0005254609  0.000336158 -82.31 0.0003452056    1.528    0.346
       298 -10.2989    108.8733    144.8484   9.4114233361e+01   3.9350851975e+01 0.0005003542 0.0003924792  39.32 0.0004813922    1.331    0.249
       299 -11.2078     23.9813    139.2064   9.4039737866e+01   3.9347329780e+01 0.0007406241  0.000504158  -1.70   0.00147565    1.487    0.327
       300 -11.6187     23.5269    143.8852   9.4039193145e+01   3.9350555422e+01  0.001474229 0.0006916761 -27.94  0.002468019    2.069    0.517
       301 -10.2650     20.0681    140.6613   9.4036250909e+01   3.9348347958e+01 0.0007800091 0.0004348521   2.35 0.0008408584    1.824    0.452
       302 -11.1108    123.9677    143.0968   9.4127562968e+01   3.9349575152e+01 0.0005532878 0.0004900152 -79.76 0.0002987551    1.107    0.096
       303 -10.8389     85.9691    144.0883   9.4094110213e+01   3.9350431529e+01  0.001017643 0.0004421149  12.30 0.0009052947    2.372    0.578
       304 -10.8658     14.4471    143.6133   9.4031215163e+01   3.9350404227e+01 0.0006809616 0.0005758175 -55.28  0.000878686    1.132    0.117
       305 -10.2736    225.6843    143.0428   9.4217031048e+01   3.9349027303e+01 0.0004891875 0.0004292196 -75.83 0.0003804136    1.110    0.099
       306 -10.4646    100.1274    142.6363   9.4106607642e+01   3.9349367612e+01  0.000534825 0.0002945095 -20.10 0.0009501682    1.788    0.441
       307 -12.0396     62.8145    140.8414   9.4073843319e+01   3.9348295163e+01 0.0006523681 0.0005951254 -41.82 0.0002796215    1.057    0.054
       308 -11.1523    132.2027    140.3933   9.4134887466e+01   3.9347673511e+01 0.0007649852  0.000588638  85.30  0.001621188    1.299    0.230
       309 -11.9973     53.2401    143.9098   9.4065327756e+01   3.9350450046e+01  0.001281189 0.0005607445  30.07  0.001282611    2.402    0.584
       310 -10.1098    162.8283    140.5002   9.4161820907e+01   3.9347598973e+01 0.0005045051 0.0003439841  -3.10 0.0006128418    1.482    0.325
       311 -11.1851     41.6694    138.9252   9.4055304009e+01   3.9347063875e+01 0.0005785737 0.0004540313  37.80 0.0005449813    1.331    0.248
       312 -11.4270     35.8852    138.3338   9.4050234789e+01   3.9346680211e+01  0.000763034 0.0005755333 -33.56 0.0008116264    1.285    0.222
       313  -9.6373     96.6644    138.6662   9.4103682192e+01   3.9346647725e+01 0.0004028624 0.0002206829 -45.22 0.0007052127    1.739    0.425
       314 -10.5716    180.7784    137.0027   9.4177712499e+01   3.9345099186e+01 0.0006080639 0.0005095752  -1.70 0.0006035711    1.211    0.174
       315  -9.5303     82.6625    137.2788   9.4091409360e+01   3.9345754137e+01 0.0003727173 0.0002414475  42.56 0.0002455555    1.616    0.381
       316 -10.7912     36.2326    147.3938   9.4050260545e+01   3.9352921288e+01 0.0007673662 0.0004865455 -49.39  0.001483057    1.504    0.335
       317 -10.3601    121.8756    134.6531   9.4125977343e+01   3.9343766841e+01 0.0006043543 0.0004400451 -70.10 0.0005943993    1.323    0.244
       318 -10.2292     77.1603    134.8784   9.4086643271e+01   3.9344124360e+01 0.0005449835  0.000454637  45.92 0.0005655337    1.250    0.200
       319 -11.3186     22.1035    130.7227   9.4038349261e+01   3.9341491881e+01 0.0009018444 0.0004889717  68.39 0.0005216039    1.907    0.476
       320 -10.2517    195.9005    133.9131   9.4191103688e+01   3.9342892977e+01 0.0005606812  0.000425586 -49.32 0.0005569996    1.261    0.207
       321 -11.7837    143.8548    132.9459   9.4145359110e+01   3.9342486228e+01 0.0006204171 0.0005785932  19.84  0.001445247    1.114    0.102
       322 -10.5370     41.5294    132.3577   9.4055383406e+01   3.9342539235e+01  0.001020678 0.0003506325 -69.63  0.001469327    2.721    0.633
       323 -10.8198      8.8271    133.1919   9.4026596167e+01   3.9343245926e+01 0.0006723485 0.0006081267  -7.73  0.001445768    1.116    0.104
       324 -10.5463    161.8440    132.9476   9.4161180210e+01   3.9342399632e+01 0.0006104749 0.0004679154  84.20 0.0006398562    1.307    0.235
       325 -10.8185     47.8536    130.6147   9.4060999072e+01   3.9341311971e+01 0.0009410246 0.0003700207  66.27  0.001398114    2.687    0.628
       326  -9.8639     16.3121    132.0122   9.4033215813e+01   3.9342403513e+01 0.0004782729 0.0004339966 -66.99 0.0004084604    1.064    0.060
       327  -9.9881    102.3040    131.2993   9.4108865723e+01   3.9341546154e+01 0.0003825645 0.0002301291 -45.13  0.000233678    1.588    0.370
       328 -10.9445     76.4880    130.1385   9.4086196733e+01   3.9340861345e+01 0.0008658101 0.0005214718 -46.47 0.0008858066    1.584    0.369
       329 -10.0209    199.7384    130.5883   9.4194576967e+01   3.9340582137e+01 0.0004514941 0.0003284462  15.56 0.0003787807    1.420    0.296
       330 -10.3834    147.3240    129.9279   9.4148500469e+01   3.9340389893e+01 0.0005765259  0.000459302  12.32 0.0005826029    1.293    0.227
       331 -12.0709    122.5144    128.8474   9.4126714109e+01   3.9339763501e+01 0.0006745805 0.0006250847 -73.28 0.0002539711    1.053    0.050
       332 -10.7219    120.6052    123.1034   9.4125208217e+01   3.9335814567e+01 0.0007051102 0.0003278437  81.82  0.001147877    2.176    0.540
       333  -9.7894     86.9523    129.9940   9.4095404107e+01   3.9340715679e+01 0.0005995159 0.0003680825  44.14  0.001120307    1.707    0.414
       334 -11.6760     62.5577    128.9165   9.4073982943e+01   3.9340079609e+01  0.001018867 0.0005864685  42.53  0.001859415    1.824    0.452
       335 -10.7501     35.1878    128.5782   9.4049922785e+01   3.9339961227e+01 0.0007282851 0.0003195348 -46.87  0.001173279    2.150    0.535
       336  -9.5678     51.3150    128.3112   9.4064114074e+01   3.9339710245e+01 0.0003896845 0.0002274112 -45.15  0.000703191    1.635    0.389
       337 -13.0736    206.5134    124.8327   9.4200704513e+01   3.9336580906e+01 0.0008321586 0.0007530461 -70.28 0.0005503329    1.071    0.066
       338  -9.9039     54.9797    124.7314   9.4067446938e+01   3.9337228240e+01 0.0004721818 0.0004477772 -24.87 0.0004361704    1.048    0.046
       339 -10.9159     19.9715    124.8855   9.4036655242e+01   3.9337478519e+01 0.0006068581 0.0004922781 -87.91 0.0004954733    1.220    0.180
       340 -10.6546    127.6779    123.9177   9.4131403396e+01   3.9336342461e+01 0.0005069402 0.0004354788 -86.10 0.0005992419    1.150    0.131
       341 -11.4522     68.7578    122.0718   9.4079645062e+01   3.9335336744e+01  0.001036818 0.0005675499 -75.10  0.001866146    1.760    0.432
       342  -9.7141     90.5422    123.5459   9.4098757318e+01   3.9336256731e+01 0.0003535096 0.0003284009 -49.41 0.0001197194    1.032    0.031
       343 -11.0301     31.6624    119.5080   9.4047102771e+01   3.9333726072e+01 0.0008867217 0.0004092715  89.16 0.0007819051    2.154    0.536
       344 -11.2576     27.7539    117.3874   9.4043731293e+01   3.9332280796e+01  0.001286958 0.0004017827 -19.08  0.001755391    3.132    0.681
       345 -12.4991     15.5519    121.2298   9.4032882115e+01   3.9334977270e+01  0.002531165 0.0005992606 -33.41  0.001275928    3.906    0.744
       346 -11.6035     14.6237    115.8661   9.4032232390e+01   3.9331285229e+01 0.0007323546 0.0006749942  32.24 0.0003178306    1.132    0.116
       347 -10.3177    138.9017    121.4784   9.4141346831e+01   3.9334608332e+01   0.00051119 0.0004632898 -70.07 0.0005028223    1.069    0.064
       348 -11.1701    173.4432    120.5869   9.4171748409e+01   3.9333824759e+01 0.0007428002  0.000372052  51.74  0.001220483    2.104    0.525
       349 -11.5009     83.9808    120.1717   9.4093089913e+01   3.9333960936e+01 0.0008519503 0.0006650315  49.64  0.000893056    1.335    0.251
       350 -11.4458     64.6722    111.1559   9.4076386493e+01   3.9327832986e+01  0.001586005 0.0003972598 -49.68  0.002000296    3.571    0.720
       351 -11.4403     58.4655    120.4787   9.4070642921e+01   3.9334283197e+01  0.001168575 0.0003316451 -84.69   0.00151214    3.422    0.708
       352  -9.6726     45.4911    120.5065   9.4059232600e+01   3.9334357000e+01 0.0003592071 0.0003250876 -48.34 -0.0002262262    1.060    0.056
       353 -10.1812    106.2118    119.3336   9.4112664704e+01   3.9333283498e+01 0.0007471917 0.0003467983 -29.87  0.001233569    2.083    0.520
       354 -10.7609     92.7202    118.5082   9.4100825713e+01   3.9332775840e+01 0.0006890962 0.0005408953  66.70 0.0008052848    1.309    0.236
       355 -10.8371      3.6382    118.2315   9.4022498702e+01   3.9332958257e+01 0.0008781666 0.0004989441  26.05  0.001593123    1.834    0.455
       356 -11.2799     53.2674    117.8562   9.4066152352e+01   3.9332498305e+01  0.001084961 0.0002929297 -16.40  0.001371685    3.628    0.724
       357 -10.2271    156.1130    115.9260   9.4156647785e+01   3.9330699072e+01 0.0005212094 0.0004442989  44.28 0.0003148033    1.224    0.183
       358 -10.2492    112.4278    115.5868   9.4118244097e+01   3.9330673196e+01 0.0005194464 0.0003187346  12.85  3.48317e-05    1.678    0.404
       359 -10.5139     88.1390    113.5685   9.4096947437e+01   3.9329392670e+01  0.001302914 0.0005041548 -77.29  0.001981317    2.474    0.596
       360  -9.7186    210.9816    115.0593   9.4204920819e+01   3.9329822936e+01 0.0004231374 0.0003891072 -75.93 0.0009690166    1.063    0.060
       361 -10.4316    126.0335    114.2965   9.4130246830e+01   3.9329720784e+01 0.0004815726 0.0004379137  -0.30 0.0001564767    1.121    0.108
       362 -11.3371     33.9129    112.9277   9.4049285029e+01   3.9329182923e+01 0.0007847412 0.0005458608 -71.54  0.001148759    1.385    0.278
       363 -10.8369     48.8268    111.9703   9.4062428508e+01   3.9328461407e+01 0.0005666438 0.0004998813  -3.63 0.0004057694    1.149    0.130
       364 -12.1223     21.2732    110.8857   9.4038233980e+01   3.9327827149e+01  0.001145854 0.0007725664 -51.88  0.001250931    1.415    0.293
       365 -10.8345     72.0171    111.0258   9.4082848800e+01   3.9327711586e+01 0.0005089096 0.0004964079 -59.51 0.0003213368    1.019    0.019
       366  -9.5891    181.7394    110.3517   9.4179346875e+01   3.9326730247e+01 0.0003713082 0.0002406304  52.28  0.000362454    1.611    0.379
       367 -10.3749    231.8510    109.2017   9.4223442423e+01   3.9325675304e+01  0.000518374 0.0004620216  53.58 0.0004239746    1.165    0.142
       368  -9.9003    129.2571    109.3677   9.4133229562e+01   3.9326309421e+01  0.000465638 0.0003185606  15.91 0.0002683997    1.510    0.338
       369 -10.7161     84.7649    109.0708   9.4094117431e+01   3.9326308592e+01 0.0006692192 0.0004313144  29.98 0.0007826014    1.619    0.382
       370 -11.9346    151.8846    105.8492   9.4153230488e+01   3.9323776371e+01 0.0007722044 0.0006184778  58.94 0.0005122679    1.293    0.226
       371 -11.1500     27.1337    107.8132   9.4043482184e+01   3.9325686514e+01  0.000506966 0.0004647799  49.54 0.0002761972    1.136    0.119
       372 -10.1060    210.2251    107.0030   9.4204492077e+01   3.9324275588e+01 0.0004648997 0.0004352149 -76.44 0.0002212186    1.049    0.047
       373 -10.5953     73.2341    107.4073   9.4084029448e+01   3.9325213056e+01 0.0005079695 0.0003158621  17.64  0.000953397    1.664    0.399
       374 -10.6960     92.0364    105.9525   9.4100605857e+01   3.9324127560e+01 0.0005985661 0.0003606628  47.35 0.0005600752    1.739    0.425
       375 -11.3025     50.4049    105.7158   9.4064008409e+01   3.9324145259e+01 0.0007210731 0.0004241859 -29.91  0.001129711    1.651    0.394
       376 -12.0282     46.7492    101.0849   9.4060936679e+01   3.9320969802e+01  0.001246722 0.0007612091  54.83  0.002348999    1.711    0.415
       377 -11.3085     47.6839     96.8362   9.4061889139e+01   3.9318038421e+01 0.0007261523 0.0006026413 -83.38 0.0008672674    1.184    0.156
       378 -11.5727    166.5000    102.7747   9.4166172489e+01   3.9321585828e+01  0.001055384 0.0005548625 -44.96  0.001405908    1.810    0.448
       379  -9.9744    161.3014    104.6767   9.4161545135e+01   3.9322922216e+01 0.0005884883 0.0003308958   7.59 0.0002128379    1.821    0.451
       380 -10.3552    138.3024    104.2966   9.4141334938e+01   3.9322772176e+01 0.0005206354 0.0004280354 -89.80 0.0002850645    1.207    0.172
       381 -10.9570    135.8475    101.1823   9.4139269891e+01   3.9320637958e+01 0.0006553541 0.0006278356 -55.20 0.0006350553    1.003    0.003
       382 -10.3176     82.3879    103.8306   9.4092186993e+01   3.9322708393e+01 0.0005826254 0.0004629286  17.98 0.0006165181    1.303    0.232
       383 -12.4229    233.9967    102.3140   9.4225529878e+01   3.9320917582e+01 0.0006912594 0.0006419223 -26.43  0.000393306    1.062    0.058
       384 -10.0568    116.2220    102.9493   9.4121961714e+01   3.9321947894e+01 0.0004834648 0.0004362637 -77.55 0.0003733136    1.084    0.078
       385 -11.4223     76.3668    101.7964   9.4086955122e+01   3.9321333296e+01 0.0008693024 0.0005734239 -36.93  0.001519655    1.462    0.316
       386  -9.8147    101.3922    102.4915   9.4108936821e+01   3.9321700542e+01 0.0003470709  0.000329545 -67.09 6.812292e-05    1.024    0.024
       387 -10.3216      2.3956    101.9170   9.4021914324e+01   3.9321722113e+01 0.0006252272 0.0004631252  16.65  0.001019667    1.395    0.283
       388 -10.4425    121.9633    101.2028   9.4127062215e+01   3.9320717701e+01 0.0005817516 0.0003322383 -57.63  0.001060074    1.664    0.399
       389  -9.9101    110.0237    101.0311   9.4116569944e+01   3.9320654828e+01 0.0004185693 0.0003940832 -66.60 0.0009700067    1.029    0.029
       390 -11.5117     25.3150    100.3725   9.4042113419e+01   3.9320567092e+01 0.0006715095 0.0005879696 -45.64 0.0003247073    1.097    0.088
       391  -9.4400    213.7455    100.3433   9.4207782698e+01   3.9319668064e+01 0.0003670706  0.000241917  52.68 0.0002552017    1.583    0.368
       392  -9.9943    177.7114    100.0114   9.4176111580e+01   3.9319625583e+01 0.0004761753 0.0004425272 -79.93 0.0003583276    1.061    0.057
       393 -12.6818    148.5662     96.7323   9.4150585299e+01   3.9317510521e+01 0.0007700407 0.0006110377  87.83 0.0004855569    1.255    0.203
       394 -11.6727     85.7151     98.9374   9.4095261363e+01   3.9319322067e+01  0.001231392 0.0005326959 -62.38    0.0017077    2.174    0.540
       395 -11.4510     32.9885     97.5265   9.4048947880e+01   3.9318574916e+01  0.001678247 0.0005048576 -83.50  0.002248439    3.217    0.689
       396 -10.6801    106.1516     98.4402   9.4113244004e+01   3.9318887394e+01  0.000582893 0.0004545061  55.85 0.0006000865    1.331    0.249
       397 -11.6225     55.2326     97.2261   9.4068513776e+01   3.9318275267e+01 0.0008003876  0.000498421  59.73 0.0002577374    1.670    0.401
       398 -10.5389     16.1559     98.8175   9.4034108899e+01   3.9319532388e+01 0.0005131989 0.0004605811  53.10 0.0004402577    1.158    0.136
       399 -10.8355      9.1898     98.7238   9.4027987202e+01   3.9319495362e+01 0.0007167094 0.0005625866  88.94  0.001533443    1.266    0.210
       400 -10.5184      5.4089     95.8959   9.4024751043e+01   3.9317561733e+01 0.0008887862 0.0002431873 -73.40  0.001142722    3.383    0.704
       401  -9.8777    173.0495     96.4998   9.4172117047e+01   3.9317229382e+01 0.0005130763 0.0003436798  -3.76 0.0004005735    1.507    0.336
       402 -10.0499    118.6102     96.2324   9.4124263922e+01   3.9317308582e+01 0.0005124456 0.0003054277 -70.69 0.0009477844    1.610    0.379
       403 -10.9317     59.7612     94.9025   9.4072566450e+01   3.9316654987e+01 0.0009207912 0.0003341922  38.66  0.001260307    2.948    0.661
       404  -9.7982     91.2796     93.9733   9.4100304410e+01   3.9315876830e+01 0.0004832421 0.0004316477 -78.83 0.0003884179    1.096    0.088
       405 -10.3688    106.9062     92.8486   9.4114076547e+01   3.9315031088e+01 0.0005858988 0.0004201084 -45.63 0.0008328562    1.336    0.251
       406 -11.1367    135.7622     92.0387   9.4139469155e+01   3.9314337992e+01 0.0006133365 0.0004918067 -20.82 0.0003373662    1.230    0.187
       407 -11.2898     25.5266     91.9734   9.4042559350e+01   3.9314779062e+01 0.0005607558 0.0004574163  -3.08 0.0007655846    1.241    0.194
       408 -10.5714    114.2521     90.9838   9.4120590824e+01   3.9313712274e+01 0.0005032188 0.0004558902 -81.11 0.0004531898    1.086    0.079
       409 -11.7281     18.8610     89.3905   9.4036779458e+01   3.9313026197e+01 0.0008134932 0.0004784455 -70.49            0    1.631    0.387
       410  -9.9112     39.9965     90.0562   9.4055339495e+01   3.9313398857e+01 0.0004322107 0.0003872883 -78.41 0.0004828492    1.093    0.085
       411  -9.9889    221.7552     88.9920   9.4215156725e+01   3.9311803739e+01 0.0004711472 0.0004371228 -73.43 0.0002411165    1.052    0.049
       412 -11.4999     88.8484     87.4897   9.4098364055e+01   3.9311420288e+01  0.001008869 0.0007218489 -64.11  0.001449913    1.339    0.253
       413 -11.2591     85.4472     82.6763   9.4095520547e+01   3.9308118837e+01 0.0007684075  0.000555773  26.15 0.0007222861    1.439    0.305
       414 -10.5996     77.7370     87.9869   9.4088581000e+01   3.9311812057e+01 0.0006936943 0.0004707851 -79.82 0.0003303809    1.436    0.303
       415 -10.6289     80.8359     84.8269   9.4091401508e+01   3.9309621038e+01 0.0006914778 0.0004710062 -38.27 0.0002396008    1.414    0.293
       416 -11.2484     63.9949     87.5883   9.4076512513e+01   3.9311597086e+01  0.001088646 0.0006217372  32.59  0.001638304    1.833    0.454
       417 -10.4849      6.1627     89.3458   9.4025617608e+01   3.9313045713e+01 0.0007543215  0.000423071   7.86 0.0008218403    1.825    0.452
       418 -10.2629    180.7347     86.9221   9.4179157180e+01   3.9310591044e+01 0.0004840354 0.0004423272  76.51 0.0004137841    1.113    0.102
       419 -11.8169    128.5426     86.3067   9.4133294474e+01   3.9310422693e+01  0.001170432 0.0005338217  12.17  0.001909541    2.259    0.557
       420 -12.2218    119.0715     83.4115   9.4125055887e+01   3.9308472287e+01  0.001593157 0.0005882046  64.35  0.002300322    2.885    0.653
       421 -10.7381    103.8359     85.1317   9.4111610844e+01   3.9309727876e+01  0.001024293 0.0004202836 -26.99  0.001599391    2.361    0.576
       422 -10.2867     10.6318     85.9253   9.4029652718e+01   3.9310671309e+01 0.0006591993  0.000453558 -20.19  0.001320187    1.433    0.302
       423 -11.3273    151.6237     85.1633   9.4153618696e+01   3.9309523972e+01 0.0005137646 0.0004511068 -73.13 0.0006317256    1.105    0.095
       424  -9.3090      3.3178     84.6698   9.4023262176e+01   3.9309834992e+01 0.0003830699 0.0002380659  46.91 0.0007047143    1.685    0.407
       425 -12.0247    131.5670     81.4724   9.4136098286e+01   3.9307077358e+01  0.001328106 0.0005871514  43.74  0.001754697    2.400    0.583
       426 -10.9363     53.4076     82.8245   9.4067351509e+01   3.9308359862e+01 0.0005675851 0.0004728295  21.83 0.0006148153    1.246    0.198
       427 -11.6104     45.1093     81.1449   9.4060108531e+01   3.9307237504e+01 0.0008767569 0.0005378884  22.69            0    1.693    0.409
       428 -10.3939     19.9284     82.8338   9.4037921072e+01   3.9308504242e+01 0.0005927524 0.0004373031 -47.34  0.001228426    1.298    0.229
       429  -9.7774    199.0052     81.9912   9.4195363538e+01   3.9307099580e+01 0.0004110225 0.0003917089 -60.54 0.0009578261    1.012    0.012
       430 -11.0291    148.3328     80.8773   9.4150853872e+01   3.9306586741e+01  0.001025665 0.0003977349 -81.90 0.0008650263    2.499    0.600
       431 -10.5556     71.4817     82.5069   9.4083249320e+01   3.9308063457e+01 0.0003499416 0.0003344652 -53.30 -2.238618e-05    1.002    0.002
       432 -10.1482     13.1657     82.1459   9.4031997594e+01   3.9308057195e+01 0.0005213632 0.0004421734 -46.01 0.0004544212    1.131    0.116
       433  -9.4444    162.6605     81.2999   9.4163435740e+01   3.9306807602e+01 0.0003800805 0.0002390283  44.04  0.000703566    1.666    0.400
       434 -10.9315     28.1214     85.6368   9.4045036498e+01   3.9310402488e+01   0.00107294 0.0006150652  -0.93  0.001969231    1.767    0.434
       435 -10.6581     93.9895     80.5512   9.4103094181e+01   3.9306616343e+01 0.0007553262 0.0004976148 -81.54  0.001482169    1.482    0.325
       436 -10.2836    154.2534     78.9904   9.4156114543e+01   3.9305257674e+01 0.0004555013 0.0002955986 -86.93 0.0004283994    1.519    0.342
       437 -11.3590     86.2889     78.0069   9.4096402463e+01   3.9304897650e+01 0.0006033203 0.0005058557   0.43 0.0002551868    1.213    0.176
       438 -10.6665      3.5969     77.7904   9.4023721722e+01   3.9305093855e+01 0.0006733816 0.0005340701  60.56 0.0006927751    1.304    0.233
       439 -11.5750      1.5689     73.7178   9.4022065893e+01   3.9302295687e+01 0.0009220975 0.0005036897 -78.66 0.0009646011    1.774    0.436
       440 -12.1207     58.3232     74.2742   9.4071934654e+01   3.9302447590e+01  0.001066259 0.0006473347  18.04 0.0004551124    1.705    0.413
       441 -10.8964     51.6879     75.5304   9.4066063763e+01   3.9303341299e+01  0.001295606 0.0005278698  20.72  0.001991932    2.557    0.609
       442 -10.6035    115.3603     73.4630   9.4122093580e+01   3.9301634576e+01  0.001006619 0.0003195655 -37.82  0.001395094    2.952    0.661
       443  -9.7955     68.9868     73.9656   9.4081317228e+01   3.9302189125e+01 0.0005530668 0.0003730257  47.33  0.000484787    1.550    0.355
       444 -10.2223     29.2736     74.0687   9.4046406906e+01   3.9302427155e+01  0.000492801 0.0004355122 -88.45 0.0008041246    1.124    0.110
       445 -10.2103     37.0686     72.5003   9.4053306936e+01   3.9301314519e+01 0.0009034562 0.0003441017  -1.30  0.001291414    2.656    0.624
       446 -10.4033     35.6323     69.7084   9.4052130642e+01   3.9299396740e+01 0.0009182297 0.0002985429 -79.23  0.001273893    2.938    0.660
       447  -9.9728     18.9512     72.4973   9.4037382428e+01   3.9301386131e+01  0.000554789 0.0003434531  -3.65  0.001045609    1.630    0.387
       448 -11.1969    105.8489     70.8784   9.4113811458e+01   3.9299897555e+01 0.0005790558 0.0004393815 -46.21  0.001135467    1.263    0.208
       449 -10.2441    205.0312     69.5118   9.4201027277e+01   3.9298469054e+01 0.0005096724 0.0004539612 -78.32 3.693266e-05    1.098    0.090
       450 -10.0774     53.3209     69.1107   9.4067696225e+01   3.9298911072e+01 0.0007552163 0.0004007468 -75.54 0.0009389528    1.815    0.449
       451 -11.5376     88.4085     69.0240   9.4098538589e+01   3.9298698720e+01  0.001182274 0.0004328072 -27.96  0.001714944    2.632    0.620
       452 -11.0094    131.0276     68.1600   9.4136023812e+01   3.9297907042e+01  0.001105732 0.0005061029   4.81  0.001383554    2.229    0.551
       453 -10.8182    126.9900     66.0447   9.4132538708e+01   3.9296468586e+01 0.0005938279 0.0003551011 -46.07 0.0004934136    1.596    0.373
       454 -10.9166     74.2327     66.1169   9.4086167679e+01   3.9296758256e+01 0.0006008448 0.0004892885  12.86 0.0001984143    1.266    0.210
       455  -9.8253     26.5188     67.5359   9.4044187520e+01   3.9297937109e+01 0.0005351725 0.0003037263 -69.30 0.0007719762    1.686    0.407
       456 -11.0439     27.7562     64.1974   9.4045378277e+01   3.9295631764e+01 0.0009389188 0.0004367867  30.55  0.001425071    2.257    0.557
       457 -10.2085    102.2874     63.9648   9.4110890420e+01   3.9295150072e+01  0.000507698   0.00043442 -79.17 0.0004808841    1.143    0.125
       458  -9.5692    131.5707     63.4948   9.4136641179e+01   3.9294689881e+01 0.0003504467 0.0003307769 -56.35 1.944706e-05    1.016    0.015
       459 -11.1535     78.9747     66.9793   9.4090309226e+01   3.9297331640e+01 0.0008209908 0.0005287977   5.09  0.001591764    1.585    0.369
       460 -10.3716     15.5485     65.0013   9.4034624053e+01   3.9296234803e+01  0.000683965 0.0004238264 -28.06 0.0007546048    1.572    0.364
       461 -10.9314     78.0388     60.9343   9.4089670851e+01   3.9293170596e+01 0.0008088673 0.0004706302 -70.84 0.0007697164    1.649    0.393
       462 -10.6177     69.6349     61.5584   9.4082265912e+01   3.9293637343e+01 0.0009271819 0.0004135882 -32.64 0.0009598209    2.156    0.536
       463 -12.0144     10.2272     50.2115   9.4030406525e+01   3.9286065484e+01  0.001330838  0.000683734  35.78  0.002162833    2.045    0.511
       464 -11.3019      3.8693     53.4180   9.4024719553e+01   3.9288299854e+01  0.001186036 0.0006012399 -56.99  0.001908246    1.865    0.464
       465 -10.5366      1.3874     61.7855   9.4022277917e+01   3.9294074880e+01 0.0006454694 0.0003292287 -76.95  0.001101281    1.891    0.471
       466 -11.6440      5.6823     60.2695   9.4026099775e+01   3.9293013546e+01 0.0009749809 0.0008494154  77.84  0.000781662    1.163    0.140
       467  -9.8521     39.4398     61.4954   9.4055730210e+01   3.9293722064e+01 0.0003519725 0.0003301708 -53.80 2.475523e-05    1.021    0.021
       468 -10.6562     15.7938     60.1969   9.4034988653e+01   3.9292923526e+01  0.001029623 0.0004990199  62.91  0.001714764    2.161    0.537
       469 -11.6705     19.9847     57.3476   9.4038760155e+01   3.9290943493e+01 0.0007505458 0.0006038691  24.03 0.0004536394    1.292    0.226
       470 -11.0525     24.7907     56.5696   9.4043007883e+01   3.9290388070e+01 0.0007364543 0.0005624896  26.18 0.0009450352    1.362    0.266
       471 -10.7701     27.8525     54.2089   9.4045771684e+01   3.9288749114e+01 0.0007718491 0.0006918699  15.49  0.001602958    1.154    0.133
       472  -9.4465    133.6607     59.2738   9.4138604680e+01   3.9291771513e+01 0.0003715971    0.0002416  42.03 0.0003090179    1.610    0.379
       473 -11.9659     42.8932     53.7883   9.4059002552e+01   3.9288397303e+01  0.002212097 0.0006695701  55.22  0.002855614    3.643    0.726
       474 -11.4193    106.7874     57.2548   9.4115048220e+01   3.9290506031e+01 0.0008171754 0.0006233917  10.92  0.001220334    1.348    0.258
       475 -11.0108     53.9873     57.9960   9.4068622951e+01   3.9291249922e+01 0.0007342208 0.0004876207  47.07 0.0004518241    1.575    0.365
       476 -11.4054     54.6376     53.5093   9.4069332116e+01   3.9288155701e+01 0.0009891115  0.000584246 -14.42  0.001845184    1.682    0.406
       477 -10.8869     37.9193     57.4128   9.4054519752e+01   3.9290915324e+01 0.0008050552 0.0004892546  25.59  0.001067783    1.713    0.416
       478 -11.1461     94.3356     54.5196   9.4104188150e+01   3.9288678053e+01  0.001072465 0.0006526544   1.25   0.00202793    1.669    0.401
       479 -11.3824     75.5680     53.2579   9.4087733418e+01   3.9287892103e+01  0.001087612 0.0005615591  31.32  0.001097975    2.030    0.507
       480 -11.3311     60.5362     52.1194   9.4074558354e+01   3.9287172803e+01 0.0006244819 0.0005578764   4.86 0.0003263749    1.147    0.128
       481  -9.7845    132.2120     51.1285   9.4137575834e+01   3.9286165877e+01 0.0004766645 0.0003871842  45.43 0.0004541975    1.284    0.221
       482 -10.1105     33.0842     51.4811   9.4050453538e+01   3.9286848181e+01 0.0005182465 0.0003441879   0.63 0.0006547595    1.529    0.346
       483  -9.5580     63.6675     55.2716   9.4077213666e+01   3.9289331339e+01 0.0003689819 0.0002425908  42.15 0.0001284705    1.592    0.372
       484 -11.9416     16.2086     47.7242   9.4035739946e+01   3.9284327927e+01  0.001036588 0.0006741579 -35.10  0.002034894    1.485    0.327
       485 -10.3607    176.5911     48.0529   9.4176666066e+01   3.9283828904e+01  0.001030148  0.000114341 -71.15 0.0009313038    6.737    0.852
       486  -9.8820    100.7478     48.9859   9.4109990680e+01   3.9284836073e+01 0.0004549118 0.0002946761 -85.57 0.0004145108    1.518    0.341
       487 -10.4216    196.0077     48.0347   9.4193728746e+01   3.9283717024e+01 0.0005136005 0.0004908214 -62.83 0.0003503904    1.015    0.015
       488 -12.5752     61.7529     44.8340   9.4075850615e+01   3.9282147787e+01  0.001118282 0.0006783833 -61.30 0.0002746172    1.570    0.363
       489  -9.6268    122.4946     46.4147   9.4129178227e+01   3.9282963822e+01  0.000348556 0.0003310286 -43.65 0.0001364132    1.018    0.018
       490 -11.6169     34.8535     44.9050   9.4052211156e+01   3.9282309844e+01 0.0008087349 0.0005357924  36.20 0.0004221434    1.578    0.366
       491 -11.0128     37.2930     40.3833   9.4054494135e+01   3.9279184228e+01  0.000748734 0.0005891902 -34.40  0.000719406    1.231    0.188
       492 -10.2568      3.4609     45.7398   9.4024599555e+01   3.9283011051e+01 0.0006382915  0.000349745 -33.80 0.0007898784    1.761    0.432
       493 -11.4828     26.1136     44.0906   9.4044556319e+01   3.9281784419e+01 0.0005697034 0.0005320538   8.48 0.0003579187    1.103    0.094
       494 -10.3959    139.9570     44.3146   9.4144585903e+01   3.9281433718e+01 0.0006188437 0.0001528425  27.75 0.0007044091    4.385    0.772
       495  -9.7992     80.4382     44.0030   9.4092295159e+01   3.9281493732e+01 0.0005306999 0.0003364662 -85.31 0.0006142983    1.550    0.355
       496 -10.3213    164.5171     43.0055   9.4166206050e+01   3.9280411524e+01  0.000558196 0.0004663566  -8.98 0.0005901362    1.202    0.168
       497  -9.6272    102.9716     43.7580   9.4112103063e+01   3.9281223684e+01  0.000459614 0.0002943764  -3.50  0.000874794    1.576    0.366
       498  -9.8425     87.1578     43.4207   9.4098217463e+01   3.9281062673e+01 0.0004878132 0.0003143268  20.19 0.0006264415    1.609    0.378
       499 -12.5981      9.9309     39.3811   9.4030482398e+01   3.9278604349e+01  0.001026868 0.0007181038  31.40 0.0008872829    1.492    0.330
       500 -10.8650    175.6187     39.3882   9.4176068211e+01   3.9277863393e+01 0.0006588392  0.000544586  44.19  0.001052786    1.262    0.208
       501 -11.1451     23.1863     38.3624   9.4042161255e+01   3.9277849441e+01 0.0009704449 0.0005790531  22.55  0.001808963    1.741    0.426
       502 -11.5996      3.8360     35.0515   9.4025261576e+01   3.9275645182e+01  0.001307131 0.0006608886 -64.93  0.001053434    1.877    0.467
       503  -9.5851    103.3288     38.3030   9.4112581915e+01   3.9277463308e+01 0.0003911649 0.0002266569 -44.09 0.0004580507    1.648    0.393
       504 -10.9961    129.5361     36.6553   9.4135658795e+01   3.9276205903e+01 0.0005909687 0.0005657459 -87.70   0.00017627    1.050    0.048
       505 -10.2586     41.4129     36.7471   9.4058226129e+01   3.9276661695e+01 0.0005864542 0.0003463172  51.08  0.001072136    1.774    0.436
       506  -9.9269     31.5250     37.6063   9.4049511551e+01   3.9277294539e+01 0.0003451212 0.0003306644  39.37 0.0001369615    1.089    0.082
       507  -9.9254    107.4841     35.4871   9.4116318044e+01   3.9275503998e+01 0.0003508088 0.0003335662 -52.16 0.0002752853    1.008    0.008
       508 -10.9039    106.5046     31.9735   9.4115563576e+01   3.9273087487e+01 0.0005988529 0.0005102376  79.64 0.0004174904    1.185    0.156
       509 -11.2863     60.6840     34.3453   9.4075232387e+01   3.9274925306e+01 0.0007675172 0.0005879209  82.34 0.0005593304    1.312    0.238
       510 -10.7018     55.9285     34.3695   9.4071053282e+01   3.9274962299e+01 0.0006650025 0.0004855703 -72.39 0.0006396997    1.322    0.244
       511 -11.1017     75.9920     27.2200   9.4088899682e+01   3.9269949299e+01 0.0008006138 0.0005010077 -86.79 0.0008664645    1.574    0.365
       512 -11.5307     77.6814     33.4388   9.4090194539e+01   3.9274226790e+01  0.001003172 0.0005612564  35.44   0.00180539    1.874    0.466
       513 -11.1990    142.7585     31.3823   9.4147434325e+01   3.9272509243e+01 0.0008864442 0.0004104727 -65.52  0.001068091    2.044    0.511
       514 -10.4269    135.0097     32.9174   9.4140580188e+01   3.9273604284e+01 0.0004990819 0.0004962226  37.07 0.0003131624    1.050    0.047
       515 -10.3213    117.6824     33.0507   9.4125352121e+01   3.9273778009e+01 0.0004819638 0.0004376141 -75.21 0.0003709926    1.074    0.069
       516  -9.7990    102.6710     32.2949   9.4112185614e+01   3.9273326530e+01 0.0003755196 0.0002410475  44.21 0.0007024095    1.631    0.387
       517 -10.0027    223.0058     31.3087   9.4217941492e+01   3.9272049426e+01 0.0004755306 0.0004457617 -20.71 0.0003730899    1.063    0.059
       518  -9.9978    182.7979     31.4176   9.4182611836e+01   3.9272334730e+01 0.0004764991 0.0003118135 -22.22 0.0004163004    1.502    0.334
       519  -9.9392    171.7781     30.3915   9.4172960283e+01   3.9271683487e+01 0.0005009305 0.0003056006 -20.92 0.0008020934    1.613    0.380
       520 -11.0651     37.8206     26.7746   9.4055376916e+01   3.9269805287e+01  0.000753611 0.0003624027  35.73 0.0008735114    2.189    0.543
       521 -11.1396     32.3647     28.1045   9.4050542535e+01   3.9270744112e+01  0.001176007 0.0004490863  65.29  0.001724715    2.779    0.640
       522  -9.6804     24.2524     30.6511   9.4043336433e+01   3.9272531868e+01  0.000488016 0.0003013849 -20.03 0.0002897658    1.596    0.373
       523 -10.6267     70.4818     28.7035   9.4084013274e+01   3.9270995597e+01 0.0006265698 0.0005427624 -33.85 0.0006149725    1.121    0.108
       524 -10.3930    248.8190     27.8406   9.4240721264e+01   3.9269518964e+01 0.0004941611 0.0003926276  54.98 0.0004573856    1.307    0.235
       525 -11.4701    187.2778     27.1770   9.4186673054e+01   3.9269389807e+01 0.0006166869  0.000586503  -5.31 0.0004461211    1.072    0.067
       526 -10.0771     92.4350     33.5320   9.4103154551e+01   3.9274225386e+01 0.0003463963 0.0003346619 -61.76 3.662464e-05    1.014    0.014
       527  -9.9024    139.5114     26.9501   9.4144714019e+01   3.9269470915e+01 0.0005249472 0.0003353297 -81.03 0.0008072287    1.527    0.345
       528 -10.0549      1.4469     25.3172   9.4023465296e+01   3.9268947446e+01 0.0004814975 0.0003185352  72.67 0.0008257548    1.544    0.353
       529 -10.2854     90.5701     23.8843   9.4101808804e+01   3.9267586094e+01 0.0006873466 0.0005434717  88.94  0.001475046    1.257    0.205
       530 -10.4308     65.7043     24.0832   9.4079957041e+01   3.9267832792e+01 0.0005080807 0.0004349613 -72.03 0.0005901464    1.131    0.116
       531  -9.7978     61.3923     23.7561   9.4076178724e+01   3.9267626014e+01 0.0005244207 0.0003004318 -69.78 0.0009517838    1.672    0.402
       532 -11.1795     18.1759     23.1082   9.4038231180e+01   3.9267359165e+01 0.0007755404 0.0005868045  20.97 0.0008932189    1.371    0.270
       533 -10.7632      5.4639     23.3869   9.4027054479e+01   3.9267601686e+01 0.0005997899 0.0005234032   7.75 0.0005763039    1.176    0.150
       534 -10.2290    189.5189     23.4390   9.4188752213e+01   3.9266802633e+01 0.0003464062 0.0003354404 -50.21 7.278528e-05    1.012    0.011
       535 -10.5485     47.3261     23.1523   9.4063839476e+01   3.9267269783e+01  0.000593051 0.0005135293   9.84 0.0006613468    1.188    0.158
       536 -10.2202    183.5052     21.9763   9.4183512248e+01   3.9265825527e+01 0.0005052438 0.0003400552 -88.46 -0.0001403093    1.468    0.319
       537 -10.4650    100.7912     25.5867   9.4110736947e+01   3.9268712898e+01 0.0009583111 0.0003510973 -55.59  0.001426206    2.535    0.605
       538 -10.2975    114.2388     20.9526   9.4122691053e+01   3.9265457942e+01  0.000495644 0.0004430564 -84.48 0.0004418543    1.105    0.095
       539 -10.8630     73.8960     20.6727   9.4087257725e+01   3.9265447162e+01 0.0006085194 0.0004464098 -67.17 0.0006229089    1.309    0.236
       540 -11.8312    121.2645    247.8067   9.4122025282e+01   3.9421737283e+01 0.0008414518 0.0006068241  10.33 0.0003855806    1.424    0.298
       541 -10.5351     38.8037     20.9907   9.4056418729e+01   3.9265815964e+01 0.0006293149 0.0005167177  -2.64  0.001375176    1.233    0.189
       542  -9.7652     51.1505     20.3334   9.4067285878e+01   3.9265311324e+01 0.0004889478 0.0003039973  17.19 0.0003200953    1.663    0.399
       543 -11.1823     77.5883    248.5116   9.4083547566e+01   3.9422419291e+01 0.0005553801 0.0004020913  70.57 9.763697e-05    1.413    0.292
       544 -10.1575    200.3979     17.7232   9.4198477704e+01   3.9262807703e+01  0.000495333 0.0003092043 -70.46 0.0005992249    1.539    0.350
       545 -11.0487    157.9649     17.2050   9.4161216591e+01   3.9262666094e+01 0.0005668087 0.0004839847 -84.29 0.0003509101    1.154    0.133
       546  -9.9574    140.0000     17.9975   9.4145411075e+01   3.9263299764e+01   0.00056725  0.000196167 -87.76 0.0004005006    2.850    0.649
       547  -9.6918     92.3092     18.2966   9.4103506127e+01   3.9263728181e+01  0.000383274 0.0002298754 -44.68 0.0002728257    1.593    0.372
       548 -13.6992     76.0197    241.3083   9.4082386882e+01   3.9417462869e+01   0.00155284  0.000777414  57.05   0.00164366    2.099    0.524
       549 -10.4067     25.9068     16.7258   9.4045220287e+01   3.9262930355e+01 0.0006907964 0.0004772522 -51.33 0.0003128809    1.382    0.276
       550 -10.0766    179.4243    248.4671   9.4173214065e+01   3.9421911121e+01 0.0003491561 0.0003308365 -56.91 0.0001704787    1.012    0.012
       551 -11.3530    181.0065    244.1022   9.4174736774e+01   3.9418895548e+01 0.0009513068 0.0005917474 -70.19 0.0005689192    1.544    0.352
       552 -12.2918    185.9099    239.0481   9.4179203731e+01   3.9415388190e+01  0.001269998 0.0006481188 -57.58  0.001407724    1.855    0.461
       553 -11.8036    190.8663    235.1501   9.4183682740e+01   3.9412677053e+01 0.0007965135  0.000477275 -17.13 0.0007769606    1.651    0.394
       554 -10.0593      6.6365     17.8505   9.4028256628e+01   3.9263782372e+01 0.0005855342 0.0004083608   8.05 0.0008225229    1.469    0.319
       555 -11.0654    131.8258     16.4464   9.4138276641e+01   3.9262270179e+01  0.001046696 0.0004352603 -28.35   0.00146431    2.324    0.570
       556 -10.7536    116.0215     15.9636   9.4124407491e+01   3.9262011963e+01 0.0007008742 0.0004928813 -21.10 0.0007738466    1.401    0.286
       557 -10.1111    112.1545     14.8573   9.4121043795e+01   3.9261267639e+01 0.0005979355 0.0004742757  20.57 0.0005640633    1.307    0.235
       558  -9.9177     96.5830     15.7900   9.4107336576e+01   3.9261981745e+01 0.0005068412 0.0003139475  73.73 0.0009473806    1.648    0.393
       559 -10.7317     41.8704     15.3201   9.4059287355e+01   3.9261896057e+01  0.001031705 0.0003751022  28.63  0.001484583    2.905    0.656
       560 -11.2849    219.5293     14.9430   9.4215365389e+01   3.9260790928e+01 0.0005354653 0.0003382766 -85.05 0.0004609967    1.554    0.357
       561 -10.2870    196.1550    247.0884   9.4187985826e+01   3.9420876068e+01 0.0005534765 0.0004369686 -47.86 0.0004121896    1.213    0.176
       562 -10.7605    192.3018    240.3332   9.4184793116e+01   3.9416241146e+01 0.0005603837  0.000349395 -11.03 0.0009005588    1.602    0.376
       563 -10.1664    153.8095     14.1729   9.4157656485e+01   3.9260597242e+01 0.0005044482 0.0004657465  35.12 0.0005171643    1.130    0.115
       564 -10.3916     86.1514     13.7919   9.4098233390e+01   3.9260651892e+01 0.0005064664 0.0003724813 -45.37 0.0004279396    1.303    0.233
       565  -9.8419    186.5628    244.8193   9.4179607511e+01   3.9419361525e+01 0.0004995777 0.0004437646  84.77 0.0004959101    1.130    0.115
       566 -10.8319    189.3520    242.8117   9.4182122702e+01   3.9417964000e+01  0.000615128 0.0004289378 -49.92 0.0005501718    1.370    0.270
       567  -9.4166    248.2827    244.2646   9.4233964548e+01   3.9418653419e+01 0.0003643228 0.0002345395 -44.12  0.000162057    1.487    0.327
       568 -10.1842    179.7683     13.3876   9.4180483225e+01   3.9259926465e+01 0.0005080181  0.000310102 -18.84 0.0007763161    1.617    0.382
       569 -11.2245    174.9320    243.7092   9.4169400185e+01   3.9418655209e+01 0.0006231141 0.0005561166  65.72 0.0002444914    1.153    0.133
       570 -10.9430    169.4177    239.6588   9.4164665854e+01   3.9415891749e+01  0.001239832 0.0005685767  36.46  0.002014801    2.302    0.566
       571 -10.8218    165.3517    244.1518   9.4160952090e+01   3.9419007743e+01 0.0006479688 0.0004926186  12.80 0.0006318503    1.355    0.262
       572 -10.0283      9.2185     11.3045   9.4030728115e+01   3.9259261880e+01 0.0004985587 0.0003028043  13.55  0.000924115    1.696    0.410
       573 -12.0600    203.4354    240.6550   9.4194585711e+01   3.9416405527e+01 0.0007804616 0.0006066959 -77.69 0.0007944032    1.252    0.201
       574 -12.0441    142.4268    232.2144   9.4141126401e+01   3.9410893738e+01 0.0009767569 0.0007792567  27.76  0.002111805    1.305    0.234
       575 -11.8329    147.2188    240.7255   9.4145089841e+01   3.9416735300e+01  0.001100329 0.0006739096 -82.97  0.002090759    1.597    0.374
       576 -10.2166    120.9078    241.9040   9.4121889560e+01   3.9417671713e+01 0.0005863921 0.0003689178  47.23 0.0006614202    1.664    0.399
       577 -11.0761    111.2358    233.0088   9.4113643482e+01   3.9411587133e+01 0.0006174189 0.0005569719  -8.60 0.0004401986    1.118    0.105
       578 -10.0618    114.8349    230.2330   9.4116895970e+01   3.9409657994e+01 0.0006113847 0.0004452397 -59.52 0.0005406219    1.313    0.238
       579 -11.9362    115.2347    238.7634   9.4116989811e+01   3.9415533943e+01  0.001110776 0.0006808355 -48.95  0.001267725    1.555    0.357
       580 -11.8023    119.0533    234.1219   9.4120491966e+01   3.9412318122e+01  0.001353766 0.0006802694 -86.34   0.00120245    1.957    0.489
       581 -11.1532    198.4500    239.9704   9.4190216773e+01   3.9415959560e+01 0.0006971867 0.0004273845  52.13  0.001306405    1.706    0.414
       582  -9.6701    233.5563    239.4157   9.4221140611e+01   3.9415392264e+01 0.0003441897 0.0003333709 -49.11 2.474395e-05    1.012    0.012
       583 -10.3219     66.6782    238.9097   9.4074235964e+01   3.9415850445e+01  0.000611043 0.0004279935 -19.12  0.001022206    1.410    0.291
       584 -11.6565    218.9982    233.0916   9.4208509376e+01   3.9411112327e+01  0.001293237 0.0006418629 -52.59 0.0006587346    1.905    0.475
       585 -10.9445    144.3003    237.9684   9.4142603033e+01   3.9414849504e+01 0.0005235387 0.0005121524 -70.89 0.0006276715    1.028    0.028
       586 -10.0408    180.7785    236.0580   9.4174774813e+01   3.9413353755e+01 0.0004712173 0.0004222136 -77.62 0.0003139441    1.091    0.084
       587 -10.9112    156.0048    233.5087   9.4153040935e+01   3.9411720002e+01 0.0005523966 0.0004607491 -80.68 0.0005121499    1.174    0.148
       588 -10.7562    178.3413    232.3058   9.4172740660e+01   3.9410780620e+01 0.0009142514 0.0004614279 -23.47  0.001353987    1.938    0.484
       589 -11.3617    161.3332    231.8213   9.4157782209e+01   3.9410531216e+01 0.0007717315  0.000564912 -63.46  0.000545399    1.309    0.236
       590 -10.2357    162.2705    227.3994   9.4158739272e+01   3.9407479734e+01   0.00113966 0.0002930397 -45.09  0.001427876    3.518    0.716
       591 -10.0715    158.6985    218.7039   9.4155854661e+01   3.9401505578e+01 0.0005500701 0.0003190023 -42.28 0.0002796972    1.649    0.394
