#   1 NUMBER                 Running object number                                     
#   2 MAG_AUTO               Kron-like elliptical aperture magnitude                    [mag]
#   3 X_IMAGE                Object position along x                                    [pixel]
#   4 Y_IMAGE                Object position along y                                    [pixel]
#   5 X_WORLD                Barycenter position along world x axis                     [deg]
#   6 Y_WORLD                Barycenter position along world y axis                     [deg]
#   7 A_WORLD                Profile RMS along major axis (world units)                 [deg]
#   8 B_WORLD                Profile RMS along minor axis (world units)                 [deg]
#   9 THETA_WORLD            Position angle (CCW/world-x)                               [deg]
#  10 FWHM_WORLD             FWHM assuming a gaussian core                              [deg]
#  11 ELONGATION             A_IMAGE/B_IMAGE                                           
#  12 ELLIPTICITY            1 - B_IMAGE/A_IMAGE                                       
         1 -14.6928     68.5167    144.2609   1.0775851187e+02   3.7272990217e+01     5.142172     2.467314  68.19  0.008234267    4.105    0.756
         2 -14.4550    213.3241     22.5464   4.2414926015e+01   2.9040601849e+01     1.512095      1.12997  17.03  0.008026883    1.923    0.480
         3 -14.4244    200.6856     35.8637   4.7435961461e+01   3.0501935063e+01     2.273697     1.531153  30.70  0.008459372    2.021    0.505
         4 -12.4344      3.1774     24.5281   1.0304114736e+02   7.0228809041e+01    0.4601792    0.4149857 -47.58  0.003608029    1.352    0.260
         5 -13.2611      2.1459      7.4993   9.6695961240e+01   7.3229941786e+01     1.286081    0.6297386 -41.08  0.007999821    1.527    0.345
         6 -11.3349    237.9478      1.7674   3.5284985671e+01   2.5595679814e+01    0.5793657    0.1696415  74.87  0.002274357    3.248    0.692
         7 -10.4636     66.4203      3.1724   6.3984091383e+01   6.5608560107e+01    0.1943502    0.1405838  45.91 0.0006177737    1.408    0.290
         8 -16.4425      7.6313    202.7239   1.2743608488e+02   3.0805690767e+01      7.14103      1.16069 -74.91  0.005484425    4.629    0.784
         9 -10.6616    140.1046    249.6999   1.0665314017e+02   4.6394859866e+00    0.2301251    0.1823071  59.11  0.001565087    1.259    0.206
        10 -10.1671    134.8952    250.1408   1.0766909618e+02   5.3762699038e+00     0.182925    0.1366585  58.20 0.0007808558    1.288    0.224
        11 -14.8245     45.7240    223.0730   1.2172324625e+02   2.2739229207e+01     2.030631     1.418224  14.30  0.002457744    2.622    0.619
        12 -14.2326     86.9256    228.0769   1.1435660778e+02   1.6363397408e+01     1.888287     1.058769  50.71  0.004699463    1.484    0.326
        13 -15.8768     67.9176    247.1544   1.1954383615e+02   1.5521224354e+01     9.142171     2.873655  30.49  0.009301176    8.500    0.882
        14 -10.0102     71.8913    186.2978   1.1287174679e+02   2.7031398608e+01    0.2249403    0.1663082  88.09  0.000365503    1.275    0.215
        15  -9.0182     94.5711    187.4597   1.0794524884e+02   2.3433643085e+01    0.1353154    0.1177517  72.95  0.000166026    1.033    0.032
        16 -10.2058    147.0202    184.7041   9.5729837971e+01   1.4944870482e+01    0.2055878    0.1771663  45.21 0.0007455376    1.083    0.077
        17 -10.0633     99.4357    180.6835   1.0585690959e+02   2.4144979806e+01    0.2359785    0.2279727  43.38 0.0005932279    1.179    0.152
        18 -12.1611     67.6482    178.1915   1.1283467276e+02   2.9423507737e+01    0.4060401    0.2816988 -39.24  0.001864449    2.008    0.502
        19 -11.9761     72.1386    172.9031   1.1110987614e+02   3.0012568857e+01    0.3058313     0.246342 -47.46 0.0006122706    1.463    0.316
        20 -16.6333     11.5706    241.4478   1.2870173678e+02   2.3036886438e+01     2.595903     1.962632 -86.91   0.01903164    1.339    0.253
        21 -12.8340     87.7192    156.5069   1.0483965317e+02   3.1538910052e+01     1.400683    0.7972097 -72.26  0.002043173    1.936    0.484
        22 -12.6166     81.2620    163.3396   1.0754470385e+02   3.0916013173e+01    0.8243153    0.3922817  51.17 0.0005718606    2.215    0.549
        23 -13.6652     69.1420    159.1533   1.0990824710e+02   3.3628326259e+01    0.6796216    0.5790358 -11.32  0.003283645    1.642    0.391
        24 -10.4907     35.4241    167.3078   1.1898780262e+02   3.5775705580e+01    0.2508267     0.208448  -9.09  0.001590341    1.838    0.456
        25 -10.2676    209.8815    200.0656   8.5591325787e+01   7.5367984874e-01    0.1835412    0.1739847  25.37 0.0003886941    1.248    0.198
        26 -10.6493    229.7306    165.9992   7.5074438891e+01   2.6553607461e+00    0.1997598    0.1644387 -20.55 0.0005482584    1.111    0.100
        27 -10.0191     75.5372    190.2829   1.1254673045e+02   2.5648123029e+01    0.2798049    0.1688717  69.97 0.0008801235    1.778    0.438
        28  -9.6719    126.0223    155.0322   9.4997530569e+01   2.5235237344e+01    0.2104803    0.2054054 -84.55            0    1.023    0.023
        29 -10.3749    134.0000    148.0066   9.1578650141e+01   2.5267949311e+01    0.5299283    0.1966874 -57.69  0.001573184    3.756    0.734
        30 -11.3229    133.5943    141.5429   9.0263845866e+01   2.6799621236e+01    0.6994129    0.2795793 -54.22  0.002345081    2.803    0.643
        31 -12.0262     54.3246    147.7537   1.1200274360e+02   3.8252266659e+01    0.6691277    0.4313022 -70.67  0.003583444    1.372    0.271
        32  -9.1528     98.2961    150.3463   1.0105547468e+02   3.1284951789e+01    0.1448848    0.1126218 -27.01 0.0007033341    1.673    0.402
        33 -10.3360    174.3764    148.8271   8.2345316166e+01   1.6763813989e+01    0.3117611    0.2739241  87.09 0.0009010584    1.400    0.286
        34 -10.5677     39.0705    146.0802   1.1568537217e+02   4.0364129415e+01    0.3746144    0.2153084 -66.25  0.001997526    1.473    0.321
        35 -10.1910     33.2343    143.9144   1.1690151018e+02   4.1467370960e+01    0.2415806    0.1431513 -59.22  0.001319187    1.516    0.340
        36 -11.0080     28.4575    143.9680   1.1811914496e+02   4.1908752432e+01    0.2898252    0.1849144  37.39  0.001685162    1.747    0.428
        37 -10.7998    101.9471    141.0098   9.8290133337e+01   3.2872279809e+01    0.5896789     0.353162 -29.38  0.002311907    2.619    0.618
        38 -12.4596     89.2061    141.1738   1.0170549745e+02   3.4956285085e+01    0.2921933    0.2547056 -50.89 0.0004948571    1.164    0.141
        39  -9.7619     83.6095    143.1438   1.0356304036e+02   3.5358719400e+01    0.2308762    0.1826722  59.28 0.0005799302    1.306    0.235
        40  -8.7311     36.2754    140.3078   1.1566270480e+02   4.2027011752e+01    0.1255482   0.08624224 -48.80 0.0002862324    1.550    0.355
        41 -10.8106     25.9137    137.4282   1.1799782179e+02   4.3688781806e+01    0.3568628    0.1650162  43.46  0.001496994    2.298    0.565
        42 -10.2303    111.3360    131.0207   9.3653117647e+01   3.3542804605e+01    0.3393888     0.266456 -14.91 0.0008061574    1.679    0.404
        43 -10.2078    105.9952    130.7216   9.5024485219e+01   3.4592794623e+01    0.3393983    0.2961001 -81.29  0.001140637    1.198    0.165
        44 -11.0877    135.8584    129.0230   8.6787236152e+01   2.9151719629e+01    0.3934475    0.2229618 -53.94  0.001416157    1.870    0.465
        45 -10.8068    135.5382    124.0005   8.5638664362e+01   3.0342684089e+01    0.3781089     0.190282 -44.13  0.001354846    1.966    0.491
        46 -10.9130    135.0000    119.9965   8.4770885165e+01   3.1349388699e+01    0.3807267    0.1673767 -50.59  0.001319419    2.368    0.578
        47 -11.3346    132.4360    172.6830   9.6855643130e+01   2.0147609741e+01    0.4401025    0.2612913  19.99  0.001720787    2.702    0.630
        48 -10.9847    117.1302    125.9320   9.0924588663e+01   3.3629280774e+01    0.5287856    0.2709864 -55.86  0.002047292    2.048    0.512
        49 -10.3852    160.8574    128.0993   8.0486116130e+01   2.3968507502e+01    0.2475795    0.2209476 -77.42  0.001238811    1.276    0.216
        50 -11.0437     98.3876    127.3337   9.6357364231e+01   3.6743368918e+01      0.30662    0.2465569 -31.26 0.0008651309    1.410    0.291
        51 -10.1416    126.2459    128.2045   8.9058093794e+01   3.1305288508e+01    0.3252261    0.1933655 -70.19  0.001186575    2.585    0.613
        52  -9.9665    107.8039    119.8062   9.2003590619e+01   3.6829518893e+01    0.2111912    0.1978194 -26.87 0.0003595366    1.123    0.109
        53 -12.8833     12.9718    189.4205   1.2560754864e+02   3.3080098552e+01    0.2797184    0.2091943  72.50 0.0005124832    1.091    0.083
        54  -9.3212    201.3101    168.6742   8.1047213651e+01   7.5397493063e+00    0.1355737    0.1169284 -84.03  0.000435832    1.657    0.397
        55  -9.8645    168.4647    113.2725   7.4948001759e+01   2.5322577211e+01    0.3729271    0.2624222 -78.57  0.001069828    2.224    0.550
        56 -10.0795    205.5432    110.2515   6.6568966905e+01   1.7369367951e+01     0.306248    0.2414792  40.05 0.0009628427    1.344    0.256
        57 -11.0415     18.0819    110.3471   1.1661832156e+02   5.0757009215e+01    0.2474399    0.1563122 -78.17 0.0008042663    1.368    0.269
        58 -10.7197    120.5212    110.4994   8.6146108771e+01   3.6490311952e+01    0.3344668    0.1544164  43.07   0.00123119    2.236    0.553
        59 -11.0009     22.3852    108.8213   1.1511011266e+02   5.0793937049e+01    0.2349627    0.1760481  73.37 0.0008142369    1.467    0.318
        60 -10.7708    134.6607    105.2425   8.0956768787e+01   3.4664408525e+01    0.5373636    0.1449963 -42.60   0.00148411    3.672    0.728
        61 -10.6793    117.9505    105.9372   8.5636513049e+01   3.8037077101e+01    0.2558042    0.1973882 -88.73  0.001147503    1.768    0.434
        62 -11.6192     41.7899    104.1194   1.0830889039e+02   5.0181492083e+01    0.3860214    0.2651207  50.97  0.001410714    1.727    0.421
        63 -10.3505     91.7173    102.8175   9.2409030028e+01   4.3675247572e+01    0.2524089    0.2223822  71.47 0.0003951886    1.300    0.230
        64  -9.4849     66.5192    103.5004   1.0036425589e+02   4.7395756442e+01    0.2768465    0.1413153  33.22  0.001216928    2.187    0.543
        65 -10.1347     32.7445     99.8201   1.1036750988e+02   5.2066473129e+01    0.2409782    0.1751181  43.87   0.00141318    1.623    0.384
        66 -12.7658      2.1067     79.7243   1.1701088346e+02   5.8815562326e+01     1.260131          nan -62.71  0.003977221    4.674    0.786
        67 -11.4377      1.7527     94.7792   1.1939103128e+02   5.5405167444e+01    0.5203447    0.1272462 -66.17  0.002164083    2.666    0.625
        68 -10.3989     41.8032     91.9553   1.0579837055e+02   5.3055107370e+01    0.1995256    0.1880453 -29.80 0.0004491401    1.160    0.138
        69 -10.3075     53.0522     90.3784   1.0164668326e+02   5.2188181187e+01    0.2527052    0.1629493 -46.95  0.001085318    1.356    0.262
        70 -10.0351    158.3103     81.0150   6.8172128251e+01   3.4060352957e+01    0.2241763    0.1999622 -36.15 0.0005042913    1.110    0.099
        71  -8.9502     70.3263     81.7385   9.3503104609e+01   5.1867938524e+01    0.1313137    0.1106605  78.36  0.000234908    1.561    0.360
        72  -8.5777    184.3914     77.2987   6.1698601537e+01   2.8304495153e+01    0.1624008    0.1176302  23.28 0.0007010614    1.795    0.443
        73  -9.4448     54.6257     65.6736   9.4304100678e+01   5.7474731233e+01    0.1966166    0.1585724  53.37  0.000741609    1.636    0.389
        74 -10.6777     13.4318     59.9584   1.0880902481e+02   6.2557103960e+01    0.2387193    0.1851585 -62.44 0.0004647035    1.191    0.161
        75 -14.4529     43.2090    204.7423   1.2076869678e+02   2.6714227211e+01     1.225469    0.7761884  64.07  0.003810122    1.344    0.256
        76 -12.3692    191.9193     42.1403   5.0404003993e+01   3.1864158179e+01    0.6919296    0.5155636  47.06  0.001084268    1.428    0.300
        77 -10.9249    170.8297    233.6151   9.8718790072e+01   2.1833736050e+00    0.2105772    0.2050184  55.29 0.0008354986    1.248    0.199
        78 -10.0107    146.7612     43.0582   5.8664162682e+01   4.3186701996e+01    0.2426597    0.2048659  60.58 0.0004213617    1.163    0.140
        79 -11.0057      5.7376     38.9122   1.0647286675e+02   6.7346148291e+01    0.2340529    0.1584994  19.13 0.0004173603    1.781    0.439
        80 -14.7772     51.8626    195.1039   1.1814887567e+02   2.7717390609e+01      2.01876     1.079651  58.03  0.009476928    1.732    0.423
        81  -9.1337    130.4807    212.5336   1.0372367034e+02   1.2480337409e+01    0.1329244    0.1137873  53.50 0.0003059841    1.047    0.045
        82  -9.7080    189.6844     15.0271   4.3075933936e+01   3.5716483106e+01    0.1869096    0.1720722 -55.49 0.0005959179    1.113    0.101
        83  -9.4763    137.3430     14.0089   5.0528703170e+01   4.9025893246e+01    0.1776245    0.1699895 -23.93 0.0004241173    1.142    0.125
        84 -11.3400    144.0883     48.9251   6.1201362176e+01   4.2992911775e+01    0.4918399    0.3226368 -79.61  0.001875327    2.494    0.599
        85 -11.8758    194.3284    196.1440   8.7889685066e+01   4.1135897780e+00     1.177257    0.7176926 -68.73  0.004195563    4.639    0.784
