#   1 NUMBER                 Running object number                                     
#   2 MAG_AUTO               Kron-like elliptical aperture magnitude                    [mag]
#   3 X_IMAGE                Object position along x                                    [pixel]
#   4 Y_IMAGE                Object position along y                                    [pixel]
#   5 X_WORLD                Barycenter position along world x axis                     [deg]
#   6 Y_WORLD                Barycenter position along world y axis                     [deg]
#   7 A_WORLD                Profile RMS along major axis (world units)                 [deg]
#   8 B_WORLD                Profile RMS along minor axis (world units)                 [deg]
#   9 THETA_WORLD            Position angle (CCW/world-x)                               [deg]
#  10 FWHM_WORLD             FWHM assuming a gaussian core                              [deg]
#  11 ELONGATION             A_IMAGE/B_IMAGE                                           
#  12 ELLIPTICITY            1 - B_IMAGE/A_IMAGE                                       
         1 -15.1849      4.3344     73.3964   7.8794653994e+01   6.2255209552e+01     5.341379     1.028687 -75.92   0.01431324    5.445    0.816
         2 -14.4201     22.1916    114.9737   7.7867586164e+01   5.0071221773e+01     3.219119    0.9113372 -83.31   0.00826685    5.567    0.820
         3 -15.7095     13.0861    131.2161   8.2728870786e+01   4.6385717110e+01     3.085784     1.163111  79.77   0.01085479    3.324    0.699
         4 -13.9407     44.0842     87.6469   6.4379334270e+01   5.5308610043e+01     4.162835      1.06491 -62.48   0.01240564    3.573    0.720
         5 -14.7254     24.5132     74.1839   6.9614000573e+01   6.0755997566e+01     2.535123     1.370128 -83.65  0.008473487    2.307    0.566
         6 -13.5087     51.3862     43.5559   4.6075205545e+01   6.4697976266e+01     1.258375     1.073501  65.17  0.005644912    1.605    0.377
         7 -12.8482    237.7184     29.8724   1.9052622260e+00   2.4257846819e+01    0.6463511    0.3247007 -39.90  0.002528379    1.534    0.348
         8 -12.9767    195.0390     31.5357   6.0479897903e+00   3.3342381560e+01    0.8833678     0.495254 -39.44  0.004116065    1.544    0.352
         9 -12.5332     30.9755      2.7852   3.3615723170e+01   7.4621732023e+01     0.724514    0.3438282  49.56  0.003361451    2.530    0.605
        10 -13.9262     11.8259     22.6871   5.9321748830e+01   7.3710476051e+01     1.367477    0.9071481  27.91  0.008104199    1.720    0.419
        11 -13.9349     16.6469      5.8554   4.5608601506e+01   7.6235936841e+01     1.128837     1.044725 -65.23  0.007050451    1.731    0.422
        12 -13.4017      5.2845      7.6333   5.5994436830e+01   7.7120312367e+01    0.8775908    0.4928757 -38.19  0.005121675    1.448    0.310
        13 -11.9297    201.5468      9.0555   3.5936766139e+02   3.4373354518e+01    0.4261938     0.324485 -25.74  0.002038984    1.399    0.285
        14 -12.0520    179.9774     19.5002   4.1504762819e+00   3.8343195689e+01    0.4210601    0.2004408 -21.12  0.001813507    2.366    0.577
        15 -12.3380    101.8282      4.8229   9.7906470485e+00   5.9337166173e+01    0.3638134     0.301104  32.97  0.002140384    1.203    0.168
        16 -12.7628    114.9331      2.7782   6.5615750239e+00   5.6246114825e+01    0.7882426    0.3071759  73.56  0.003128733    2.529    0.605
        17 -11.0566    249.4285      2.1125   3.5501718847e+02   2.5031085007e+01    0.2677736    0.1622088 -60.05  0.001718385    1.312    0.238
        18 -11.8311    249.6695    247.2485   4.4931842856e+01  -8.0702971976e+00    0.3432291    0.1658248 -23.73  0.002225135    1.784    0.440
        19 -12.7105    240.1263    247.1243   4.6419794752e+01  -7.0799318512e+00    0.3237185      0.18169  10.47  0.002174852    1.505    0.336
        20 -11.9209    217.2864    250.3055   5.0649551398e+01  -4.9734383061e+00    0.3758945    0.1234464  27.78  0.001551971    2.732    0.634
        21 -13.1422    221.0979    243.9339   4.9075183685e+01  -4.6479195045e+00    0.4735993    0.3418948 -14.83  0.002911926    1.228    0.186
        22 -13.8880    194.4085    244.5659   5.3827607122e+01  -1.5942025013e+00    0.7423416    0.4998836  20.17  0.005039266    1.203    0.169
        23 -12.5786    190.1070    249.8374   5.5336856356e+01  -1.7560809935e+00    0.5227247    0.1764766  32.08  0.002540753    2.481    0.597
        24 -15.5309     77.7483    176.8776   6.9565704674e+01   2.7495021319e+01     4.785295     2.283373 -88.03   0.01631275    3.705    0.730
        25 -13.4837     70.3093    196.0680   7.3739558236e+01   2.4011169010e+01     1.195555    0.7088521  55.70  0.006074605    1.641    0.391
        26 -15.1317     82.6842    232.2279   7.4551980392e+01   1.4941276755e+01     2.642765     1.347876 -85.65   0.01271654    2.865    0.651
        27 -16.0394    149.6657    233.5256   6.0818351142e+01   5.7920731372e+00     4.106109     1.424318  42.24   0.01743147    2.855    0.650
        28 -15.8310    103.2834    225.0817   6.9437555651e+01   1.3599968698e+01     2.366302     1.628636  82.91    0.0108711    1.927    0.481
        29 -14.5362     43.6777    137.8606   7.3895263312e+01   4.1831610460e+01     3.093146    0.7878878 -67.73  0.009817103    3.323    0.699
        30 -15.4157     59.4959    238.6691   7.9875153100e+01   1.6524725187e+01     2.219247    0.6560827  53.05  0.008933006    3.443    0.710
        31 -13.3051     65.3685    226.4333   7.7720356001e+01   1.8191674652e+01    0.7863957    0.4833874  56.01  0.003350584    1.454    0.312
        32 -13.6427     35.2554    222.0372   8.3807154109e+01   2.2466931370e+01     1.285002    0.6418419  85.47  0.006025175    2.045    0.511
        33 -15.2842     13.2404    205.5047   8.7637217854e+01   2.8119307465e+01     1.824673     0.536108  60.80  0.007408339    3.209    0.688
        34 -14.2930     46.4599    209.4341   8.0519365391e+01   2.3915237247e+01     1.339149    0.5777007  69.31  0.005768408    2.794    0.642
        35 -11.0561     29.9910    199.2254   8.3538711848e+01   2.7925011255e+01      1.61315    0.9417009  65.06  0.009006003    1.515    0.340
        36 -14.5760     47.7628    247.5366   8.2777440003e+01   1.6203826852e+01    0.8636547    0.3572349  42.74  0.004523019    1.787    0.440
        37 -14.3038      7.0162    227.2391   8.9806645382e+01   2.4134613086e+01     1.205452    0.2682588  54.03  0.005212403    3.136    0.681
        38 -13.9611     24.4827    245.4593   8.7144393737e+01   1.8997563137e+01     1.315283    0.1440353  51.76  0.004537415    5.132    0.805
        39 -13.3028     13.4865    240.0965   8.9016806386e+01   2.1051377860e+01    0.5146617    0.2314841  58.43    0.0020103    1.710    0.415
        40 -14.5715      4.0349    245.9866   9.0963682215e+01   2.0812988563e+01     0.792726    0.3014978  53.91  0.003697118    1.844    0.458
        41 -13.8845      2.8677    236.1568   9.0892832556e+01   2.2757653680e+01    0.5335907    0.2925192  59.78  0.002708197    1.348    0.258
        42 -12.8477     30.4660    166.5774   8.0931096517e+01   3.5692028261e+01     1.426235      0.65797  75.33   0.00599146    2.423    0.587
        43 -13.4536      2.6265    144.5008   8.6907759652e+01   4.3611155705e+01     1.716669    0.4306241 -84.43  0.005742388    3.642    0.725
        44 -12.9281     40.4729    187.9952   8.0215380899e+01   2.9426947627e+01    0.6681025    0.3676638 -85.04  0.002495316    1.758    0.431
        45 -14.0328      3.5090    102.8960   8.3124921674e+01   5.4535215593e+01       1.3222    0.3839561 -83.55  0.004450704    3.385    0.705
        46 -13.7450     20.0768    152.0404   8.2520009449e+01   4.0360073802e+01    0.9455336    0.4498867  62.11  0.003525474    2.142    0.533
        47 -12.7829    249.9578    234.7486   4.2970901297e+01  -6.7241546576e+00    0.6677489     0.206183 -31.09  0.003329432    2.892    0.654
        48 -10.9726    118.8236    174.1579   5.8685370652e+01   2.1861105051e+01    0.3438098    0.2477296 -61.75  0.001702463    1.482    0.325
        49 -12.9123    113.1716    158.6869   5.7321277737e+01   2.6385719732e+01     1.045656    0.7781243  74.39  0.004648447    1.709    0.415
        50  -9.9536      1.2194    163.9691   8.8419546890e+01   3.8791075068e+01    0.1687323   0.08585079 -85.26 0.0008569097    1.623    0.384
        51 -13.1465     34.0009    151.9955   7.8532637704e+01   3.9091031619e+01     1.049221    0.5014986  86.86  0.004334065    2.302    0.566
        52 -10.3492      1.0000    159.3531   8.8232402630e+01   3.9951296893e+01    0.2580047   0.06045695 -81.19 0.0008841117    3.537    0.717
        53 -14.6967     93.5698    178.3599   6.5708664320e+01   2.4862233217e+01      2.44737     1.239677  62.98  0.009024967    3.065    0.674
        54 -11.2173     70.4683    144.8071   6.6779582371e+01   3.6614485489e+01    0.6816716    0.3545022  62.66  0.002537131    2.674    0.626
        55 -12.0468     79.2604    145.0992   6.4227995923e+01   3.5260644553e+01    0.6088414    0.4587412  50.56   0.00222348    1.358    0.264
        56 -12.0035     78.8804    138.9756   6.3221710482e+01   3.6915058825e+01    0.7849031    0.2979282 -51.77  0.002768585    2.485    0.598
        57  -9.8484     73.4469    133.5603   6.3861474824e+01   3.9153866769e+01    0.1510123    0.1397057 -70.37 0.0001225392    1.026    0.025
        58 -12.1372     65.7253    109.9135   6.1483717067e+01   4.6581145589e+01    0.6982988    0.5151728 -82.57  0.003300443    1.491    0.330
        59 -12.1400     57.9406    109.2756   6.4091077091e+01   4.7834391566e+01    0.6628087    0.3403574 -69.54  0.002629472    1.992    0.498
        60 -13.8302    226.8346     92.6038   1.8091038777e+01   1.7529310098e+01     1.704314    0.6258905 -46.00  0.006564467    2.557    0.609
        61 -13.6828     54.8185     92.3828   6.1278000826e+01   5.2728609687e+01     1.391066    0.8768657  44.29  0.006369214    1.786    0.440
        62 -11.9820     41.6652    102.1096   6.8577765169e+01   5.1736897242e+01    0.6531054    0.4607483  79.43  0.002440678    1.646    0.392
        63 -13.0225    246.0472    228.7222   4.2630941479e+01  -5.6104411923e+00    0.4834143    0.3006325 -27.07  0.003267524    1.450    0.310
        64 -10.0571    201.6665     94.3087   2.2201343447e+01   2.2302934956e+01    0.1489549    0.1052155 -63.10 0.0004594907    1.672    0.402
        65 -13.2531    183.3161     86.7438   2.3259886343e+01   2.7621019332e+01    0.5843621    0.4897941 -69.54  0.003066665    1.302    0.232
        66 -12.0275    239.3678    235.9134   4.4835219203e+01  -5.7271915689e+00    0.2134873    0.1301939  14.42  0.001124359    1.367    0.268
        67 -13.6969    185.2084     72.8929   1.9065029462e+01   2.9593840567e+01    0.9938462    0.4827747 -41.06  0.004112697    1.810    0.448
        68 -12.6828     77.8565     91.5206   5.2400060577e+01   4.9424084640e+01     1.120093    0.6416963 -61.63  0.004530919    1.860    0.462
        69 -11.6257     75.2284     71.6634   4.7025569090e+01   5.4641896890e+01    0.6748844    0.4051793  23.26  0.002770328    2.183    0.542
        70 -12.8745    119.7532     67.5201   3.1088499803e+01   4.6147474061e+01    0.9963366    0.7020543 -52.38  0.004516684    1.483    0.326
        71 -13.0372    107.0905     61.8172   3.2597888447e+01   5.0164850993e+01     0.894172    0.6212937 -56.59   0.00363076    1.643    0.391
        72 -13.3744     66.9609     53.9595   4.3607429630e+01   5.9971187870e+01     1.243971    0.9165586  -6.36  0.006035655    1.654    0.395
        73 -12.0467     55.7448     54.1624   4.8547128715e+01   6.1814302436e+01    0.6221085    0.4284196  49.13  0.003044409    1.775    0.437
        74 -12.8043     23.3881    231.5808   8.6741729018e+01   2.1748461425e+01    0.6966016    0.2584917  62.88  0.003409788    2.469    0.595
        75 -11.8747    207.2579     48.0698   9.2229004489e+00   2.8372070047e+01    0.5680366     0.310914 -61.09  0.002605828    1.983    0.496
        76 -12.1160    179.5178     48.4907   1.2840252602e+01   3.4756260953e+01    0.4527501    0.3605498 -76.88  0.002427422    1.293    0.227
        77 -12.0135    243.0467     48.3134   5.7720198117e+00   2.0873928731e+01    0.2912947    0.1965384  36.77  0.001594183    2.285    0.562
        78 -12.7683    237.3934     37.7155   3.7665525867e+00   2.3356215416e+01    0.5173125     0.389898 -87.74   0.00204402    1.420    0.296
        79 -14.3335     10.7568    218.6839   8.8734882641e+01   2.5538618696e+01     1.272308    0.2051366  53.78  0.004577733    4.326    0.769
        80 -12.8652    120.0142    199.7282   6.2463964657e+01   1.6188428123e+01    0.8645671    0.5237139  47.19  0.003928167    1.651    0.394
        81 -12.6444     35.6167     27.3448   4.6399185405e+01   7.0130658608e+01    0.8382428    0.5379297  46.77  0.004335222    2.046    0.511
        82 -15.2582     50.5280    168.8169   7.5771458337e+01   3.2975832416e+01     2.427104      1.36297 -74.86  0.009560401    1.681    0.405
        83 -10.1291     56.9275    190.6713   7.6429445375e+01   2.6918998283e+01    0.1887542    0.1552557  54.40  0.001134246    1.098    0.090
        84 -12.4291    120.0536    186.8773   6.0498170134e+01   1.8869443659e+01    0.6506225    0.4762848  52.16  0.002550593    1.431    0.301
        85 -11.4751      5.1759    188.5938   8.8656184017e+01   3.2606752571e+01    0.3943152      0.14035  60.61  0.001715201    2.470    0.595
        86 -11.4493    162.0508     23.0000   7.2807496998e+00   4.2371003891e+01    0.3844168   0.07624163  69.71   0.00105706    4.986    0.799
        87 -10.7117    141.9927     20.7533   9.3026242098e+00   4.7691624412e+01    0.1904031    0.1143035  69.54 0.0008645506    1.611    0.379
        88 -12.0434    203.3394     37.6285   6.8521474506e+00   3.0656347771e+01    0.5329983    0.3128337 -69.20   0.00251929    1.867    0.464
        89 -10.9154      1.1629    181.4261   8.9268291845e+01   3.4588761669e+01    0.3000175    0.0762449 -87.11  0.001078158    3.668    0.727
        90 -10.9998     34.5609     36.6665   5.1642273394e+01   6.8482137125e+01    0.6949959    0.5005508 -27.26  0.003499629    1.280    0.219
        91 -10.4583     34.9732    179.7994   8.0896112828e+01   3.1968442672e+01    0.3273175     0.230777 -59.74  0.001856548    1.510    0.338
        92 -11.9843     34.6267    119.6143   7.4206941779e+01   4.7711148807e+01     1.781935    0.4857224 -53.62  0.005937296    3.132    0.681
        93  99.0000     15.1129    169.6130   8.5189254712e+01   3.6326469598e+01     1.096504    0.9084001  63.40  0.007061057    1.117    0.105
