#   1 NUMBER                 Running object number                                     
#   2 MAG_AUTO               Kron-like elliptical aperture magnitude                    [mag]
#   3 X_IMAGE                Object position along x                                    [pixel]
#   4 Y_IMAGE                Object position along y                                    [pixel]
#   5 X_WORLD                Barycenter position along world x axis                     [deg]
#   6 Y_WORLD                Barycenter position along world y axis                     [deg]
#   7 A_WORLD                Profile RMS along major axis (world units)                 [deg]
#   8 B_WORLD                Profile RMS along minor axis (world units)                 [deg]
#   9 THETA_WORLD            Position angle (CCW/world-x)                               [deg]
#  10 FWHM_WORLD             FWHM assuming a gaussian core                              [deg]
#  11 ELONGATION             A_IMAGE/B_IMAGE                                           
#  12 ELLIPTICITY            1 - B_IMAGE/A_IMAGE                                       
         1 -15.9617    244.3143    204.0043   7.4693786593e+01  -4.4113312805e+00      8.22587     4.082614 -51.38   0.03133844    4.591    0.782
         2 -15.7960    247.8335    159.4763   6.5227986820e+01   1.8668201712e+00     8.892392     2.360585 -41.43   0.03020378    3.606    0.723
         3 -14.8904    233.7045     15.0442   3.4731145476e+01   2.6200526841e+01     3.328011     2.016429 -82.74   0.01898865    1.629    0.386
         4  -8.9171    197.0181    247.2465   9.0889359694e+01  -3.7244350893e+00    0.1450226    0.1398801  84.80 0.0008903176    1.642    0.391
         5  -9.9301    243.3853    249.6003   8.2809842984e+01  -1.0254529455e+01    0.2077208    0.1690748  27.12 0.0009627871    1.519    0.342
         6  -9.6349    218.8318    249.9085   8.7236664168e+01  -7.1117226952e+00    0.1997187    0.1496995  30.00  0.000795292    1.326    0.246
         7 -10.9774    234.2532    247.9389   8.4146661853e+01  -8.8999130185e+00    0.3449572    0.2494064  42.72  0.002227424    1.931    0.482
         8  -9.7205    210.9360    218.4501   8.3494372380e+01  -1.6119554371e+00     0.221974    0.1776993 -49.53  0.001013542    1.746    0.427
         9  -9.6077    220.0529    215.6799   8.1266187092e+01  -2.5708084087e+00     0.262531     0.179752 -47.02  0.001107583    1.960    0.490
        10 -10.6876    217.5894    209.5956   8.0629308453e+01  -1.2798426518e+00    0.5135872    0.4677162  89.14  0.003166555    1.896    0.473
        11  -8.5696    206.6541    207.3077   8.2323346590e+01   7.8957473800e-01    0.1198415    0.1074409  65.97 0.0007043636    1.699    0.412
        12  -9.2970    216.9940    201.9870   7.9328540735e+01  -1.8444830435e-03    0.3331645    0.2564047  82.81  0.001556439    3.242    0.692
        13  -8.4425    202.3171    202.6320   8.2316522245e+01   2.2514591551e+00    0.1236213    0.1107449  86.53 0.0007037359    1.781    0.439
        14  -8.3260    193.3031    202.6250   8.4131948480e+01   3.7393623645e+00    0.1259428     0.111217  85.73  0.000702915    1.762    0.433
        15  -9.5810    210.4373    200.6969   8.0352120974e+01   1.2505110950e+00    0.2365184    0.1802837 -52.23  0.001125983    1.799    0.444
        16  -9.5897    215.4371    196.2493   7.8534693682e+01   1.1660389156e+00    0.2508247     0.190281 -55.12  0.001193939    1.924    0.480
        17  -9.5231    214.5197    192.4777   7.7981183087e+01   1.9322248087e+00    0.2340328    0.1856166 -31.99 0.0008018704    1.275    0.216
        18  -9.6726    224.4867    248.4804   8.5983885879e+01  -7.6880500011e+00    0.2114347     0.106745 -33.93 0.0009748145    2.090    0.522
        19  -9.0740    195.4560    196.2088   8.2490785522e+01   4.4812197600e+00    0.1793304     0.130016 -50.69 0.0009323061    1.715    0.417
        20  -9.2785    209.4857    195.0260   7.9456096713e+01   2.3374637151e+00    0.2017879    0.1254499 -35.87   0.00102915    1.583    0.368
        21  -9.0840    185.8130    194.9812   8.4250866234e+01   6.3466024736e+00    0.2066485     0.163915 -70.71  0.001061048    1.959    0.490
        22  -8.5165    194.3020    190.6601   8.1660234873e+01   5.6509796169e+00    0.1282054    0.1144946  89.01 0.0005131827    1.672    0.402
        23  -9.6428    210.7139    188.7721   7.7994665768e+01   3.1814805125e+00    0.2330999    0.1984844 -80.33  0.001153068    1.984    0.496
        24  -9.4996    215.9657    187.3194   7.6686829127e+01   2.5491301641e+00    0.2555747    0.2121853 -68.64  0.001392512    1.963    0.491
        25  -9.1420    205.9702    190.9828   7.9364906270e+01   3.6034772644e+00    0.1945135    0.1749278 -87.67  0.000794281    1.730    0.422
        26 -10.1107    210.2466    182.6181   7.6857435684e+01   4.3107288220e+00    0.5291345     0.213783 -46.36  0.002017027    2.911    0.657
        27 -13.3166    242.1455    179.1518   7.0239753173e+01  -3.5180754415e-01     2.105449    0.8044884 -48.21  0.007107957    4.470    0.776
        28  -9.2807    204.6274    181.5122   7.7747443480e+01   5.4744944792e+00    0.2291784    0.1695291 -64.79  0.001046458    2.207    0.547
        29  -9.1272    219.2487    245.4492   8.6456454072e+01  -6.5962443242e+00    0.1544499   0.09804559  36.58  0.000549299    1.572    0.364
        30  -9.5776    234.4764    241.4514   8.3051358262e+01  -8.1244849095e+00    0.2391761    0.1339255  29.47  0.001417314    1.556    0.357
        31  -8.8161    211.7987    248.6062   8.8326632910e+01  -5.9857653795e+00    0.1615631   0.09541785  37.60 0.0007835401    1.628    0.386
        32  -9.1497    192.5641    172.7435   7.8408282941e+01   9.2277310577e+00    0.1943065    0.1353649 -47.92 0.0009433923    1.589    0.371
        33  -9.7762    231.3441    238.0782   8.3054737543e+01  -7.2781894549e+00    0.2672573    0.1652817 -41.25  0.001011765    2.062    0.515
        34  -9.3463    228.5343    235.5046   8.3133684934e+01  -6.5616098643e+00    0.1931728    0.1467768 -31.47 0.0008117065    1.508    0.337
        35 -10.3224    225.9825    231.9750   8.3004987884e+01  -5.7378372647e+00    0.2449119     0.160057 -48.38  0.001063446    2.357    0.576
        36  -9.6062    219.6637    240.5182   8.5586166527e+01  -6.0065706397e+00    0.1664114    0.1455272 -44.24 0.0007320888    1.738    0.425
        37  -8.3193    187.6567    163.7144   7.7523569269e+01   1.1864359717e+01    0.1521512    0.1102275   3.15 0.0007018592    1.643    0.391
        38  -8.7984    179.6588    167.3208   8.0019645192e+01   1.2682723882e+01    0.1437768    0.1208864  85.37 0.0007050158    1.720    0.419
        39  -8.8627    214.5152    241.4893   8.6696763436e+01  -5.4203480175e+00    0.1215448   0.09673832  12.44 0.0008097413    1.057    0.054
        40  -9.1754    192.2823    156.6568   7.5002060233e+01   1.2337851857e+01     0.141554      0.11907 -72.77 0.0004952828    1.636    0.389
        41  -9.4703    222.5994    238.8043   8.4765764080e+01  -6.1843687463e+00    0.1864731    0.1114096 -44.93  0.001030522    2.311    0.567
        42 -10.2564    219.5292    233.4926   8.4451928524e+01  -5.0396180006e+00    0.2671556     0.244957 -65.72  0.001782977    1.921    0.479
        43  -9.0877    195.0000    230.9396   8.8710213935e+01  -1.0770674630e+00     0.188642   0.07016098 -41.11 0.0008029729    2.946    0.661
        44  -8.8861    176.2847    151.6288   7.7320508594e+01   1.6484010064e+01    0.1497436    0.1220953 -77.04 0.0007017562    1.706    0.414
        45  -8.9809    170.6497    151.3089   7.8511967316e+01   1.7677451409e+01    0.1508415    0.1241467  86.20 0.0007044063    1.713    0.416
        46  -8.8077    209.0000    238.9995   8.7328636979e+01  -4.3011135583e+00    0.1745395   0.06635616 -38.61 0.0007884448    2.846    0.649
        47  -8.7505    182.2978    146.6553   7.4863804276e+01   1.6278399904e+01    0.1485633    0.1224418 -77.09 0.0007034795    1.673    0.402
        48  -8.9796    211.1665    228.1277   8.5121472642e+01  -3.0773609163e+00    0.1537987    0.1444525   2.11  0.000789517    1.354    0.262
        49  -9.6864    148.4881    144.0046   8.2073229546e+01   2.3699798755e+01    0.2402008    0.1509117 -46.72  0.001028083    1.585    0.369
        50  -9.7305    138.4065    144.1860   8.4632093021e+01   2.5664695150e+01    0.2205862    0.1470143 -58.52 0.0007668725    1.693    0.409
        51  -9.5707    123.6915    143.3345   8.8250680355e+01   2.8691832958e+01    0.1556577    0.1227529  83.59  0.000586328    1.674    0.403
        52  -9.9630    175.0287    139.9920   7.4902930440e+01   1.9114475353e+01    0.2360909    0.1935481 -76.36 0.0007404127    1.638    0.390
        53  -9.0694    167.6321    140.3026   7.6650331873e+01   2.0581184740e+01    0.1549787    0.1254685  86.89 0.0007033988    1.742    0.426
        54 -11.4172    200.4880    136.5813   6.8730827766e+01   1.4555337644e+01    0.3135826    0.1997974 -28.62  0.001151909    1.577    0.366
        55 -10.3882    226.7103    240.3828   8.4274193405e+01  -6.9524635863e+00    0.1883606    0.1346384 -35.08  0.000836958    1.647    0.393
        56  -8.9874    149.3034    136.6442   8.0141896697e+01   2.5151527813e+01    0.1577212    0.1262852 -85.38  0.000703956    1.713    0.416
        57  -9.1200    155.3396    135.6638   7.8434046030e+01   2.4117814141e+01    0.1587772    0.1268354 -89.10 0.0007051115    1.756    0.431
        58 -10.7669    182.7102    134.1133   7.1814623014e+01   1.8703640888e+01     0.248219    0.1897642 -53.99 0.0008797099    1.454    0.312
        59 -10.2638    173.5133    129.0639   7.2595463403e+01   2.1669218103e+01    0.2437743    0.1483525 -39.91  0.001031746    1.588    0.370
        60 -10.4040    181.4910    124.9862   6.9840506373e+01   2.0781820838e+01    0.2423517    0.1464949 -37.97   0.00103058    1.589    0.371
        61  -9.6967    218.4837    225.5509   8.3298079486e+01  -3.7773472372e+00    0.2298042    0.1150344 -36.38  0.001104678    2.055    0.513
        62  -9.2656    157.6901    120.3432   7.4045627958e+01   2.6888587431e+01    0.1587267    0.1266344 -79.96  0.000704497    1.698    0.411
        63  -9.1440    153.6585    115.3471   7.3714041535e+01   2.8816817738e+01    0.1624313    0.1271979 -82.95 0.0007045783    1.792    0.442
        64  -9.8157    223.9370    221.2194   8.1524322097e+01  -3.9496237140e+00    0.3359646    0.2647849  62.99  0.001882276    2.481    0.597
        65  -8.9236    135.3220     97.6568   7.3483454502e+01   3.6530045079e+01    0.1591155    0.1265046 -81.18 0.0007050286    1.728    0.421
        66  -9.2979    217.3089    220.4256   8.2626912152e+01  -2.8627112699e+00    0.1869073    0.1486901 -47.92 0.0007967298    1.772    0.436
