#   1 NUMBER                 Running object number                                     
#   2 MAG_AUTO               Kron-like elliptical aperture magnitude                    [mag]
#   3 X_IMAGE                Object position along x                                    [pixel]
#   4 Y_IMAGE                Object position along y                                    [pixel]
#   5 X_WORLD                Barycenter position along world x axis                     [deg]
#   6 Y_WORLD                Barycenter position along world y axis                     [deg]
#   7 A_WORLD                Profile RMS along major axis (world units)                 [deg]
#   8 B_WORLD                Profile RMS along minor axis (world units)                 [deg]
#   9 THETA_WORLD            Position angle (CCW/world-x)                               [deg]
#  10 FWHM_WORLD             FWHM assuming a gaussian core                              [deg]
#  11 ELONGATION             A_IMAGE/B_IMAGE                                           
#  12 ELLIPTICITY            1 - B_IMAGE/A_IMAGE                                       
         1 -13.9004    244.8008    157.9660   8.8330604994e+01  -2.5255707323e-03     3.261532    0.9327146 -46.43   0.01006178    4.046    0.753
         2 -13.1529    194.6882     31.2357   6.6669783846e+01   3.2608864382e+01     0.966966    0.8452048  39.07  0.005806231    1.385    0.278
         3 -13.9898    207.2964     15.0618   6.1286404613e+01   3.1461128135e+01     1.472928     1.023514  37.82  0.008085956    2.004    0.501
         4 -12.6974      3.5294      7.8518   1.1306057203e+02   7.1376324245e+01     1.033946    0.3014425 -37.66  0.005366934    2.630    0.620
         5 -10.6813    189.9192     15.9313   6.3516980953e+01   3.5553203242e+01    0.2084781    0.1739789  84.76 0.0009086765    1.020    0.019
         6 -10.5859    184.5312    250.1128   1.1744234952e+02  -4.6846963000e+00    0.3161425    0.1606026  33.28  0.001553504    1.763    0.433
         7 -11.5700    149.8529    248.3952   1.2403082076e+02   1.5551978217e+00    0.3943509    0.3506091  84.70  0.002571446    1.301    0.231
         8 -10.8345    143.1983    248.9980   1.2543011701e+02   2.6023044342e+00    0.2447814    0.1607181  48.76  0.000450854    1.282    0.220
         9 -11.5283    134.0434    248.9749   1.2723349763e+02   4.1770010869e+00    0.5793254    0.2479466  43.65  0.002668072    1.910    0.476
        10 -10.2116    126.7101    248.7220   1.2864325169e+02   5.4678884048e+00    0.3843929    0.2456207 -80.82  0.002022783    2.144    0.534
        11 -10.7922     98.6971    247.1268   1.3390157656e+02   1.0367313599e+01    0.5884079    0.2853888  67.33  0.002583085    2.718    0.632
        12 -10.1669    103.0413    247.2109   1.3307470334e+02   9.6568727909e+00    0.2749979    0.2017881  73.93  0.001111281    1.308    0.236
        13 -10.0591    121.7422    244.8883   1.2914257328e+02   6.9973609148e+00    0.4140183    0.1756499  55.53  0.001478239    2.536    0.606
        14 -12.0358    126.3539    240.4058   1.2764888628e+02   7.0340871531e+00    0.4638825    0.3842159  55.47  0.002294351    1.018    0.018
        15 -10.9168    115.0400    250.3244   1.3111254724e+02   7.1313205089e+00    0.4549119    0.3426448  36.31  0.001408732    1.375    0.273
        16 -11.6642    109.6251    247.4008   1.3182158026e+02   8.5529896279e+00    0.5311481    0.4655443 -77.14   0.00292132    1.287    0.223
        17  -9.4910     89.3233    250.7249   1.3605778350e+02   1.1161700556e+01    0.2455805    0.1081807  42.07 0.0005874017    1.960    0.490
        18 -10.9137     87.8210    247.6166   1.3602453411e+02   1.1973993348e+01    0.4334181    0.2935917  40.79  0.001631956    1.459    0.314
        19 -10.9039     53.7182    241.7650   1.4179879786e+02   1.8002848115e+01    0.4325576    0.2057809 -81.03  0.002281731    2.141    0.533
        20 -11.4090     59.9602    245.4907   1.4098282737e+02   1.6434629343e+01    0.4448226    0.2768669 -77.80  0.001548715    1.556    0.357
        21 -10.9901     66.9814    244.1213   1.3957917773e+02   1.5720369077e+01    0.4386673    0.2641052  26.09  0.002246438    2.703    0.630
        22 -13.1216     20.6382    166.0648   1.4140485883e+02   3.8231167879e+01      1.10357     0.673241 -50.56   0.00637201    1.784    0.439
        23 -13.4808     11.3465    153.4085   1.4220358078e+02   4.1928021875e+01     1.524686    0.5208545 -78.47  0.006382778    2.812    0.644
        24 -12.3861     63.1719    221.3959   1.3812666296e+02   2.0854577362e+01     1.141372    0.4539381 -74.53  0.003766215    2.731    0.634
        25 -14.0470      3.1102    183.6419   1.4673038910e+02   3.5834385420e+01     4.276764    0.3986375 -73.36   0.01168983    7.235    0.862
        26 -14.1528      9.9262    209.7471   1.4733479328e+02   2.9626207603e+01     2.156912     1.120678 -71.04   0.01314655    1.654    0.395
        27 -14.4576     31.5314    244.3116   1.4589262483e+02   2.0304531301e+01     2.181804     1.100663  50.31   0.01337115    1.635    0.388
        28 -12.5945     13.6898    238.8114   1.4854314053e+02   2.3380031145e+01    0.5741264    0.2634082  59.24  0.003470119    1.746    0.427
        29 -13.0171     37.8626    228.4746   1.4360604080e+02   2.2683597099e+01    0.6202981    0.3440323  55.73   0.00167134    1.518    0.341
        30 -14.5647     44.3715    218.8349   1.4156711146e+02   2.3882168583e+01     1.503974      1.34148 -58.21    0.0105464    1.523    0.343
        31  -9.8515    136.4635    227.5056   1.2378204689e+02   7.6855848827e+00    0.3597668    0.1669462 -38.79  0.001397722    3.371    0.703
        32 -11.8265    135.5675    241.2900   1.2591193964e+02   5.2785825340e+00    0.5409456    0.3995922   0.87  0.002796137    2.283    0.562
        33 -11.8829    135.4766    236.3452   1.2525048022e+02   6.1973679550e+00    0.4638073     0.354461  23.37  0.001695447    1.562    0.360
        34 -10.0170     84.5293    229.6048   1.3474306087e+02   1.6012340550e+01    0.2635895    0.2206749  56.08 0.0008893532    1.149    0.130
        35 -10.6141     84.9477    234.4647   1.3519451477e+02   1.4968345629e+01    0.4004826    0.2149712 -89.07  0.001551533    2.391    0.582
        36 -11.3861     98.4881    231.8314   1.3219520761e+02   1.3356034991e+01     0.465306    0.2844557 -78.07 0.0004317319    1.856    0.461
        37 -11.3710     90.6322    239.6669   1.3464745851e+02   1.3061854781e+01     0.670911    0.3283478 -87.07  0.002379685    3.244    0.692
        38 -11.3216     96.9185    239.8713   1.3344121568e+02   1.2029542508e+01    0.4031639    0.3195903  33.06  0.002295588    1.496    0.332
        39 -10.5800    112.7634    230.1524   1.2907478823e+02   1.1319245875e+01    0.3199377    0.1995258  45.32  0.000553686    1.393    0.282
        40 -11.7174    105.7584    228.8597   1.3034896137e+02   1.2755186597e+01    0.6719877    0.3674983  55.46  0.003305612    1.696    0.410
        41 -10.3117     77.3681    220.8273   1.3520605259e+02   1.8920125470e+01    0.2430166    0.1833182  67.93 0.0004923681    1.131    0.116
        42 -10.3181     79.8102    227.9745   1.3550571113e+02   1.7065462438e+01    0.3667496    0.2875168 -29.09  0.001287557    2.198    0.545
        43  -9.9741     78.9759    224.5416   1.3529500608e+02   1.7900673683e+01    0.2605274    0.2016084 -55.39 0.0008063393    1.568    0.362
        44 -10.1947     74.6170    241.7007   1.3792773174e+02   1.5090603574e+01     0.327399    0.2497045 -82.62   0.00214086    1.287    0.223
        45  -9.6282     84.0522    242.1341   1.3617875935e+02   1.3597296997e+01    0.1794921    0.1557447  53.57   0.00120293    1.240    0.193
        46 -11.0845    172.9897    240.5123   1.1824944909e+02  -1.1756041507e+00     0.281639    0.2016856  59.70  0.001544624    1.629    0.386
        47 -10.7023    116.5842    238.6734   1.2939022686e+02   9.0239898783e+00    0.3921286    0.2789426 -31.22  0.002069342    2.271    0.560
        48 -13.8527      5.3714    245.2432   1.5025191047e+02   2.3023117068e+01     1.169767    0.6033225  81.08  0.007702723    1.514    0.340
        49 -10.5226    104.4269    237.7067   1.3170499469e+02   1.1233644607e+01    0.2412613    0.1716678  53.61 0.0006978868    1.172    0.147
        50  -9.1089     82.7319    238.3914   1.3604454502e+02   1.4528477822e+01    0.2800273    0.1033315  41.73  0.001233939    2.363    0.577
        51 -11.2418    133.9913    232.6995   1.2504390938e+02   7.1393654796e+00    0.2507471     0.241827 -33.27 0.0009090572    1.271    0.213
        52  -9.2814    121.3749    240.7623   1.2869442954e+02   7.8195716101e+00     0.257912    0.1236345 -56.67 0.0007852166    2.400    0.583
        53  -9.2731    156.0265    236.5228   1.2107599709e+02   2.5151209886e+00    0.2108987    0.1148769  42.37 0.0005894559    1.558    0.358
        54 -10.8764    165.0702    242.1335   1.2008798595e+02  -5.1280169561e-02    0.3712811    0.1619672  44.04  0.001175278    1.947    0.486
        55  -9.4947     55.0997    235.6255   1.4102134410e+02   1.9033773516e+01    0.3379142    0.1781985  71.99  0.001539748    1.864    0.463
        56 -10.4165    165.8869    234.8699   1.1880915932e+02   1.0377740662e+00    0.2039669     0.173045  18.20 0.0006669229    1.239    0.193
        57 -11.1740    122.3909    233.1650   1.2749480915e+02   9.0813493683e+00    0.3692249    0.3025312 -53.74  0.001580257    1.437    0.304
        58  -9.0698     78.0643    233.3498   1.3642493330e+02   1.6235168724e+01    0.1904918     0.154644 -70.53  0.000622605    1.352    0.260
        59 -10.9163    156.7611    231.5810   1.2017236361e+02   3.2615493916e+00    0.2355673    0.2288662  29.82  0.000316974    1.136    0.120
        60 -10.0732     63.0030    233.0510   1.3930110642e+02   1.8471463662e+01    0.1791112    0.1458818  70.82 0.0002961269    1.073    0.068
        61  -8.9648     92.3962    232.2402   1.3346794203e+02   1.4250712815e+01    0.1729885    0.1140424 -83.32 0.0009473034    1.622    0.383
        62 -10.5825    142.0814    229.9959   1.2297662866e+02   6.2037564360e+00    0.3569032    0.2452095 -29.31  0.001448428    2.118    0.528
        63  -9.0313     57.4706    230.9809   1.4016021233e+02   1.9652296962e+01    0.1684254    0.1061572 -77.17 0.0009093395    1.493    0.330
        64  -9.0662    180.2500    229.1825   1.1495608301e+02  -5.7022367057e-01    0.2169762    0.1536956  69.89  0.001065809    2.126    0.530
        65  -9.6367    197.3491    226.5412   1.1104168626e+02  -3.1829223351e+00     0.302839    0.2224466  71.44  0.001458902    2.245    0.555
        66 -10.1847    165.8953    226.5138   1.1747517261e+02   2.5074942645e+00    0.3041625    0.2188296 -89.84  0.001479128    2.237    0.553
        67 -10.5957     92.5137    226.1198   1.3272650035e+02   1.5472803787e+01    0.2961868    0.1878217  57.80 0.0008993888    1.400    0.286
        68 -10.5051    132.2217    224.3913   1.2421667652e+02   9.0506976541e+00    0.2778176    0.2369131 -48.93   0.00163794    1.370    0.270
        69  -9.4668    129.3288    220.9428   1.2432209863e+02   1.0252383235e+01    0.2440634    0.1890067 -84.02  0.001336521    1.480    0.324
        70 -10.9378     99.3090    223.4891   1.3100272033e+02   1.4913734081e+01    0.4115827    0.2756125  63.52  0.000446974    1.406    0.289
        71 -10.7428    138.3383    214.4295   1.2138582439e+02   9.9141072947e+00    0.5368987    0.4160152  44.80  0.001506887    1.158    0.137
        72  -8.9511    147.2635    225.3297   1.2118656608e+02   6.1421676080e+00    0.1711905    0.1302076 -64.12 0.0002374201    1.544    0.352
        73 -11.0997    141.9501    221.7542   1.2175766645e+02   7.7998071683e+00    0.3207219    0.2568274  25.71 0.0003849392    1.381    0.276
        74 -10.6324    117.3410    224.2962   1.2733887682e+02   1.1699707254e+01    0.2430839     0.213054  56.51 0.0002632609    1.055    0.052
        75 -10.8104    159.4255    223.7211   1.1837397844e+02   4.2067090524e+00    0.5398486      0.19984  40.51  0.001840867    2.394    0.582
        76 -11.3238     72.9757    209.9825   1.3487165504e+02   2.1901858583e+01    0.4547287    0.3192126  24.53  0.001631349    1.999    0.500
        77 -10.7346     70.4960    218.4790   1.3634610840e+02   2.0430844804e+01    0.5013062    0.2614137 -72.13  0.002502171    1.906    0.475
        78  -9.7716     68.0013    214.7062   1.3644319345e+02   2.1597864579e+01    0.2029529    0.1417745  53.41 0.0005296327    1.282    0.220
        79  -9.7033    110.7782    220.9406   1.2826325968e+02   1.3513767894e+01    0.3769081    0.1095916 -57.59  0.001321305    3.721    0.731
        80  -9.5766    104.8791    218.6841   1.2920844788e+02   1.4983408873e+01    0.1986504    0.1763636 -71.19 0.0002458884    1.227    0.185
        81  -9.9998     99.8053    217.4446   1.3012047304e+02   1.6090999404e+01    0.2329107    0.2081918 -28.72 0.0009160356    1.558    0.358
        82  -9.0974     93.8578    217.2868   1.3135835706e+02   1.7098124501e+01    0.2499781    0.1480628 -85.44  0.001187098    2.045    0.511
        83  -8.8521    119.3411    217.2061   1.2591284252e+02   1.2791762529e+01    0.1795269    0.1261451 -73.39 0.0003346399    1.601    0.375
        84 -10.5483    193.8692    245.2187   1.1485016995e+02  -5.5211208757e+00    0.2058531    0.1776333 -11.77 0.0003134385    1.255    0.203
        85  -9.7892     88.1426    212.8231   1.3200356041e+02   1.8967424694e+01    0.2510319    0.1784605 -76.86 0.0007475177    1.398    0.285
        86  -9.5339    101.7870    211.7401   1.2892964345e+02   1.6972816530e+01    0.3081439    0.1349605  57.41  0.001185618    2.672    0.626
        87 -10.6336    107.2672    209.4143   1.2740993005e+02   1.6540469803e+01    0.3672054    0.2585982 -34.52  0.001563126    2.088    0.521
        88 -10.9500    112.4988    208.2934   1.2609771646e+02   1.5872002327e+01    0.3084764    0.2449013  48.27  0.000351697    1.163    0.140
        89  -9.2919    134.9166    208.0048   1.2110304860e+02   1.1864250765e+01    0.2204728    0.1780169   0.37 0.0008645255    1.748    0.428
        90 -11.5619     93.2860    203.2450   1.2961894684e+02   2.0235849848e+01    0.6145886    0.4988045  85.53  0.003058055    1.161    0.139
        91  -9.9378    222.7797    244.9863   1.0925253619e+02  -1.0197161704e+01    0.1898677    0.1167026  18.67  0.001035316    1.605    0.377
        92  -9.0731     32.8734    206.9124   1.4275153735e+02   2.7807996527e+01     0.169175    0.1365076 -73.94 0.0003669889    1.282    0.220
        93 -10.9672    250.0924    201.8882   9.6333302617e+01  -8.2041032843e+00    0.5012225    0.2164614 -27.26  0.002111254    2.607    0.616
        94  -9.2593    125.8780    205.4018   1.2268859993e+02   1.4085654198e+01    0.2354634    0.1927555 -84.38 0.0007140927    1.313    0.238
        95 -10.1427    145.2824    221.6940   1.2104010996e+02   7.1995263923e+00    0.2467922    0.1871919  66.94 0.0004406098    1.442    0.306
        96  -9.8206    102.8843    202.9395   1.2744276511e+02   1.8701113238e+01    0.3702741    0.2326863  53.34  0.001832251    1.485    0.326
        97  -9.3784    166.9088    203.1322   1.1322874085e+02   6.7165139293e+00    0.2104169    0.1819116  58.04            0    1.190    0.159
        98  -9.0125    133.0021    202.6913   1.2065621795e+02   1.3337620616e+01    0.2030692    0.1767485  50.50 0.0004222818    1.054    0.051
        99  -9.1868     75.8458    202.8578   1.3339459041e+02   2.3050768880e+01    0.2587146    0.1738471  12.52  0.001183599    2.819    0.645
       100  -9.5058     64.0180    202.1135   1.3585598476e+02   2.4924898436e+01    0.2063983      0.18575  17.56 0.0008687854    1.560    0.359
       101 -10.4702     32.6691    201.8417   1.4233930891e+02   2.8935067794e+01    0.1968841    0.1631158  74.34 0.0003278367    1.123    0.109
       102  -9.3394    196.7961    200.5891   1.0639424927e+02   1.4129292353e+00     0.200247    0.1284424  49.58  0.000943844    1.637    0.389
       103  -8.7160    182.9857    200.4853   1.0927429189e+02   4.0935548270e+00    0.1854812    0.1218763  64.19 0.0003790299    2.148    0.535
       104  -9.7859    115.0467    200.1087   1.2428173637e+02   1.7196946398e+01    0.2084749    0.1873348  68.11 0.0002780844    1.007    0.007
       105 -10.0473    122.8357    250.0598   1.2956659932e+02   5.8825121052e+00     0.358306    0.1910057  43.21  0.001854498    1.556    0.357
       106  -9.2597    119.9808    199.3053   1.2303702609e+02   1.6480715214e+01    0.2025158    0.1684406  53.76 0.0002656894    1.100    0.091
       107  -9.9443     86.1064    196.9697   1.3035125577e+02   2.2797191831e+01    0.4193158    0.1776448 -63.65  0.001382234    2.372    0.578
       108  -9.6900     53.1665    198.3431   1.3774616350e+02   2.7229386175e+01    0.2713914    0.1740884  52.98 0.0007819189    1.455    0.313
       109  -9.9465     98.8749    197.0093   1.2747281289e+02   2.0701551980e+01    0.5263846    0.2387561  53.94  0.001416181    2.337    0.572
       110  -9.6090    102.6578    195.7899   1.2642860585e+02   2.0332626662e+01    0.1978134    0.1918335 -72.51 0.0005165255    1.191    0.160
       111  -9.0751    134.2918    197.7038   1.1952382640e+02   1.4158613495e+01     0.146267    0.1086754  73.66 0.0002231851    1.558    0.358
       112 -10.8548    249.5487    194.2314   9.4932553798e+01  -6.9207826445e+00    0.3380612    0.2874547   0.01  0.002115513    1.045    0.043
       113 -10.2733    113.0441    193.4805   1.2368204320e+02   1.9027253527e+01    0.5346903    0.2497553 -63.42  0.001273484    2.442    0.591
       114 -11.6834     69.1971    187.4346   1.3288643384e+02   2.7535674961e+01    0.3008733    0.2506744 -54.92 0.0005301607    1.351    0.260
       115 -11.1878     38.1180    193.8977   1.4046090303e+02   3.0073520368e+01    0.4503775    0.2175905 -61.80  0.001066764    1.915    0.478
       116  -9.6090     40.6978    188.1539   1.3931508625e+02   3.1070985594e+01    0.2373318    0.1564677 -83.28  0.001048643    1.311    0.237
       117  -9.0812     31.6761    195.4344   1.4194880462e+02   3.0459179647e+01    0.2379063   0.06408955  48.11 0.0009424297    3.413    0.707
       118  -9.5846    159.9042    194.2155   1.1312367672e+02   9.8914346889e+00    0.2200768    0.1904873  59.72 0.0003730775    1.173    0.147
       119  -8.8753    133.4972    194.4504   1.1914275815e+02   1.5013271090e+01    0.1469016    0.1355298  56.37 2.915532e-05    1.022    0.021
       120  -9.7795    120.4319    192.8208   1.2186837051e+02   1.7829039056e+01    0.3831591    0.2277663 -57.19  0.001542829    1.757    0.431
       121  -8.7769    117.9932    190.0135   1.2196185991e+02   1.8906652358e+01    0.1706107    0.1574544  82.38 0.0009538503    1.042    0.041
       122  -9.5046     72.7677    193.1122   1.3282734225e+02   2.5710409059e+01    0.1953027     0.158009  79.98 0.0003684459    1.098    0.090
       123  -9.3004     25.6790    192.4926   1.4290728475e+02   3.1757764342e+01    0.2211514    0.1401329  68.05  0.001029915    1.431    0.301
       124  -9.4767     20.2567    191.6445   1.4393702718e+02   3.2500659196e+01     0.276908    0.1461659  72.44   0.00150383    1.847    0.458
       125  -9.9360    191.5498    191.4016   1.0569245947e+02   4.1450009537e+00    0.2656192    0.2365917  14.13 0.0006885308    1.107    0.096
       126 -10.6823     57.2846    194.9835   1.3648018005e+02   2.7447276820e+01    0.6322571    0.2715193 -68.17  0.002873653    2.149    0.535
       127  -9.8292     32.2728    189.8365   1.4128592390e+02   3.1644107778e+01    0.3270955    0.2191721  43.25  0.002001513    1.573    0.364
       128  -9.1261    135.2605    190.0796   1.1796503526e+02   1.5628087486e+01    0.1985414    0.1852229 -88.62 0.0003436324    1.087    0.080
       129 -10.5561    236.5545    145.9553   8.7181959502e+01   3.7280552726e+00     0.411017    0.2407312  40.85  0.001346664    1.867    0.464
       130 -12.4155    248.0971    171.9734   9.0690305850e+01  -3.0183291918e+00    0.7945229    0.4729269 -32.58  0.003963633    1.561    0.359
       131 -10.7645    169.8697    248.3168   1.2005436727e+02  -1.8984917375e+00    0.3475386    0.2355188  10.20 0.0008113147    2.054    0.513
       132 -11.4901     63.6280    194.9313   1.3508711821e+02   2.6598424004e+01    0.3486462     0.260371 -50.70  0.001508907    1.589    0.371
       133 -12.8497    248.1264    101.7586   7.5582919185e+01   9.2826990235e+00     1.037488    0.4778238 -37.93  0.004426475    2.022    0.505
       134  -9.6063    140.1133    183.1441   1.1556071394e+02   1.6203856000e+01    0.2265112    0.2110166  63.51 0.0002994667    1.024    0.023
       135  -8.8119     74.2449    184.6495   1.3134516997e+02   2.7448770415e+01    0.1401524   0.09429076  81.15 0.0003615345    1.582    0.368
       136  -9.3307     37.3685    183.9235   1.3958506469e+02   3.2417593714e+01    0.2193999    0.1452082  52.24  0.001291031    1.483    0.326
       137  -9.8358     30.3526    183.8519   1.4109772346e+02   3.3202865405e+01    0.1983198    0.1438754  63.58 0.0006350855    1.291    0.225
       138 -10.0187     24.2631    184.1674   1.4242666926e+02   3.3763864494e+01    0.2026411    0.1566619  58.79 0.0004504861    1.281    0.219
       139  -9.4550    126.3081    180.6422   1.1835210132e+02   1.9464265061e+01      0.33024    0.1909005 -71.17 0.0008937189    2.331    0.571
       140  -9.1606    143.2977    184.6910   1.1511106265e+02   1.5230150519e+01    0.2314018    0.1901818  43.62 0.0005450889    1.159    0.137
       141  -9.4617    115.5527    177.9103   1.2043374137e+02   2.2121874025e+01    0.3133077    0.1906239 -57.56  0.001404247    1.671    0.402
       142  -8.9522     47.9623    179.7944   1.3675477084e+02   3.2127015773e+01    0.1540038    0.1011468  38.03 0.0005675862    1.665    0.400
       143  -9.4593     20.0378    179.1757   1.4284932508e+02   3.5304970826e+01    0.1716925    0.1401775 -66.90 0.0004637656    1.273    0.215
       144 -10.0521     12.4668    178.7950   1.4441582935e+02   3.6093050765e+01    0.2106096    0.1619095 -57.36 0.0008498468    1.455    0.313
       145 -10.7149     11.5391    173.9322   1.4417645739e+02   3.7262777327e+01    0.3855587    0.1621202 -61.76  0.001619193    2.019    0.505
       146  -9.0513     92.7726    178.2241   1.2598800848e+02   2.6052667097e+01    0.1733983    0.1653951 -33.09 0.0002066751    1.276    0.216
       147  -8.9360    182.4757    176.5359   1.0461196586e+02   8.9174498870e+00    0.1494822    0.1440169  54.46 0.0002599553    1.077    0.071
       148 -11.6544     78.1274    175.2161   1.2904711234e+02   2.9087268718e+01    0.3273217    0.2822637  45.97  0.001898351    1.231    0.188
       149  -8.8669     68.6011    175.8011   1.3141896741e+02   3.0345646618e+01    0.2568372    0.1582814 -81.82 0.0005452101    1.694    0.410
       150 -10.9707     64.9377    173.7947   1.3200717296e+02   3.1333134996e+01    0.4970768    0.2922511 -44.74     0.002024    2.078    0.519
       151  -8.5993    121.5653    175.5313   1.1854596846e+02   2.1542527734e+01    0.1501621    0.1397173  76.00 7.863765e-05    1.018    0.017
       152  -9.1732     85.2256    174.0258   1.2713986551e+02   2.8269342443e+01    0.1962131    0.1732268  88.65            0    1.029    0.028
       153  -9.4316    107.3798    172.8084   1.2150719428e+02   2.4805615203e+01    0.2045553    0.1740333  68.63 0.0006219487    1.148    0.129
       154  -9.1006     91.1295    172.7924   1.2549509354e+02   2.7608475108e+01    0.2361585    0.1887121 -49.12 0.0005563867    1.354    0.261
       155 -11.9891     86.6366    166.9607   1.2562839062e+02   2.9729648591e+01    0.6472273     0.501644  46.06  0.003454337    1.307    0.235
       156 -10.2965     28.3636    170.9609   1.4018245385e+02   3.6358054633e+01     0.424356    0.2102237 -68.64  0.001954885    1.665    0.399
       157  -8.8664     52.5238    170.9703   1.3457786786e+02   3.3632237407e+01    0.1864149    0.1150066 -68.05 6.905173e-05    1.429    0.300
       158  -9.1543     95.1305    172.5105   1.2446519081e+02   2.7009319564e+01    0.2048491    0.1380164  44.16 0.0005230556    1.472    0.321
       159  -8.3064    166.7406    170.6408   1.0688460064e+02   1.3452402145e+01    0.1533303    0.1211087  -9.62 0.0001722603    1.625    0.384
       160  -8.8117    100.5188    170.5204   1.2279104506e+02   2.6559365043e+01    0.1470986    0.1356212  84.47 0.0008100395    1.000    0.000
       161 -10.5651     43.6541    169.1451   1.3643933562e+02   3.5127402183e+01    0.3468978    0.2621659 -38.26  0.001209679    1.723    0.420
       162 -10.3559     44.9121    165.1487   1.3562680690e+02   3.5923196106e+01    0.2740849     0.195531  83.00 0.0003133012    1.361    0.265
       163  -9.1974    126.5417    167.6895   1.1582844472e+02   2.2396076819e+01    0.2657397    0.1763047  62.17 0.0007360259    1.727    0.421
       164  -9.7551     68.8690    166.9383   1.3004084711e+02   3.2416795083e+01    0.2117765    0.1788384 -87.09 0.0005384358    1.070    0.066
       165  -8.8330     58.4903    167.5059   1.3266739367e+02   3.3692276379e+01    0.1365046    0.1164393 -87.94 3.374227e-05    1.026    0.025
       166  -8.8362     53.8628    164.8498   1.3341905260e+02   3.4915765482e+01    0.1835369    0.1369274  85.69 0.0003938013    1.292    0.226
       167  -9.7799     33.0765    164.7981   1.3839356960e+02   3.7304785955e+01    0.2330905    0.1523225 -68.79 0.0003649177    1.288    0.224
       168  -8.7914     37.2919    162.6940   1.3713753343e+02   3.7352040962e+01    0.1967648    0.1055966  45.30 0.0008363893    1.949    0.487
       169  -9.1153     40.4791    161.6116   1.3623312800e+02   3.7259528059e+01    0.2011214    0.1500863 -63.59 0.0004949258    1.216    0.177
       170 -10.5587     89.5134    159.4676   1.2359025939e+02   3.1063420787e+01     0.447228    0.2481754 -72.61  0.001269504    2.134    0.531
       171  -9.5878     78.9758    158.6781   1.2615484829e+02   3.2918997051e+01    0.1897053    0.1757331  78.14  0.001102848    1.064    0.060
       172  -9.6870     73.5261    159.5222   1.2769098390e+02   3.3528373949e+01    0.2568831    0.1512584 -41.45 6.862296e-05    2.079    0.519
       173  -9.5365     72.4082    156.5282   1.2747727741e+02   3.4412785830e+01    0.3597549    0.1808235  33.74  0.001565875    2.211    0.548
       174  -9.0377    112.3877    157.7481   1.1739680976e+02   2.7453335771e+01    0.1926037    0.1405553 -47.78 0.0002851591    1.405    0.288
       175  -8.9047     52.4905    158.4502   1.3284223870e+02   3.6611361299e+01    0.1338246    0.1157797 -78.05 0.0001158811    1.025    0.025
       176  -8.9446     47.8310    158.1147   1.3395617611e+02   3.7250562068e+01    0.1777699     0.138954 -52.51 0.0002339243    1.321    0.243
       177 -11.5101     31.7888    156.0258   1.3762534859e+02   3.9488149680e+01    0.4484543    0.2363011 -50.18  0.002172171    1.944    0.486
       178 -10.7898     23.6143    149.7507   1.3884131135e+02   4.1730935025e+01    0.2468681    0.1747072 -83.90 0.0007152823    1.228    0.185
       179  -9.2864    228.4136    155.6340   9.0767755587e+01   3.5615201104e+00    0.2617499     0.130484 -44.16 0.0006593482    1.955    0.488
       180 -10.9310     98.7652    151.2416   1.1962929672e+02   3.1478425105e+01    0.4296719    0.3491135 -43.29  0.001682971    1.307    0.235
       181  -9.9024    113.8612    150.6450   1.1556231099e+02   2.8863704288e+01     0.320319    0.2368481 -65.08 0.0004900545    1.401    0.286
       182  -9.5862    102.0240    146.2602   1.1775857574e+02   3.2098064203e+01    0.3646317    0.2232691 -28.53  0.001417954    2.538    0.606
       183 -10.8246     55.9818    150.0932   1.3067770602e+02   3.8180267078e+01    0.3572012    0.2988359  83.73  0.001507767    1.170    0.145
       184  -8.9851     52.7219    146.3133   1.3092745561e+02   3.9487499840e+01    0.1848944    0.1729763  75.10 0.0002837705    1.133    0.117
       185  -9.3668     86.6888    150.4059   1.2265142326e+02   3.3708434533e+01     0.260781    0.1685995 -70.25 0.0006399078    1.617    0.382
       186 -12.5595     68.1000    144.5142   1.2652605621e+02   3.7923440645e+01    0.7434779    0.5356446  79.72  0.002812002    1.617    0.382
       187 -11.6347     73.7865    139.2466   1.2400284695e+02   3.8382805589e+01    0.6341798    0.4399741 -75.65  0.003150041    1.530    0.346
       188  -9.5434     56.1667    138.9029   1.2876844371e+02   4.0840604539e+01    0.2207653    0.1991426  20.83 0.0003962106    1.318    0.241
       189 -11.2568     60.7443    136.9353   1.2716394647e+02   4.0732004037e+01    0.3287835    0.2564102  89.73  0.001813486    1.368    0.269
       190 -12.4761     23.1480    155.2414   1.3961529351e+02   4.0497903188e+01    0.5502828    0.4273345 -81.00  0.003593743    1.046    0.044
       191 -10.7461     39.6162    146.6707   1.3439794430e+02   4.0888002761e+01    0.2857031     0.176648  56.42  0.001022508    1.817    0.450
       192  -8.7873     88.2983    146.3361   1.2143933958e+02   3.4429611543e+01    0.1470571    0.1121943 -28.46 0.0007032635    1.654    0.396
       193 -10.5782    133.3325    141.6753   1.0856168525e+02   2.7067313300e+01    0.6537405    0.2632037 -51.17   0.00220829    2.554    0.608
       194 -11.4597     32.5894    140.1323   1.3527841114e+02   4.3143549546e+01    0.3318358    0.2004415 -83.63 0.0008973817    1.673    0.402
       195 -11.3352      9.0287    136.9501   1.4091643676e+02   4.5858763779e+01    0.2375898     0.190408 -25.76 0.0007453603    1.607    0.378
       196 -11.8428     17.8375    139.2130   1.3896597227e+02   4.4667238279e+01    0.3858783    0.2716084  47.34 0.0009493976    1.611    0.379
       197 -10.5159     12.7130    137.3455   1.4003409402e+02   4.5497363333e+01    0.2247226    0.1261736 -82.43 0.0008374274    1.627    0.386
       198 -10.3000     25.9338    139.6975   1.3695094654e+02   4.3864838468e+01    0.1714575    0.1517779 -80.03 0.0009156822    1.094    0.086
       199 -10.8189     47.6852    137.9382   1.3091166143e+02   4.2077609369e+01    0.3909818    0.1987441  23.51  0.001790393    2.556    0.609
       200  -9.9959    110.3394    136.2654   1.1336639046e+02   3.2944257296e+01    0.3220813    0.2490587 -14.69  0.001058269    1.749    0.428
       201 -11.6996      2.0126    131.5156   1.4204944779e+02   4.7562779650e+01     0.490831    0.2432736 -80.18  0.002664415    1.760    0.432
       202 -12.4376     11.0290    127.7477   1.3925089378e+02   4.7811051768e+01    0.5945899    0.3190231  10.50  0.003208628    2.707    0.631
       203 -10.1991     80.5527    132.5863   1.2079019718e+02   3.8964400344e+01    0.2913556     0.212031  61.11 0.0001019124    1.594    0.373
       204 -11.3352     44.8533    131.3151   1.3057856474e+02   4.3963284671e+01    0.4201213    0.2900578 -73.26  0.001837005    1.350    0.259
       205 -10.8428     33.5909    131.7301   1.3375079322e+02   4.5018645215e+01    0.2769313    0.1903258  16.95   0.00108201    1.881    0.468
       206 -11.7825     31.7076    126.9230   1.3351130029e+02   4.6318314400e+01    0.3586614    0.2617441  60.85  0.002126555    1.592    0.372
       207 -10.0716     76.9881    188.6420   1.3126805125e+02   2.6112266143e+01    0.2357828    0.1990574 -83.95 0.0002923279    1.079    0.073
       208 -11.6704     67.4626    128.4117   1.2364812307e+02   4.1870281148e+01    0.4350371    0.3752491 -39.48  0.002509288    1.192    0.161
       209  -9.5871    116.2991    128.9925   1.1006753945e+02   3.3491550045e+01    0.3229385     0.206718  12.76   0.00118722    2.747    0.636
       210  -9.1019    106.0000    128.0254   1.1265813417e+02   3.5698884681e+01    0.2636287   0.08439209 -51.10 0.0008152011    3.032    0.670
       211 -12.7798     20.3088    121.8054   1.3589080738e+02   4.8474953229e+01    0.6252877    0.3888696  -3.91  0.003436627    2.373    0.579
       212 -10.4119    209.9048    125.8120   8.7478893233e+01   1.3178936054e+01    0.3151346     0.231404 -37.51 0.0005195707    1.339    0.253
       213  -9.1934    234.2780    125.3472   8.2998647469e+01   7.9689422150e+00    0.1430563    0.1122527  -5.43 0.0004083255    1.636    0.389
       214  -9.5887     38.0058    121.6390   1.3084274006e+02   4.6943994441e+01    0.1683476    0.1571537 -58.37 0.0004653435    1.110    0.099
       215 -11.6962     31.7563    120.3157   1.3241181746e+02   4.7845511262e+01     0.421349    0.2747493  65.19  0.002272332    1.977    0.494
       216 -10.4596     54.8777    120.8036   1.2577512190e+02   4.5288444874e+01    0.2897856    0.2012011  27.88  0.001081523    1.657    0.396
       217 -11.4833      9.7313    120.5481   1.3863093237e+02   4.9531203563e+01    0.4415092    0.1479737  18.82  0.001932544    4.007    0.750
       218 -12.3741    248.5676    132.7058   8.2269870504e+01   3.7577603979e+00     1.177792    0.6194588 -29.44  0.005073588    2.088    0.521
       219 -11.9220     14.9982    114.4322   1.3626666669e+02   5.0546396585e+01    0.2724206    0.2466403 -71.27 0.0004745194    1.138    0.121
       220 -10.9859    249.5818    150.9319   8.6019408516e+01   3.4806807579e-01    0.5072398    0.3079954 -42.57  0.002106804    1.521    0.342
       221  -9.4591    203.5067    111.5145   8.5266842223e+01   1.7414225224e+01    0.1510108    0.1472319 -60.87 -1.478725e-06    1.030    0.029
       222 -10.1493     31.6308    110.8840   1.3078879750e+02   5.0017477637e+01    0.1957512    0.1676915 -19.68 0.0006179727    1.320    0.242
       223 -11.0104    168.1477    113.3840   9.3091709363e+01   2.5440667159e+01    0.3782081    0.3207555 -78.26 0.0009415083    1.329    0.247
       224  -8.7154     76.3062    115.3634   1.1825083514e+02   4.3663062139e+01    0.1505107    0.1043407 -27.02 0.0007038266    1.740    0.425
       225  -9.5168     62.5031    107.4825   1.2063009352e+02   4.7404737268e+01    0.1363344    0.1243807 -58.99 0.0008092147    1.078    0.073
       226 -11.1667     15.0379    104.1160   1.3459346885e+02   5.2848296266e+01    0.2405767     0.140614   4.72  0.001347701    2.311    0.567
       227 -10.5124     17.5858     99.1196   1.3293881692e+02   5.3771417723e+01    0.1714789    0.1640413  65.55 0.0003794575    1.278    0.217
       228 -13.3280    247.5236    116.1775   7.8830236559e+01   6.8914171161e+00     1.834398    0.9313025 -26.28  0.007217869    2.669    0.625
       229  -9.7114     42.8420     91.9322   1.2331250661e+02   5.3152823006e+01    0.1969039    0.1491804 -34.62 0.0003004977    1.222    0.182
       230  -8.9386     24.0141     88.2367   1.2873553849e+02   5.5651325405e+01    0.1397184    0.1025617  14.26 0.0004274423    1.603    0.376
       231 -11.6597    248.0096    142.4166   8.4459141117e+01   2.1430380239e+00    0.6552815    0.5565167 -10.42  0.003762258    1.253    0.202
       232  -9.7227     77.9873     85.0605   1.0994358907e+02   5.0041234728e+01    0.2021251    0.1847069 -22.54            0    1.003    0.003
       233  -9.3089     63.9762     76.5286   1.1213273837e+02   5.3818267489e+01    0.1939536    0.1588169 -35.08  0.001145588    1.097    0.088
       234 -10.0156     81.5263    246.6162   1.3710890988e+02   1.3118497884e+01    0.4233707    0.2327103  89.30  0.002184656    2.176    0.541
       235 -11.0179    201.0543    246.4012   1.1364094100e+02  -6.8975913370e+00    0.3491708    0.1865954  52.23 0.0007625289    2.362    0.577
       236 -10.2947     69.1408    247.1651   1.3945769377e+02   1.4827576216e+01    0.2502417   0.08633365  35.44  0.000785309    3.487    0.713
