#   1 NUMBER                 Running object number                                     
#   2 MAG_AUTO               Kron-like elliptical aperture magnitude                    [mag]
#   3 X_IMAGE                Object position along x                                    [pixel]
#   4 Y_IMAGE                Object position along y                                    [pixel]
#   5 X_WORLD                Barycenter position along world x axis                     [deg]
#   6 Y_WORLD                Barycenter position along world y axis                     [deg]
#   7 A_WORLD                Profile RMS along major axis (world units)                 [deg]
#   8 B_WORLD                Profile RMS along minor axis (world units)                 [deg]
#   9 THETA_WORLD            Position angle (CCW/world-x)                               [deg]
#  10 FWHM_WORLD             FWHM assuming a gaussian core                              [deg]
#  11 ELONGATION             A_IMAGE/B_IMAGE                                           
#  12 ELLIPTICITY            1 - B_IMAGE/A_IMAGE                                       
         1 -14.0586    247.4469     35.5311   1.9234580704e+01   2.4704097126e+01    0.8757571    0.2304063 -46.91  0.004784619    2.534    0.605
         2 -15.0387    245.2819     11.9448   1.5726450527e+01   2.7673119158e+01     1.565816    0.6019484 -48.97   0.01058941    1.822    0.451
         3 -13.7380    228.1571      6.0585   1.5643598502e+01   3.0979229470e+01     1.010424    0.2932176 -66.17  0.004863739    3.621    0.724
         4 -13.8434     11.9987     23.6058   6.5195711920e+01   7.1076045201e+01    0.6873701    0.3741522 -19.71  0.003543222    2.311    0.567
         5 -12.6991     13.2105     12.7176   5.9394534657e+01   7.2410368081e+01    0.3647908    0.2232457 -11.40  0.001611489    1.955    0.488
         6 -12.7287     15.5748      7.0887   5.5176373126e+01   7.2745149409e+01    0.4783696    0.2921598   8.02  0.002797939    1.918    0.479
         7 -13.5183      6.7261     10.8473   6.2544312194e+01   7.3524755816e+01    0.8044094    0.5082092 -10.45  0.004949342    1.723    0.420
         8 -12.7123     10.3059      2.1823   5.5733300889e+01   7.4080044398e+01     1.038185    0.1876184  39.12  0.003642804    4.473    0.776
         9 -11.9496     26.2115     16.1176   5.3827905406e+01   7.0013731352e+01    0.2758601    0.1534546 -20.92  0.001491288    2.296    0.564
        10 -12.5201     19.7429     14.2072   5.6349440870e+01   7.1265714109e+01    0.3663834    0.2026571 -17.81  0.001958086    2.389    0.581
        11 -12.9296     25.4729      4.0007   4.8349966675e+01   7.1477575431e+01    0.4383769    0.2885505   6.37  0.002599122    1.790    0.441
        12 -11.2655     41.2890      2.6371   4.0940133379e+01   6.8727454638e+01    0.3169788    0.1341971  34.05  0.001477896    2.709    0.631
        13 -12.7352     97.7158    244.8043   8.1928109470e+01   8.5635246456e+00    0.4307053    0.2396055  40.55  0.002057203    1.826    0.452
        14 -12.8050    247.1060    226.4147   4.9383843525e+01  -3.6373723109e+00     0.673902    0.2572117 -31.90  0.003636783    2.229    0.551
        15 -12.7577    233.8628    245.5473   5.4157996370e+01  -5.4410365049e+00    0.6181374    0.2228585 -35.39  0.003342929    2.124    0.529
        16 -11.7772    239.9857    239.5259   5.2344788966e+01  -5.0259092330e+00    0.3122177     0.141682 -35.59  0.001650227    1.619    0.382
        17 -11.5347    243.4843    235.9483   5.1301101253e+01  -4.7687749169e+00    0.2427376    0.1349879 -31.42  0.001066897    1.305    0.233
        18 -12.3596    242.3919    247.1471   5.3065088212e+01  -6.3183926252e+00    0.5264975    0.2006921 -33.96  0.003014751    1.975    0.494
        19 -11.1776    249.3336    250.1255   5.2441347472e+01  -7.2385953102e+00    0.2900485    0.1653094   5.87  0.002068096    1.796    0.443
        20 -11.0823    248.5075    245.9498   5.1978764082e+01  -6.5916218468e+00    0.2414958    0.1360689 -32.20  0.000966518    1.251    0.200
        21 -12.1500    246.8026    239.8551   5.1367814300e+01  -5.5928552529e+00    0.4215026    0.1835656 -32.45  0.002144033    1.725    0.420
        22 -11.7140    249.3151    233.2571   5.0054691713e+01  -4.8219746199e+00    0.3479488    0.1622691 -38.29  0.001819953    1.543    0.352
        23 -11.8050    225.5473    248.3006   5.5887098824e+01  -5.1973054550e+00     0.300124    0.1743836 -25.49  0.002004742    1.329    0.248
        24 -12.8422    211.1944    247.7534   5.8226383727e+01  -3.9274098288e+00    0.4757797    0.2447478 -19.63  0.002721621    1.876    0.467
        25 -11.4057     50.5181    250.0735   9.4267294165e+01   1.2693289350e+01    0.5469785    0.1628053  26.57  0.002046042    2.756    0.637
        26 -11.4229     45.3409    245.0663   9.5133790310e+01   1.4356793500e+01    0.4348401    0.2585562  45.45  0.001782185    1.580    0.367
        27 -11.8558     36.4929    248.5761   9.7639108723e+01   1.4463125571e+01    0.5583127    0.2624381  46.26  0.002565314    1.985    0.496
        28 -12.0352     29.7131    241.1805   9.8777819567e+01   1.6819707927e+01    0.5142931     0.331941  71.55  0.002200139    1.691    0.409
        29 -10.3189     26.3217    249.7093   1.0023305617e+02   1.5197763808e+01    0.2569488    0.1231302  35.64  0.001101101    1.739    0.425
        30 -11.7805     20.2324    249.1223   1.0168240300e+02   1.5898911832e+01    0.4301969    0.2520171  41.14   0.00175939    1.468    0.319
        31 -12.4039     15.8552    240.6221   1.0222139891e+02   1.8241864311e+01     0.809312    0.3013621  40.33  0.002796915    2.223    0.550
        32 -11.9303     12.0410    249.0877   1.0366336607e+02   1.6643705911e+01    0.4737567    0.2330427  35.89  0.001668148    1.691    0.409
        33 -11.9725      6.3239    236.3594   1.0433862155e+02   2.0065503083e+01    0.5508612    0.2979972  47.07  0.002794642    1.642    0.391
        34 -12.0095      4.6926    228.4621   1.0429538314e+02   2.2084552119e+01    0.5529041    0.3040646  64.76  0.002048756    1.826    0.452
        35 -11.8075      2.1371    221.0686   1.0452130845e+02   2.4096151873e+01     0.437618    0.2395443  88.67  0.001625947    1.857    0.461
        36 -11.3835      3.6478    250.2708   1.0572561294e+02   1.7098785758e+01    0.3526648    0.2019169  17.47  0.001663633    1.780    0.438
        37 -12.5116      3.2736    243.5361   1.0547401849e+02   1.8652730450e+01    0.5734961    0.3323689  68.31   0.00302831    1.704    0.413
        38 -11.5305    128.4918    240.4861   7.3980053338e+01   5.8535824175e+00    0.2535678    0.1005773  35.71  0.001044932    2.488    0.598
        39 -10.6839     64.9855    240.0117   8.9636212840e+01   1.3384426104e+01    0.2305267     0.148368  53.37  0.001106322    1.704    0.413
        40 -11.9601     74.6942    249.9227   8.8218125410e+01   1.0100253466e+01    0.6351027    0.1419216  28.89  0.002120432    3.368    0.703
        41 -11.5199     45.0629    237.6179   9.4550455810e+01   1.6102081080e+01    0.3826066    0.2007774  52.15  0.001725211    2.015    0.504
        42 -12.4935    230.7966    235.0042   5.3114485837e+01  -3.6074501669e+00    0.3652394    0.1882979 -27.96  0.002253742    1.587    0.370
        43 -11.1598     82.1272    236.8607   8.4882790154e+01   1.2125694733e+01    0.2237624    0.1798898  46.85  0.001244756    1.303    0.232
        44 -12.0249     72.8531    240.7154   8.7694688740e+01   1.2334972719e+01    0.3725319    0.2342121  47.89  0.001845493    1.674    0.403
        45 -11.5736     14.0229    232.2710   1.0214703919e+02   2.0376183371e+01    0.4702889    0.2819979  57.02  0.002402593    1.613    0.380
        46 -11.3467     11.0273    226.0358   1.0251309372e+02   2.2145047388e+01    0.4054062    0.2119697  49.70   0.00158588    1.789    0.441
        47 -12.0131     60.4510    231.5876   8.9931686273e+01   1.5846470810e+01    0.4196757    0.1951643  55.94  0.001584108    2.912    0.657
        48 -11.2769     39.5456    231.5862   9.5453721688e+01   1.8103136640e+01    0.3221146    0.2377262  65.37  0.001734391    1.426    0.299
        49 -11.8595     65.4020    249.0122   9.0445242443e+01   1.1327921626e+01    0.5015284    0.2297674  34.83  0.002262573    1.875    0.467
        50 -12.0825     26.0972    228.9831   9.8778797430e+01   2.0063908042e+01    0.6048915    0.3386718  88.58  0.002818048    2.032    0.508
        51 -10.7537     48.5108    230.5010   9.2982375481e+01   1.7420420841e+01    0.3382042    0.1680936  56.62  0.001385959    2.425    0.588
        52 -12.1599    235.8786    228.1185   5.1308947993e+01  -2.9747793763e+00    0.3580209     0.153967 -34.13  0.002041338    1.815    0.449
        53 -10.7909     32.3242    229.5204   9.7181137108e+01   1.9329229399e+01    0.2850752    0.1784729  62.29  0.001118514    1.705    0.413
        54 -11.5925     18.5123    222.1147   1.0026609938e+02   2.2453590838e+01    0.4085547    0.2504352  71.55  0.001926689    1.740    0.425
        55 -12.2201     12.2735    217.0990   1.0157623708e+02   2.4254246054e+01    0.6375286    0.3191845  52.42  0.002866806    1.967    0.492
        56 -10.5601     44.2006    221.1914   9.3230301502e+01   2.0150555507e+01    0.2101173    0.1534038  52.48  0.001082957    1.372    0.271
        57 -11.3992    238.1939    218.7126   4.9557614861e+01  -1.7167065867e+00    0.3125702    0.1216297 -41.37  0.001708615    1.910    0.476
        58 -12.2988    247.9847    215.5063   4.7652003121e+01  -2.0624179713e+00    0.5119309    0.1742947 -39.23   0.00270536    2.135    0.532
        59 -10.7329    227.3940    218.8230   5.1232818704e+01  -7.6699355302e-01    0.1753145   0.07707694 -36.18  0.000955133    1.786    0.440
        60 -10.3095     24.3189    217.8431   9.8363934439e+01   2.2986458741e+01     0.228083    0.1616436  70.25   0.00117905    1.461    0.315
        61 -11.8607      2.4581    212.8100   1.0393438657e+02   2.6135641205e+01    0.4809256    0.2874211  79.86  0.001982411    1.695    0.410
        62 -11.2135      1.4319    206.6917   1.0382449062e+02   2.7773533619e+01    0.4003977    0.1325021 -80.32  0.001450957    3.023    0.669
        63 -11.2808     21.1550    212.2601   9.8775990702e+01   2.4695950666e+01    0.4137498    0.1958549 -86.99  0.001684622    2.412    0.585
        64 -10.1601     45.6516    213.3259   9.2023495998e+01   2.1965921763e+01    0.1580686   0.09745181  55.07 0.0005353713    1.752    0.429
        65 -11.0751     35.2860    217.3556   9.5309562803e+01   2.2037006034e+01    0.3925512    0.1949017  89.27   0.00155981    2.600    0.615
        66 -10.8509     28.3354    211.8523   9.6738082971e+01   2.4123942308e+01    0.2315437    0.1677026  71.86  0.001183818    1.450    0.310
        67 -13.1246     12.5510    205.3972   1.0063607867e+02   2.7220638982e+01    0.6077712    0.3921341  63.28  0.003016864    1.576    0.366
        68 -10.4356    239.8469    207.7128   4.7650872328e+01  -1.3660559404e-01    0.2154743    0.1089179 -49.32  0.001257984    1.860    0.462
        69 -10.3689    246.5819    206.2666   4.6467813615e+01  -5.1816093828e-01    0.2144816   0.08287845 -46.71  0.001140969    2.112    0.527
        70 -10.7613    250.1583    201.0292   4.5182097708e+01  -2.5255782232e-02    0.2769979    0.1150034 -43.67   0.00158647    1.777    0.437
        71 -10.5000    242.6129    200.2144   4.6107466051e+01   7.9530297084e-01    0.1689127   0.07494813 -37.48 0.0009541606    1.714    0.417
        72 -12.4587      3.5835    197.4181   1.0259072769e+02   3.0020644146e+01     0.519725    0.3066015  72.11  0.001930382    1.765    0.433
        73 -12.5762      3.9512    188.6171   1.0183064893e+02   3.2325295482e+01    0.6169506    0.3119459  60.23  0.002625267    2.144    0.534
        74 -12.1835     17.0239    196.0203   9.8576643973e+01   2.9299755938e+01    0.4090076    0.1716742  26.00   0.00164585    2.235    0.553
        75 -10.6321    246.5561    192.7112   4.4407174300e+01   1.6112359941e+00    0.2255866    0.0776537 -41.85  0.001149036    2.117    0.528
        76 -11.5072     17.1047    190.3988   9.8048497192e+01   3.0793054557e+01    0.3885975     0.203629  71.58  0.001576919    2.295    0.564
        77 -12.8680     11.9304    184.7273   9.9103232204e+01   3.2753661166e+01    0.5006643    0.2509352 -86.65  0.002068882    2.133    0.531
        78 -10.0582    249.5021    184.4935   4.2746610790e+01   2.6260763473e+00    0.1114857   0.08017692 -36.96 0.0008106548    1.005    0.005
        79 -11.3931      5.1912    183.2077   1.0102863402e+02   3.3685547572e+01    0.2901076    0.1922445  79.85   0.00127888    1.544    0.352
        80 -11.9061      2.0013    178.5055   1.0162418436e+02   3.5184846445e+01    0.5046409    0.2653159 -85.82   0.00191919    1.903    0.475
        81 -10.9196     16.6179    180.8380   9.7291544201e+01   3.3419145273e+01    0.2122465    0.1304179  87.89  0.000948765    1.747    0.427
        82 -10.4078     23.4962    180.4853   9.5101040927e+01   3.2904822467e+01    0.1456337    0.1375067  70.95 0.0002534646    1.043    0.042
        83 -12.9602      6.2521    172.3954   9.9766370207e+01   3.6543148382e+01    0.6879817    0.2424988 -86.18  0.002230343    3.444    0.710
        84 -11.0465      1.5514    170.7045   1.0111748952e+02   3.7334672993e+01    0.3792059    0.1220285 -72.69  0.001276683    2.749    0.636
        85 -11.9555      1.7055    165.2592   1.0059132053e+02   3.8811324882e+01    0.4128533    0.2509962  76.51  0.001898841    1.778    0.438
        86 -10.7770     18.6566    175.3215   9.6087755531e+01   3.4750102947e+01    0.1596314    0.0996667  56.42 0.0007050153    1.728    0.421
        87 -11.5668     11.1506    172.8639   9.8243216631e+01   3.6044140928e+01    0.2353775    0.1855902  60.76  0.001233661    1.296    0.229
        88 -12.3961     10.6822    167.3549   9.7850295896e+01   3.7591838569e+01    0.3381429     0.207296  58.59  0.001534102    1.784    0.440
        89 -12.8799      9.7542    156.2490   9.6996446839e+01   4.0719232218e+01    0.4179632    0.2435923 -79.29  0.001872832    1.699    0.411
        90 -12.5522      3.4733    154.4032   9.8964182509e+01   4.1670096931e+01    0.4060523    0.2239453 -63.39  0.001840025    1.625    0.385
        91 -10.4867    249.7490    151.0260   3.7471281008e+01   7.9156045528e+00    0.1543673   0.07065277 -45.40 0.0008918786    1.595    0.373
        92 -11.8719      2.3975    143.7019   9.8217533555e+01   4.4671319541e+01    0.3300642    0.1693024 -88.58   0.00135532    2.158    0.537
        93 -12.2654      4.0232    136.7224   9.6820442180e+01   4.6468722070e+01    0.3292684    0.1940707 -85.19   0.00148036    1.794    0.442
        94 -11.1363    248.0021    129.9698   3.4301873905e+01   1.1441468885e+01    0.1747081    0.1097931 -63.95 0.0008739881    1.704    0.413
        95 -11.7203      2.5041    127.4671   9.6257591145e+01   4.9063009865e+01    0.3062015    0.1335461 -73.23  0.001216521    2.191    0.544
        96 -11.5173    248.4005    119.1974   3.2521320319e+01   1.3060179167e+01    0.1659234   0.07558654 -51.72 0.0009553769    1.720    0.419
        97 -11.5386    248.7616     98.0054   2.9065665336e+01   1.6196243661e+01    0.1501099   0.06776781 -46.12 0.0008901079    1.645    0.392
        98 -10.3470      1.7709     95.0197   9.1692636262e+01   5.7496731449e+01    0.1878771    0.1073708 -66.39 0.0008891958    1.688    0.408
        99 -12.3283    248.9251     65.6036   2.3861573410e+01   2.0709672659e+01    0.2316206    0.1408311 -46.37  0.001683105    1.366    0.268
       100 -13.1878    248.4921     75.0806   2.5406240700e+01   1.9491449667e+01    0.5078594    0.1133723 -48.59  0.002294853    3.145    0.682
       101 -11.8773    249.1576     88.2423   2.7459099567e+01   1.7554762283e+01    0.2169311   0.09677415 -59.23  0.001240729    2.077    0.519
       102 -10.9124      3.0113     67.2724   8.5257333775e+01   6.3879197378e+01    0.1909583    0.1597382 -12.62  0.001174277    1.049    0.047
       103 -12.9047    245.3244     48.0641   2.1337534229e+01   2.3499254947e+01    0.2980051    0.1674686 -83.26  0.002105173    1.764    0.433
       104 -12.9749    247.3985     57.7378   2.2726359417e+01   2.1962737797e+01    0.4495445    0.1717238 -62.37  0.002410746    2.658    0.624
       105 -11.0305    250.4029     56.2260   2.2273362197e+01   2.1719720343e+01    0.2123512   0.07474267 -44.59   0.00121695    2.137    0.532
       106 -11.7955    248.9992     52.2748   2.1750739346e+01   2.2426866165e+01    0.2494248    0.1080054 -47.15 0.0008838063    1.707    0.414
       107 -12.6076      3.4587     50.5418   8.0404477994e+01   6.7312203522e+01    0.4757092    0.2659062 -45.66  0.002558288    1.672    0.402
       108 -12.2878    168.5172    249.2607   6.6495034748e+01  -1.7849565363e-01    0.3874057    0.1694738  18.01  0.001841031    2.324    0.570
       109 -12.4560    127.6709    248.3642   7.5246164626e+01   4.3872779126e+00    0.4065579    0.2020839  36.50  0.001921986    2.048    0.512
       110 -13.3059    143.0634    246.7341   7.1547552009e+01   2.9808790577e+00     0.544616    0.2639253  18.75  0.002588099    2.002    0.501
       111 -11.2602      2.3732     33.0649   7.5143666728e+01   7.0631896592e+01    0.3201624     0.130326 -49.76  0.001549156    2.498    0.600
       112 -11.8935      1.4957     25.4947   7.2735055655e+01   7.1979131109e+01    0.4161601      0.16049 -52.48   0.00193879    3.075    0.675
       113 -12.3761     18.6421     30.6616   6.4316885100e+01   6.9143860889e+01    0.3584163    0.1972575 -21.73  0.001798393    2.301    0.565
       114 -10.9466    109.9871    248.7516   7.9445098096e+01   6.3249827955e+00    0.1832419    0.1023219  22.78 0.0008920906    1.607    0.378
       115 -12.4200    116.1606    244.6090   7.7438987674e+01   6.4552349410e+00    0.3164806    0.2037275  44.61  0.001617952    1.810    0.448
       116 -12.6358     84.8984    244.3941   8.5061059195e+01   1.0138507041e+01    0.4040155    0.2171562  35.26  0.001918082    1.691    0.409
       117 -12.3561    192.9203    245.1107   6.1129313327e+01  -1.8596704932e+00      0.41921    0.2128019 -18.21  0.002167198    2.139    0.532
       118 -12.1034     57.1201    242.3181   9.1885339807e+01   1.3728850490e+01    0.5456663    0.2551795  46.64  0.002349793    2.186    0.542
       119 -12.0303      2.3026     40.5720   7.7884686197e+01   6.9304133240e+01    0.3693564    0.2093336 -48.64  0.001838885    1.765    0.434
       120 -12.5576    225.7624    241.2043   5.4827688844e+01  -4.1400847310e+00     0.355678    0.1632445 -31.70  0.002068852    1.743    0.426
       121 -12.4874    107.8706    241.1060   7.8974401505e+01   8.1522296756e+00    0.4500389    0.1954404  37.95  0.001902296    2.276    0.561
       122 -10.2879     41.3406     11.3187   4.4822689119e+01   6.7892485799e+01    0.1262599   0.07623081  28.58 0.0007049474    1.713    0.416
       123 -10.8101     38.5442    241.0497   9.6522275031e+01   1.5974868737e+01    0.3160006    0.1934147  60.31  0.001387789    1.760    0.432
