#   1 NUMBER                 Running object number                                     
#   2 MAG_AUTO               Kron-like elliptical aperture magnitude                    [mag]
#   3 X_IMAGE                Object position along x                                    [pixel]
#   4 Y_IMAGE                Object position along y                                    [pixel]
#   5 X_WORLD                Barycenter position along world x axis                     [deg]
#   6 Y_WORLD                Barycenter position along world y axis                     [deg]
#   7 A_WORLD                Profile RMS along major axis (world units)                 [deg]
#   8 B_WORLD                Profile RMS along minor axis (world units)                 [deg]
#   9 THETA_WORLD            Position angle (CCW/world-x)                               [deg]
#  10 FWHM_WORLD             FWHM assuming a gaussian core                              [deg]
#  11 ELONGATION             A_IMAGE/B_IMAGE                                           
#  12 ELLIPTICITY            1 - B_IMAGE/A_IMAGE                                       
         1 -11.3597     26.2404     55.6611   1.1870691171e+02   6.1509422062e+01      1.42762    0.7875934 -18.80  0.007116152    1.996    0.499
         2 -10.3713     60.7326     23.9190   9.4632409294e+01   6.2196213028e+01    0.5662986    0.2712611 -21.64  0.002715732    2.253    0.556
         3 -12.3894     60.6924     44.9339   1.0241162742e+02   5.9315214075e+01    0.9217391    0.4647943 -37.02  0.004721103    1.892    0.471
         4 -12.1777    124.2467     27.6590   7.8083151117e+01   4.9568645528e+01     0.902253    0.4602397  48.68   0.00279953    1.677    0.404
         5 -12.4945    128.9685     14.4378   7.2913089557e+01   4.9849801909e+01     1.711569    0.6554471  60.11  0.007374572    2.219    0.549
         6 -12.3581    105.0336     13.0239   7.7608156828e+01   5.5206088412e+01    0.4802165    0.3891427 -15.84   0.00310226    1.368    0.269
         7 -13.4885    118.8371     40.9287   8.3616822393e+01   4.9171672473e+01     1.288793    0.9115664  55.96  0.002988263    1.378    0.274
         8 -12.7737    112.9197     24.4649   7.9630915304e+01   5.2399377909e+01     1.235059    0.3579516  52.56  0.004695601    2.804    0.643
         9 -12.0041    182.1705     25.4637   6.7191337473e+01   3.6112089769e+01    0.6938819    0.3045235  46.88 0.0009111569    2.495    0.599
        10 -11.6583    178.1034     21.4985   6.6754792015e+01   3.7532114402e+01    0.7176414    0.4687191  14.25  0.003494947    2.505    0.601
        11 -10.3689    139.7621     32.4945   7.6311189975e+01   4.5470047988e+01    0.5928696    0.3468336 -13.37  0.002772908    2.288    0.563
        12 -10.8872    189.5210     29.1760   6.7100179155e+01   3.3910693847e+01    0.5612341    0.3196466 -35.85  0.002829708    1.890    0.471
        13 -11.7630     26.4700     27.6924   1.0933964722e+02   6.6049686018e+01    0.4492526    0.3885466  -6.25  0.002769211    1.274    0.215
        14 -11.7392     22.9053     11.1011   1.0427931124e+02   6.8644243997e+01    0.5231388    0.3578779   0.67  0.003062064    1.171    0.146
        15 -12.5196     15.4437     12.9296   1.0836714040e+02   6.9141063206e+01    0.5748519    0.4507532 -24.70  0.002744519    1.315    0.240
        16 -11.1728    153.2686     25.1382   7.1621916978e+01   4.3106935691e+01    0.6292139    0.3832886   3.85  0.002888272    2.625    0.619
        17  -9.9321    145.6148     16.3551   7.0423100811e+01   4.5822210207e+01    0.5946084    0.3213664 -74.17  0.001669792    3.591    0.722
        18  -9.9167    149.5155     14.9725   6.9361646269e+01   4.5037555221e+01    0.3181086    0.1868057  33.52  0.001180046    2.015    0.504
        19  -9.9750     86.7670      7.1926   8.0109747120e+01   5.9391108656e+01    0.5846851    0.2843741  50.13  0.002759676    1.737    0.424
        20 -11.5973     90.6003     20.1079   8.3834927527e+01   5.7419835707e+01    0.5139675    0.4229553 -11.22  0.002420786    1.261    0.207
        21 -11.5169     86.1245     14.0743   8.2857553477e+01   5.8883957509e+01    0.5268551     0.306228   1.56  0.001930969    2.075    0.518
        22 -10.7853     42.6761      3.5150   9.2836733393e+01   6.7080255232e+01    0.5501802    0.2680244  -1.57  0.002767787    2.728    0.633
        23 -10.1725     31.9274     12.1272   1.0085540161e+02   6.7519032366e+01    0.2446338    0.1726746  48.53   0.00135346    2.481    0.597
        24 -10.9295     46.9512     18.7191   9.7598000201e+01   6.4822809705e+01    0.3466379    0.2953925  10.85  0.002544644    1.230    0.187
        25 -12.1723     49.3164     12.9876   9.4362323107e+01   6.5153813297e+01    0.5789548    0.2947348  41.88   0.00329173    1.989    0.497
        26 -11.0996     42.5495     14.1416   9.7417399572e+01   6.5954833439e+01    0.3798963    0.1764995  33.94  0.001456441    1.983    0.496
        27 -10.7327     38.6642     21.3873   1.0190220507e+02   6.5561290354e+01     0.457174    0.1511526 -34.30  0.002127902    2.829    0.646
        28 -11.7168     35.7852     18.6869   1.0197801759e+02   6.6254886665e+01     0.555038    0.2161281 -28.31   0.00274566    2.541    0.606
        29 -12.2392     69.5459     17.9475   8.9334961662e+01   6.1461833483e+01    0.6810395    0.3831914  46.43  0.003820503    1.748    0.428
        30 -12.0738    244.5173      6.6193   5.6433510678e+01   2.3931548734e+01    0.6562833    0.3497883 -69.65  0.003571824    1.759    0.431
        31 -11.6940    239.2551      7.3482   5.6994150916e+01   2.4973613036e+01    0.4303507    0.1911717 -76.42   0.00131211    2.640    0.621
        32 -12.3724    237.1565     16.0140   5.8879286103e+01   2.4454728693e+01    0.5585595    0.4122795  65.51  0.002729316    1.393    0.282
        33 -11.6580    244.6620     14.8821   5.8006586991e+01   2.2969980769e+01    0.3565084    0.1981107 -32.39  0.001550216    2.086    0.521
        34 -11.0215    165.3587     17.2272   6.7485055157e+01   4.1043651652e+01    0.4081415    0.2308744  40.47  0.001304903    1.996    0.499
        35 -11.2105    205.4550      2.4200   5.9001441235e+01   3.3026591442e+01    0.4090678     0.217109  84.45  0.001093076    1.730    0.422
        36 -10.6352    199.7344      6.0116   6.0382471913e+01   3.3998507458e+01    0.4907816    0.1705547  70.95  0.001024444    2.453    0.592
        37 -10.0440    191.9044     16.3694   6.3680233696e+01   3.4779396291e+01    0.2737234    0.2402444 -13.81  0.001691186    1.476    0.322
        38 -10.6076    186.4890     15.0370   6.4028475033e+01   3.6208318526e+01    0.2912413    0.2044307  59.04 0.0006641533    1.307    0.235
        39 -11.4778    192.2272      7.9719   6.1654824437e+01   3.5563268203e+01    0.7428545    0.4260749  60.52  0.003195446    1.535    0.349
        40  -9.6637    194.1537      1.3864   5.9919020846e+01   3.5743076743e+01    0.1807768    0.1468867  79.15 0.0004928694    1.041    0.039
        41  -9.9797    219.2022     12.6297   5.9856975579e+01   2.8828368746e+01    0.3285025    0.1425851  59.22  0.001562746    2.155    0.536
        42 -11.5712    211.2949     10.1453   6.0107191510e+01   3.0900598031e+01    0.3971647    0.3155192  34.05  0.001462403    1.750    0.429
        43  -8.6798      4.5559     10.3149   1.1235382188e+02   7.0399060003e+01    0.3216554    0.1471515 -27.06  0.001919457    1.820    0.451
        44  -9.5452      5.2010      5.0954   1.0987698491e+02   7.1031508495e+01    0.1801872   0.07601671 -39.45  0.001080838    2.101    0.524
        45 -11.2582      3.0762      1.8188   1.0949657198e+02   7.1612460798e+01    0.3611034    0.1496374  16.48  0.002129065    2.447    0.591
        46 -10.2839    168.9399     10.0855   6.5086194147e+01   4.0887558281e+01    0.3180258    0.1847774  48.56  0.001472044    1.676    0.403
        47  -9.9781    157.3554      9.6512   6.6633978205e+01   4.3681971753e+01    0.3291007    0.1554634 -40.76  0.001134991    2.388    0.581
        48 -10.1007    151.2633      7.4062   6.6940265167e+01   4.5320976945e+01    0.4425637    0.1881455  59.74  0.001123034    1.863    0.463
        49 -10.9056     67.2685     10.2501   8.7027499846e+01   6.2636367227e+01    0.5129675    0.1618026  42.53  0.002287741    2.637    0.621
        50 -10.6487    157.8347      2.8124   6.4707139200e+01   4.4169689994e+01    0.3219626    0.2013946  55.14  0.001552931    1.367    0.268
        51 -10.7189    162.9137      5.6421   6.4752328683e+01   4.2726047200e+01    0.5284263    0.2245893 -20.69   0.00233646    3.081    0.675
        52 -10.5311     71.2558      3.4919   8.3080257237e+01   6.2566026436e+01    0.4920269    0.2598541  35.27  0.002821646    1.578    0.366
        53  -8.7005     82.0110      1.0000   7.9040566008e+01   6.0807318327e+01    0.3005639   0.07718338  48.08 0.0008492864    2.807    0.644
        54 -10.3116     77.1485      6.8830   8.2675907928e+01   6.1217072342e+01    0.2464307    0.2176676  41.94  0.001061624    1.278    0.217
        55 -10.3271     77.4944      3.0005   8.1063081336e+01   6.1486263142e+01    0.2666061    0.1469952  21.10   0.00126435    1.868    0.465
        56 -10.3282     62.8405      6.3909   8.6900105621e+01   6.3741357909e+01    0.2955581    0.1829035  13.83  0.001120738    1.544    0.352
        57 -10.1894      1.2961      7.2400   1.1266522162e+02   7.1052372044e+01    0.1588783   0.07182134 -38.31 0.0002457809    1.804    0.446
        58  -8.9295     51.1848      6.6283   9.1012338181e+01   6.5547099445e+01    0.1634802   0.08346728  30.75 0.0007999215    1.701    0.412
        59 -11.6283    224.9981      2.2505   5.7175290089e+01   2.8626415603e+01    0.6255493    0.2790829  89.79   0.00243782    2.353    0.575
        60 -10.7907    218.8414      2.7649   5.7819854288e+01   2.9947709488e+01    0.2958465    0.2341612 -79.27  0.001804045    1.070    0.065
        61 -10.6566    173.8024      4.3846   6.2986601279e+01   4.0258402630e+01    0.5039759    0.1984974  73.19  0.002170965    2.333    0.571
        62 -12.2940    133.9605      2.6911   6.8390243738e+01   4.9725257161e+01    0.3638877     0.249658  63.93 0.0005874597    1.235    0.191
        63 -10.4256    141.9491      3.5934   6.7325827779e+01   4.7817072967e+01    0.3829792    0.2049447  64.46  0.001918984    1.553    0.356
        64 -10.0359    122.9210      1.3054   6.9939003058e+01   5.2318625792e+01    0.8716949   0.04075883  59.87   0.00235208    5.952    0.832
        65 -11.2251    106.0237      2.0646   7.3601448415e+01   5.5920688632e+01    0.8201311    0.2936575  65.65  0.002347462    3.269    0.694
        66 -10.7132    113.2098      2.1969   7.2127319348e+01   5.4378072640e+01     0.417188     0.197476  66.04  0.001966461    2.094    0.522
        67 -12.5243     18.8764     23.0178   1.1082015359e+02   6.7445910291e+01     0.834039     0.455779  36.65  0.005045063    2.428    0.588
        68  -9.3078    183.7604      2.0106   6.1206778953e+01   3.8120945939e+01    0.1919931    0.1207312 -83.58   0.00105074    1.613    0.380
        69 -10.9736     81.8803    135.2241   1.2020871280e+02   3.8033825867e+01    0.5723248    0.3687977  13.70  0.002050769    2.298    0.565
        70 -10.7183     47.3893    134.9750   1.2962993172e+02   4.2700722473e+01     0.383074    0.1875011 -49.81  0.001173479    1.872    0.466
        71  -9.5547     97.2888    135.6530   1.1609621633e+02   3.5409355682e+01    0.1496876    0.1143971  86.02 0.0003739335    1.658    0.397
        72 -11.3263     92.8062    129.3156   1.1593012939e+02   3.7637068572e+01    0.5501457    0.3320357 -51.20  0.002301941    1.576    0.365
        73  -9.5617    239.9502    146.5347   8.6580570042e+01   3.5783778947e+00    0.1972857    0.1380089  46.68 0.0006755764    1.549    0.354
        74 -10.1342     14.3087    133.2550   1.3817755981e+02   4.6208912648e+01     0.254854    0.1713706  78.12  0.001525809    1.653    0.395
        75  -9.7804     62.4726    131.8628   1.2491055666e+02   4.1588441782e+01    0.4020682    0.1439228 -54.63  0.001565173    2.408    0.585
        76 -10.7922     79.5854    127.5144   1.1922812218e+02   4.0174366233e+01    0.6104127    0.3608064 -19.11  0.001217101    3.249    0.692
        77 -10.7646    239.4881    124.0025   8.1772560510e+01   7.6440054174e+00     0.578104    0.1981848 -33.66  0.001928744    3.312    0.698
        78  -8.9039    224.2856    126.6548   8.4914423048e+01   1.0306662898e+01    0.1473381    0.1098554 -68.36 0.0002877076    1.647    0.393
        79 -11.0860     55.5937    123.1908   1.2517143249e+02   4.4460534631e+01    0.5235919    0.3651681  18.43  0.001799437    1.749    0.428
        80  -9.8086      2.0027    125.4967   1.4036733246e+02   4.8791480061e+01    0.3694454    0.1270805 -64.90  0.001786156    2.100    0.524
        81  -9.6752      4.7640    122.1584   1.3920756068e+02   4.9352194777e+01    0.2561387    0.1669868  67.63  0.001556445    1.854    0.461
        82 -11.6367    104.8773    121.2076   1.1070921495e+02   3.7348342692e+01    0.5134665    0.5012908 -89.65  0.001916333    1.062    0.058
        83 -10.5873     45.9328    120.7164   1.2747529873e+02   4.6143585551e+01    0.3377417    0.2538192  89.28  0.001329935    1.571    0.364
        84  -9.3769    221.2455    120.4079   8.4027046421e+01   1.2095789294e+01    0.1956194    0.1403177  66.81 0.0007259517    1.622    0.384
        85  -9.8557    148.4272    119.5941   9.8968160784e+01   2.8736844787e+01    0.2631893    0.2141335  34.99 0.0008749572    1.275    0.216
        86  -9.3430     72.1241    119.9822   1.1972802885e+02   4.3004157390e+01    0.2215295    0.1594945 -24.08 0.0007279607    1.684    0.406
        87 -12.1736      9.7543     97.4276   1.3399711661e+02   5.4411466256e+01    0.8896921    0.6629732  82.30  0.005770908    1.669    0.401
        88 -12.1649      7.1741     88.6494   1.3322399785e+02   5.6420914343e+01    0.4843162    0.4168948 -50.41  0.001060116    1.101    0.092
        89 -12.1563     36.4697     88.0453   1.2353550651e+02   5.4269806896e+01     1.708822    0.8382681 -52.79  0.006308467    1.703    0.413
        90 -11.6224     45.2414     85.5840   1.2003109108e+02   5.3877024281e+01    0.7700079    0.5768616  72.05  0.003684462    2.126    0.530
        91 -12.3694     28.7260    113.0065   1.3106370950e+02   4.9577656331e+01    0.9412391    0.5601233  61.97  0.004753821    2.471    0.595
        92 -12.7989     26.0877    106.9467   1.3074787773e+02   5.1145175709e+01     1.213911    0.6485364 -18.33  0.005714945    2.885    0.653
        93 -12.9111     19.8281     95.6890   1.3054592824e+02   5.4081901538e+01    0.6013743     0.508469 -20.38  0.001655021    1.265    0.209
        94 -12.3861     18.5115     90.4152   1.2992413660e+02   5.5296367059e+01    0.7139825    0.3129205 -36.31 0.0005448603    2.358    0.576
        95  -8.8740     81.4861    117.4838   1.1645222719e+02   4.2170324652e+01    0.1421109    0.1319517 -40.87 0.0008101539    1.027    0.026
        96 -10.0313    114.0306    115.9836   1.0691120747e+02   3.6764132220e+01    0.2224508    0.2170297  -9.33 0.0003809643    1.030    0.029
        97 -10.6407     67.0335    111.9309   1.1943278412e+02   4.5534138348e+01    0.4917135     0.287747 -62.11  0.001779004    1.778    0.438
        98 -11.6947      2.4380    112.3491   1.3849256355e+02   5.1643922302e+01    0.4069996     0.313624  53.19  0.001966249    1.586    0.369
        99 -10.6247      5.5241    108.5262   1.3705949427e+02   5.2287974104e+01    0.2023184    0.1837637 -71.11 0.0005902956    1.162    0.139
       100 -11.8060      3.7015    105.0149   1.3704926767e+02   5.3156380960e+01    0.3728195    0.3011891 -19.22  0.001400059    1.440    0.306
       101  -9.4203    126.8495    113.9466   1.0296767413e+02   3.4608059883e+01    0.2322215     0.206751  -5.59 0.0005092882    1.242    0.195
       102 -10.5224    108.0074    112.4930   1.0768437206e+02   3.8685683001e+01    0.4320731    0.3055454  74.36  0.001662227    2.126    0.530
       103 -11.0714    102.3440    109.8798   1.0860709967e+02   4.0310544558e+01    0.5620424    0.4789267   9.11  0.002970353    1.307    0.235
       104  -9.6049     88.0519    114.5014   1.1384874762e+02   4.1786209672e+01    0.3355353    0.1582242  48.34 0.0007147308    2.517    0.603
       105 -11.2154     79.2721    108.5380   1.1498279528e+02   4.4505748331e+01    0.6311694     0.425059  49.47  0.002624996    1.720    0.419
       106 -10.9510     86.4488    105.1023   1.1199660925e+02   4.4112620501e+01    0.4982697    0.3580559  19.53  0.002111701    1.620    0.383
       107  -9.9739     49.1617    112.5184   1.2490833828e+02   4.7637376457e+01    0.2576885    0.2152638 -53.73 0.0008971744    1.048    0.046
       108 -11.3530    171.3647    109.7704   9.1190357956e+01   2.5479177425e+01    0.7128106    0.4571049  33.67  0.002569358    1.853    0.460
       109  -9.5896     93.4504    111.6054   1.1158265904e+02   4.1517206424e+01    0.3237346     0.237876 -86.47  0.001490131    2.006    0.501
       110 -12.5341     18.7637    106.2479   1.3281515541e+02   5.1881039610e+01    0.3861707    0.2267905 -44.66 0.0003207668    1.511    0.338
       111 -10.9067    143.6624    106.0805   9.6639004564e+01   3.2594791082e+01    0.5136787    0.4154287  84.27  0.002446834    1.546    0.353
       112 -11.3152    145.7100     99.8693   9.4482135464e+01   3.3371223714e+01    0.5684592    0.4824514 -22.81  0.002677969    1.282    0.220
       113  -9.8936    120.1446    108.8679   1.0342873677e+02   3.7071799107e+01    0.2114848    0.1813264  -8.17 0.0006163968    1.315    0.240
       114 -10.7711     18.3830    125.2508   1.3597610690e+02   4.7693078287e+01    0.4476822    0.1431421 -60.20  0.001503902    2.301    0.565
       115 -10.5567    157.5637    105.9482   9.3295293590e+01   2.9448141534e+01    0.3880556    0.3095276  -7.50  0.001224141    1.584    0.369
       116 -10.2203     48.0132    103.0872   1.2324923921e+02   4.9855415211e+01    0.2112867    0.1860592 -35.25 0.0003865966    1.075    0.070
       117 -10.1857     51.6261    100.1476   1.2145919371e+02   5.0082444405e+01    0.3875289    0.1799523 -41.72  0.001185223    2.059    0.514
       118  -9.9264     52.3405     96.3208   1.2033830559e+02   5.0821461618e+01    0.2812957    0.1767928 -39.95  0.001384683    1.463    0.317
       119  -9.3531     82.0661    102.7164   1.1269843902e+02   4.5334405983e+01    0.1899088    0.1795643  -7.59  0.000478045    1.061    0.058
       120  -9.7240     57.6623    102.5219   1.2012464898e+02   4.8837814697e+01    0.2490662    0.1549897 -62.03  0.001075731    1.656    0.396
       121 -10.1917     57.7308     97.6810   1.1895581931e+02   4.9874693626e+01    0.2804551    0.2198767 -59.08 0.0008896143    1.277    0.217
       122 -10.7738     66.8193     99.3197   1.1650900833e+02   4.8326601486e+01    0.3877936    0.3152805  45.27  0.002225964    1.406    0.289
       123 -10.7395     68.2477     95.7901   1.1517547547e+02   4.8878675725e+01    0.3221194    0.2809879  -3.35 0.0009663501    1.186    0.157
       124  -9.4040    136.7829    100.1595   9.6764051902e+01   3.5317798913e+01    0.3087526    0.1949582  24.58   0.00123227    2.171    0.539
       125  -9.3334     96.1117    100.1134   1.0785211390e+02   4.3520993329e+01    0.2095976    0.1818681  -2.08 0.0003235879    1.230    0.187
       126 -10.2820     77.9529     97.2079   1.1252925972e+02   4.7149995776e+01    0.4020739     0.193891 -54.19 0.0003038382    2.148    0.535
       127 -11.4106     82.0296     93.1226   1.1019319318e+02   4.7360482621e+01    0.6696773    0.4253854  49.17  0.002652214    1.866    0.464
       128 -11.1741     89.3609     90.0658   1.0711958416e+02   4.6766480437e+01    0.4588729    0.3154189 -35.71  0.001593437    1.426    0.299
       129 -10.0034     92.8922     85.7440   1.0483295321e+02   4.7009022723e+01    0.2632731    0.2350902  16.02 0.0005850903    1.108    0.097
       130 -11.5189     79.3588     82.5984   1.0809631283e+02   4.9902322585e+01    0.5548857    0.5061157 -75.33  0.001706626    1.376    0.273
       131 -11.0903     66.6570     81.8563   1.1196161613e+02   5.1954840107e+01    0.6115691    0.4467658 -41.89  0.003436727    1.257    0.205
       132 -11.3902     73.3101     77.7498   1.0862617933e+02   5.1781420997e+01    0.9431124     0.766225 -61.30  0.005365438    1.510    0.338
       133 -10.0407    210.5455     97.5748   8.0551431503e+01   1.8595162430e+01    0.3222242    0.2766915  28.08  0.001676038    1.381    0.276
       134  -9.7608    140.3051     96.3158   9.4838900205e+01   3.5289110552e+01    0.2975371    0.2343391  20.51 0.0007616802    1.485    0.326
       135  -8.7755    136.7182     94.3065   9.5179211665e+01   3.6482275332e+01    0.2124164    0.1779113 -67.18 0.0004988865    1.387    0.279
       136  -8.9487    139.3193     92.3453   9.3989464486e+01   3.6276766330e+01    0.2919679    0.2007868  11.54 0.0006455802    2.199    0.545
       137  -9.1399    190.4957     96.5228   8.3926404133e+01   2.3467416036e+01    0.1501492    0.1432271 -83.93 9.866821e-05    1.025    0.025
       138  -9.9827     42.4319     94.8583   1.2316589552e+02   5.2234951293e+01    0.2596506    0.2292669 -24.38  0.001009671    1.119    0.106
       139 -10.5199    120.3668     85.2611   9.6867753642e+01   4.1757294932e+01    0.5484018    0.2721362  50.68  0.002190449    2.106    0.525
       140 -11.2373    124.3858     92.6545   9.7897337925e+01   3.9490098169e+01    0.7161779    0.5560102  63.09   0.00221371    1.488    0.328
       141 -10.3783    117.5256     92.9601   9.9825910688e+01   4.0863958375e+01    0.3749556    0.2545021  29.14   0.00106825    1.639    0.390
       142 -11.0461    102.6745     90.3243   1.0325413976e+02   4.4315710391e+01    0.5800766    0.5025865 -20.46  0.001876599    1.157    0.136
       143  -9.5739    160.3981     93.7077   8.9411847346e+01   3.1143419580e+01    0.2863206    0.1888401  63.08  0.001245419    1.673    0.402
       144 -10.6918    152.6611     92.0996   9.0732792662e+01   3.3260703100e+01    0.3930936    0.3134025  45.30  0.001630816    1.228    0.186
       145  -9.7282    212.0825     87.4453   7.7881680138e+01   1.9996057583e+01    0.2623028    0.2071451 -16.23  0.000718787    1.598    0.374
       146 -10.4790    184.1236     86.0094   8.2477236189e+01   2.6861913250e+01    0.6091927    0.2755311 -46.31  0.002311226    2.304    0.566
       147 -11.2789    113.3384     85.1304   9.8746763024e+01   4.3234375458e+01    0.6961299    0.3341756 -37.87  0.001762542    2.148    0.534
       148 -10.8653    108.5808     81.1387   9.8912556762e+01   4.4939272541e+01    0.3825862    0.2939772 -15.03  0.001331438    1.458    0.314
       149  -9.2740     67.5129     88.0324   1.1337694246e+02   5.0593000226e+01     0.209575    0.1209937 -45.02  0.001019861    1.580    0.367
       150 -10.6579    165.5693     83.1317   8.5445895475e+01   3.1830502046e+01    0.4156326    0.3528638 -69.29  0.001500375    1.296    0.228
       151 -11.3549    143.7095     83.2021   9.0366909749e+01   3.6973945907e+01     0.474139    0.3831864  -4.95   0.00234893    1.495    0.331
       152  -9.2472     47.0057     77.4607   1.1732869067e+02   5.5318287539e+01    0.1823736    0.1714009 -55.83 0.0006677481    1.254    0.203
       153 -11.7857     52.8878     76.7809   1.1513644421e+02   5.4761714969e+01    0.7310308    0.5025221 -59.51  0.004037451    1.670    0.401
       154 -11.1649     58.3960     78.2174   1.1367659012e+02   5.3788461513e+01    0.3632846     0.309886 -66.36 0.0007931408    1.455    0.313
       155  -9.2212    239.6605     82.6551   7.2660404562e+01   1.4625816268e+01    0.1328534     0.108395  14.55 0.0007048049    1.780    0.438
       156  -9.9287    104.3318     76.6107   9.8777235170e+01   4.6607066911e+01    0.4463764    0.2620071 -27.48  0.001971784    1.952    0.488
       157 -10.3816     13.8727     54.2694   1.2305242775e+02   6.2738573257e+01    0.5300809    0.2376237 -20.70  0.002112494    2.817    0.645
       158 -11.9592     14.1013     74.5467   1.2802099877e+02   5.8856637150e+01     0.676877    0.4337013   0.22  0.004248116    1.809    0.447
       159 -11.9556      2.0119     71.4544   1.3155532535e+02   6.0200554453e+01    0.7335744    0.1239253 -58.66  0.002845393    3.581    0.721
       160 -11.3572     13.9915     66.6007   1.2619764204e+02   6.0421328507e+01    0.2846543     0.248882 -61.09 0.0008844895    1.306    0.234
       161 -11.5996      6.5687     62.7395   1.2797553481e+02   6.1634807821e+01    0.6628309    0.1539919 -50.15  0.002944934    2.706    0.630
       162 -11.3754     12.0615     62.3152   1.2584649009e+02   6.1370132179e+01    0.3735401      0.22092   6.21 0.0009989843    1.923    0.480
       163  -9.2068    170.5877     77.7736   8.2971054563e+01   3.1546180699e+01    0.2056168    0.1372449 -49.44 0.0005275844    1.590    0.371
       164 -10.0905     94.1387     76.4959   1.0174215879e+02   4.8544143646e+01    0.6078433    0.4621066  40.22  0.001991623    1.334    0.250
       165 -11.7641     85.4746     73.7050   1.0355282095e+02   5.0581046048e+01     0.747513    0.5793679 -38.31  0.004164613    1.263    0.208
       166 -12.0137     78.7902     67.2107   1.0367058534e+02   5.2864332230e+01     1.856561    0.9085232 -49.49  0.008101919    2.353    0.575
       167 -12.2059     74.5002     49.4678   9.9266052914e+01   5.6501780344e+01    0.7875922    0.5131848  37.72  0.001600968    1.515    0.340
       168 -10.7838     72.4609     45.9907   9.8742768154e+01   5.7359722135e+01    0.2921471    0.2218289 -44.13  0.001397953    1.564    0.361
       169 -11.0181     21.3824    114.3160   1.3342329000e+02   4.9900455223e+01     0.323009    0.2348839  -6.87   0.00102893    1.750    0.429
       170  -9.1483    134.2466     77.3859   9.0999217812e+01   4.0164323822e+01     0.204606    0.1385206  59.27 0.0002880107    1.592    0.372
       171  -9.6054    126.9507     76.6816   9.2634432590e+01   4.1907384375e+01     0.207337    0.1814334  45.27 0.0003678597    1.111    0.100
       172  -9.9024    242.1562     76.3893   7.0965150830e+01   1.5087292568e+01    0.1903299    0.1223083  79.56 0.0009507798    1.773    0.436
       173 -12.1946    186.2143     70.3596   7.8063645405e+01   2.8976918157e+01    0.8504663    0.6696829 -42.03  0.003322859    1.305    0.234
       174 -11.2463     33.0615     71.8677   1.2069504483e+02   5.7856181338e+01     0.483709     0.259809  24.66  0.002647111    2.065    0.516
       175 -10.1376     38.4709     73.5028   1.1922331752e+02   5.7009651612e+01    0.2228762    0.1743441 -33.34 0.0007834715    1.074    0.069
       176 -11.3332     41.8040     70.5119   1.1723683623e+02   5.7241243184e+01    0.4086067    0.2932745 -42.89  0.001624081    1.213    0.175
       177 -10.7957    127.4010     83.3523   9.4462040387e+01   4.0606622922e+01     0.423398    0.2766548  42.47  0.001833359    1.495    0.331
       178  -9.2485     60.9596     72.9558   1.1130953001e+02   5.4463486870e+01    0.1823957    0.1591152  66.68 0.0004658465    1.624    0.384
       179 -11.6680    122.6774     68.4101   9.1267458910e+01   4.4257176804e+01    0.6061318    0.4231505  47.23  0.002082981    1.372    0.271
       180 -10.3984    129.3904     65.4165   8.8659918930e+01   4.3271398010e+01     0.589381    0.3500573 -61.46  0.002327895    2.787    0.641
       181 -10.3120    161.9147     70.4146   8.2736566078e+01   3.4862794547e+01    0.3619213    0.2685706  77.80  0.001628923    1.554    0.357
       182 -10.5899    172.2070     67.8133   7.9978783218e+01   3.2787907506e+01    0.4184249    0.3110845 -54.46  0.001560235    1.448    0.309
       183 -11.5308    219.7142     66.3083   7.1757797940e+01   2.1650262615e+01    0.6282401    0.3363083  61.01  0.002412505    1.833    0.454
       184  -9.9134    208.2734     68.1020   7.3862191998e+01   2.4042326350e+01    0.3182103    0.1820092  47.34  0.001436646    1.920    0.479
       185  -9.6709    192.4414     65.7781   7.5823097294e+01   2.8190333855e+01    0.2865625    0.2111013 -81.18  0.001091782    1.546    0.353
       186  -8.7039    242.6666    249.3189   1.0596316475e+02  -1.2889674689e+01    0.1028313   0.09365197  49.75 0.0003071445    1.696    0.410
       187 -10.1560     51.9811     47.7943   1.0653023982e+02   6.0059094969e+01    0.3309568    0.2218831 -35.60  0.001717133    1.377    0.274
       188 -11.2228     33.1399     42.9611   1.1204170429e+02   6.3027913710e+01    0.4410598    0.4208813  15.62  0.002451373    1.456    0.313
       189 -10.4415     25.9925     48.0357   1.1649754075e+02   6.2869541794e+01    0.2212114    0.1565918  -6.14 0.0003281015    1.339    0.253
       190 -10.5023     21.2291     47.2723   1.1813883706e+02   6.3412432860e+01    0.3284688    0.2077184 -36.79  0.001598266    1.261    0.207
       191 -11.2540     40.2441     55.7501   1.1346090161e+02   6.0119116815e+01    0.4612967    0.3832779 -57.84  0.001930627    1.555    0.357
       192 -11.7936     45.7468     49.0541   1.0925522329e+02   6.0630926495e+01    0.4848384    0.3293733 -14.33  0.001326715    1.411    0.291
       193 -12.1575     41.7214     45.4349   1.0955684174e+02   6.1693691845e+01    0.3516144    0.2619126  15.89 0.0003224401    1.310    0.237
       194 -10.9442     58.2289     61.7097   1.0884240051e+02   5.6889016906e+01    0.4617212    0.3160133 -44.37  0.001633433    1.446    0.308
       195 -10.0657    142.9322    249.5037   1.2501533173e+02   3.1804436565e+00    0.2073801    0.1077044  41.32  0.001038028    1.606    0.377
       196 -11.3262     56.6391     30.9929   9.8797839330e+01   6.1901808657e+01    0.3629008    0.2387616  34.31  0.001355574    1.487    0.328
       197 -11.9471     48.0609     30.2762   1.0169959196e+02   6.3183501124e+01    0.6758517    0.2756358  28.76  0.003218426    2.545    0.607
       198  -9.7571    174.8164    246.6033   1.1833493168e+02  -1.7680598178e+00    0.1935764    0.1039084  46.63 0.0009611396    1.707    0.414
       199 -10.8333     60.6322     36.6156   9.9458272498e+01   6.0545958475e+01    0.3407566     0.184195 -31.02   0.00109271    1.772    0.436
       200  -9.4152     25.7408     65.0772   1.2152741792e+02   5.9813791526e+01    0.1673856     0.117998 -40.39  0.000356186    1.146    0.127
       201 -10.3413     21.0906     65.1295   1.2324194149e+02   6.0182798594e+01    0.1849339    0.1569694 -10.89  0.000879831    1.191    0.161
       202 -10.0362    204.3963     63.8634   7.3434709791e+01   2.5615103001e+01     0.256175    0.1998314  47.41 0.0001499448    1.393    0.282
       203  -9.5789    198.2302     63.0638   7.4201696593e+01   2.7211857242e+01     0.280989    0.1803368 -56.66  0.001336212    1.666    0.400
       204 -10.8989    105.8640     62.3781   9.3946723833e+01   4.8757635715e+01    0.4360308    0.3160646 -86.61  0.001941764    2.636    0.621
       205 -11.1757     91.7908     62.3516   9.8059887849e+01   5.1454720854e+01    0.3905826    0.3567034  49.66  0.001216007    1.274    0.215
       206 -10.9493     91.3584     57.8646   9.6739424750e+01   5.2267001798e+01     0.341434    0.2680005  39.31  0.001037646    1.262    0.208
       207 -10.8581     87.5631     56.7121   9.7524277771e+01   5.3137465870e+01    0.4414363    0.2221735 -33.36  0.001403761    2.018    0.504
       208  -9.6837    167.5524     63.1044   7.9600099291e+01   3.4655754726e+01    0.2346546    0.1858453  70.71  0.001213865    1.261    0.207
       209 -10.7871    159.2801     61.7988   8.0879007453e+01   3.6858921738e+01    0.5405841     0.388747  24.28  0.002579704    1.772    0.436
       210 -11.4887    157.2107     55.6539   7.9566531594e+01   3.8276418782e+01     0.731954    0.3997879 -38.66  0.001386328    1.936    0.484
       211 -10.3899    155.2285     49.9778   7.8348957865e+01   3.9562167374e+01    0.3466085    0.2442635  -8.98 0.0008231468    1.887    0.470
       212  -9.9331    199.0338    244.4934   1.1328953501e+02  -5.5045779207e+00    0.2016299    0.1081371  38.92  0.001034018    1.599    0.375
       213 -10.8558    127.7155    242.8689   1.2713545826e+02   6.9053952163e+00    0.3235313    0.2003236 -79.68  0.001606003    2.366    0.577
       214 -10.0525    150.4956    237.4945   1.2181785221e+02   3.9489075506e+00    0.1333398    0.1140877  42.71 -2.341549e-05    1.009    0.009
       215 -11.1301    112.6150     50.4473   8.8279656315e+01   4.9202082748e+01    0.4352194    0.2952256  23.98  0.001399102    1.627    0.385
       216  -9.5288     15.3210    233.6020   1.4732299741e+02   2.4468488126e+01    0.2028571    0.1118196 -76.49  0.001219671    1.576    0.365
       217 -11.7915    105.5369     33.1520   8.4404552895e+01   5.2967513776e+01    0.6111012    0.3505764  10.44  0.001081259    2.611    0.617
       218 -10.4376    242.6330    231.4514   1.0288282461e+02  -1.0524991320e+01    0.2376023    0.2021712  61.35  0.001496353    1.917    0.478
       219 -11.6007    106.0288     20.2128   7.9849653034e+01   5.4302907552e+01    0.2544289    0.2153469  -5.14 0.0005333662    1.251    0.200
       220  -9.8116    147.5304     60.5691   8.3000500494e+01   3.9853875836e+01    0.3568766    0.1375818  56.75  0.001284112    2.537    0.606
       221  -9.5854    228.4564     59.4678   6.9028915520e+01   2.0685905459e+01    0.1363854    0.1177372 -75.05 2.755431e-05    1.030    0.030
       222 -10.8195    139.3568     43.7568   7.9793559124e+01   4.4165512120e+01    0.6127785    0.4068958  25.70  0.002026849    1.834    0.455
       223 -11.0549    136.4086     56.3475   8.4246316546e+01   4.3085089089e+01    0.6960395    0.5815626  -3.39  0.003265662    1.350    0.259
       224 -10.1504    145.7139     52.0099   8.0891516911e+01   4.1544513284e+01    0.3842091     0.314955  31.99  0.001430202    1.264    0.209
       225 -11.5189    146.0450     46.2145   7.9116652928e+01   4.2267744553e+01    0.7306124    0.3937323 -30.17  0.002979536    2.062    0.515
       226  -9.4868      1.9382     56.2916   1.2814438510e+02   6.3109464713e+01    0.1477495    0.1138994 -28.33 0.0004565495    1.136    0.120
       227  -9.5159    187.5152     55.1605   7.3941605394e+01   3.0977746895e+01    0.2952439    0.1588975  48.49  0.001299783    1.899    0.473
       228 -10.7125     98.0099     62.7962   9.6342677425e+01   5.0222229555e+01    0.4576866     0.285853  20.21  0.001716236    1.974    0.494
       229  -9.9542     66.9765     54.7502   1.0357248125e+02   5.6835591403e+01    0.2314503    0.1797149 -39.74  0.000706988    1.349    0.259
       230  -8.9830    212.4494     54.2112   6.9962764646e+01   2.5140665791e+01    0.1983943    0.1157505 -50.31 0.0009482914    1.697    0.411
       231  -9.9847    249.5163     53.0071   6.5156596364e+01   1.7017636610e+01    0.2535328    0.1842171 -77.27 0.0009240848    1.298    0.230
       232 -10.1986    244.8077     50.8234   6.5220691342e+01   1.8329170395e+01    0.2960593    0.2046282 -79.83  0.001220205    1.425    0.298
       233 -10.9099    240.0996     50.3478   6.5646422204e+01   1.9415170481e+01    0.3681585    0.2988001 -84.84  0.001168629    1.108    0.098
       234 -11.0516    202.2666     47.8857   6.9886476112e+01   2.8446199039e+01    0.6798075     0.368343 -41.29  0.003222683    1.852    0.460
       235  -9.4706     54.8955     51.1574   1.0660750171e+02   5.9130953959e+01    0.1665616    0.1231194  -3.83 0.0004169452    1.292    0.226
       236  -9.6959    220.9893     49.2905   6.7702893242e+01   2.3852348743e+01    0.3177145    0.2321439  18.66  0.001587166    2.323    0.570
       237 -11.1935    173.7238     48.1807   7.4432796625e+01   3.5323662463e+01    0.6695692     0.342964  62.39  0.002565241    1.815    0.449
       238 -10.2124    176.6756     43.3473   7.2652195487e+01   3.5254074995e+01    0.4002932     0.298866 -88.55  0.001885808    1.448    0.309
       239 -10.2307     90.4342     48.1219   9.3775179832e+01   5.3932535765e+01    0.2324242    0.2028325  50.48 0.0006071204    1.329    0.248
       240  -9.3058      2.3848     48.8831   1.2607973316e+02   6.4435818215e+01    0.2252056    0.1708602  14.27  0.001678933    1.536    0.349
       241 -10.1216      4.0425     44.4731   1.2420755406e+02   6.5119569057e+01    0.3744645    0.1745743 -10.80   0.00174883    2.606    0.616
       242  -9.9956     14.1919     46.1174   1.2059388348e+02   6.4161428075e+01    0.3761683    0.1278153 -32.61  0.001656329    3.077    0.675
       243  -9.4278     17.9803     41.9944   1.1779527422e+02   6.4572653573e+01    0.3178404    0.1859836 -36.00  0.002020305    1.352    0.260
       244  -9.7441    193.4663     45.9890   7.0701615109e+01   3.0821081444e+01    0.2684866    0.1798678  86.52 0.0008742862    1.611    0.379
       245  -9.7671    133.4181     44.0835   8.1194804896e+01   4.5495190974e+01    0.3643628    0.2200832  23.06  0.001600471    2.273    0.560
       246 -10.2557    161.8970     43.6216   7.5288429661e+01   3.8812161084e+01    0.4169128    0.2127786  70.24  0.001733332    2.184    0.542
       247 -11.5428    156.0818     41.8176   7.5859878170e+01   4.0450947104e+01    0.3979772     0.362765  75.74 0.0009686242    1.080    0.074
       248 -10.6800    153.2413     36.0218   7.4737105550e+01   4.1859822732e+01    0.2644672    0.2489529  74.85 0.0003202547    1.076    0.071
       249 -10.5634    100.6883     43.3491   8.9176674601e+01   5.2639421334e+01    0.3213513    0.2827571  85.81  0.001235423    1.573    0.364
       250 -11.1818     93.8565     41.3737   9.0452762090e+01   5.4240743912e+01    0.5574272    0.2753446  41.71  0.001936714    1.855    0.461
       251  -9.9105    188.9943     41.9897   7.0369636162e+01   3.2437395031e+01    0.2222993    0.1909098 -45.79 0.0006469197    1.240    0.194
       252 -10.9872     81.3823     39.3767   9.3527486134e+01   5.6803113988e+01    0.5424702    0.3326001  39.59  0.002389103    1.523    0.343
       253 -10.6973     77.7766     34.1127   9.2777573850e+01   5.8133152187e+01    0.8953427    0.2658023  38.05  0.003318232    3.395    0.705
       254 -10.8522     82.1707     31.4770   9.0445282961e+01   5.7693349082e+01    0.3675581    0.3387683  65.33  0.002416002    1.489    0.328
       255 -10.4737    231.3786     38.9872   6.4208375359e+01   2.2892891575e+01     0.408717    0.1933281 -49.95  0.001623212    2.000    0.500
       256  -9.4842    218.1793     38.8213   6.5694445789e+01   2.5919167500e+01     0.205923    0.1616258 -77.64 0.0007394299    1.169    0.145
       257 -11.2105    176.7377     37.1363   7.1008919723e+01   3.6037044156e+01    0.5249246    0.2809527 -34.08  0.002468662    2.028    0.507
       258 -10.8912    172.4743     33.0121   7.0596396397e+01   3.7578260533e+01    0.4371686    0.2794789  54.79   0.00194122    1.418    0.295
       259 -10.5630    197.7001    231.8551   1.1145493563e+02  -3.3471768827e+00    0.2686829    0.1363856  28.11  0.001215025    2.082    0.520
       260 -10.1427    247.4935    231.0739   1.0194270118e+02  -1.1191941700e+01    0.1754042    0.1095799 -29.48 0.0007780599    1.562    0.360
       261  -9.8496    133.4018     37.1847   7.9072949875e+01   4.6380377792e+01    0.4095632    0.2933581 -74.49  0.002038138    2.027    0.507
       262 -11.3526      4.4781     35.9997   1.2151937285e+02   6.6534129168e+01    0.4470353    0.2219808 -23.73 0.0007413443    1.873    0.466
       263  99.0000      6.0708     30.8997   1.1920445264e+02   6.7259525574e+01    0.3609448     0.159351   6.78   0.00198127    2.655    0.623
       264 -10.1007    206.6574     36.8485   6.6673683275e+01   2.8870686835e+01    0.2702785    0.2128294 -66.79 0.0009290501    1.221    0.181
       265 -10.7756     22.6569     36.5534   1.1408875992e+02   6.5063042412e+01    0.3392665    0.2085672  35.63  0.001542964    2.091    0.522
       266  -9.1754     23.2636    231.6139   1.4581707019e+02   2.4004120896e+01    0.1326223    0.1012831  40.25 0.0007615001    1.570    0.363
       267 -12.1689     49.1630     59.9727   1.1151197346e+02   5.8351274503e+01    0.6853995     0.550725  70.13  0.002168915    2.203    0.546
       268 -11.1791    159.5531     29.5006   7.1767857440e+01   4.1114619453e+01    0.7059029    0.2925735 -41.84   0.00295666    2.667    0.625
       269 -11.3444    164.3775     27.5727   7.0433482499e+01   4.0171389942e+01    0.3932447    0.3470803 -42.17  0.002402163    1.267    0.211
       270 -11.1098     69.6946     32.7004   9.4896349528e+01   5.9672585284e+01    0.4545966    0.2703989  34.23 0.0008755169    1.545    0.353
       271 -10.5017    240.6243     31.6908   6.1717853763e+01   2.1799225326e+01    0.3927365    0.3194608  64.21  0.002539014    1.349    0.259
       272 -11.3792    198.5698     28.7223   6.5793404631e+01   3.1797553020e+01    0.4514546    0.3584166  45.86  0.001490782    1.438    0.304
       273 -10.0535    199.6759     24.7029   6.4703592602e+01   3.2007549776e+01    0.2410651    0.1868348  61.29 0.0004879787    1.244    0.196
       274  -9.0729    190.1351    229.8329   1.1261042655e+02  -1.7161707685e+00    0.1847053    0.1418799  15.18 0.0005843941    1.321    0.243
       275  -9.0355    216.8101     32.1318   6.4359495798e+01   2.7092706269e+01    0.1631954    0.1463883  53.65 0.0003363742    1.318    0.241
       276  -9.7856    182.5219     32.0167   6.8804130468e+01   3.5261370080e+01    0.2075202    0.1648846  71.45 0.0005122432    1.112    0.101
       277  -9.3562     35.9663     31.6274   1.0691766118e+02   6.4469792507e+01    0.1977035    0.1454899 -61.38  0.001147316    2.607    0.616
       278  -9.6564    211.0805     30.0868   6.4570324402e+01   2.8678447390e+01    0.2302046    0.1927787 -85.58 0.0008100642    1.037    0.036
       279  -9.5850      9.0798    227.3081   1.4798428271e+02   2.6339843823e+01    0.1494127    0.1103607  69.55 0.0003409972    1.115    0.103
       280 -10.0413    234.2574    222.7886   1.0285761705e+02  -8.0060653601e+00    0.1809462    0.1312937   5.40  0.001060519    1.333    0.250
       281  -9.0959    209.3337    223.2935   1.0768443470e+02  -3.9817557707e+00    0.1361498   0.09354574   8.96 0.0004451479    1.638    0.390
       282  -9.1105    221.5397     29.4760   6.3240212020e+01   2.6335406625e+01    0.1305985    0.1082314 -82.50 0.0002721685    1.027    0.027
       283  -9.3254    158.4713     20.4711   6.9439432597e+01   4.2359850926e+01    0.2230976    0.1678576  61.49 0.0008795995    1.139    0.122
       284  -9.8784      9.7163    217.9412   1.4725769325e+02   2.8145616016e+01     0.161897    0.1122384  88.57 0.0007406449    1.112    0.100
       285 -10.1515    156.6499     25.2569   7.1075182931e+01   4.2286047013e+01    0.2186285    0.1803361  52.76 0.0004823744    1.111    0.100
       286  -9.9608    230.2790     27.8101   6.1955534330e+01   2.4565745111e+01      0.29647    0.1528943 -39.82  0.001525709    1.908    0.476
       287  -9.7803    250.5407     25.0533   5.9471648846e+01   2.0511308891e+01    0.1732759    0.1064695 -43.70 0.0004618848    1.546    0.353
       288 -11.1915    214.7010     23.6449   6.2712198882e+01   2.8610503382e+01    0.3797392    0.3419291  62.00  0.001349902    1.267    0.211
       289 -10.1686    144.0383     24.9680   7.3233778001e+01   4.5311903705e+01    0.5627255      0.32276  83.98   0.00245928    2.492    0.599
       290  -9.5011    166.4548    213.4288   1.1465957440e+02   5.4282458334e+00    0.3435043    0.2117151 -84.03 0.0008578631    4.477    0.777
       291  -9.3611    152.5041    207.5443   1.1662447720e+02   9.1659589007e+00    0.1421735    0.1291907  43.00 7.527963e-05    1.007    0.007
       292  -9.8072    133.4640     23.9802   7.4983041602e+01   4.7875820991e+01    0.3569581    0.2520264 -71.66  0.001852899    1.993    0.498
       293 -10.5386    138.1888     21.5781   7.3324144144e+01   4.7034981405e+01    0.4348922    0.1974905  49.17  0.001603027    1.891    0.471
       294  -9.8911    141.8019     19.6130   7.2060467868e+01   4.6393337732e+01     0.366634    0.1955282  66.02  0.001707015    1.746    0.427
       295  -9.2245    169.2151     23.7936   6.8654179485e+01   3.9424344041e+01    0.1856653    0.1426709  44.92 0.0008169297    1.339    0.253
       296 -11.0336      4.7014    203.0742   1.4713355054e+02   3.1668365014e+01    0.7344799   0.07983272 -67.39  0.002586137    4.903    0.796
       297 -10.1456     81.5231     19.0000   8.6026399803e+01   5.9244158068e+01    0.3312652    0.1577458  47.48  0.001057975    1.888    0.470
       298 -12.4109      5.2617    185.4037   1.4568143913e+02   3.5359004666e+01    0.7769185    0.4510961  86.53  0.004115831    1.475    0.322
       299 -10.0985    238.3437    204.5334   9.8698388389e+01  -5.8972925336e+00    0.2602558    0.1556247 -31.31  0.001359338    1.617    0.382
       300 -10.7543    245.3965    201.1777   9.6777155986e+01  -6.5215602133e+00    0.2239842    0.1540958 -38.63 0.0008761291    1.489    0.328
       301 -10.2482    234.1420    196.9611   9.8007309803e+01  -3.9912713092e+00    0.3574431    0.2536468 -10.51  0.001465735    1.490    0.329
       302  -9.9792     16.9265    192.4172   1.4393626366e+02   3.2784748561e+01    0.2081822    0.1368035 -72.36 0.0003809038    1.302    0.232
       303  -9.7282    169.4341    191.4998   1.1001662950e+02   9.0829067146e+00    0.3390394    0.1979613  27.85  0.001111155    2.033    0.508
       304  -9.1273    239.6918    184.6947   9.4562361265e+01  -2.9326888760e+00     0.137048   0.09712262   0.26 0.0003149406    1.608    0.378
       305 -10.0986     52.1511    173.9392   1.3428570106e+02   3.3067204215e+01    0.4564908    0.2035108 -83.25  0.001725729    3.247    0.692
       306  -9.0362     57.2014    175.1774   1.3327190286e+02   3.2144258776e+01    0.1802458    0.1367213  76.33 0.0004749146    1.290    0.225
       307  -9.5607    223.4680     22.4296   6.1515318635e+01   2.6747510279e+01    0.2122425    0.1668384  79.65 0.0007109833    1.129    0.114
       308  -9.6026    221.0011     19.2391   6.1086156764e+01   2.7678926820e+01    0.2126079    0.1581847 -64.10 -0.000430966    1.237    0.191
       309 -10.4616     66.3024     21.7323   9.1875953735e+01   6.1574911064e+01    0.2053287    0.1512733  25.32 0.0004225945    1.158    0.137
       310  -9.7240    248.0654    173.6297   9.0845355666e+01  -2.5430369955e+00    0.3365861    0.1518213  25.14  0.001131468    4.261    0.765
       311  -9.8765     39.5994    173.2354   1.3709682355e+02   3.4703799948e+01     0.180949   0.09945675 -60.47 0.0006222617    1.628    0.386
       312 -11.0362     35.5948    170.3137   1.3766328641e+02   3.5808293291e+01    0.3873799    0.1923684 -78.29   0.00189087    1.942    0.485
       313 -10.7781     10.7376    127.2490   1.3830572139e+02   4.7818492956e+01    0.5927587    0.1429939 -55.82  0.001753693    2.870    0.652
       314 -11.6454     13.3025    139.5040   1.3923944204e+02   4.4879727631e+01    0.7160918    0.3762428  78.26  0.003520192    2.497    0.600
       315  -9.0989    207.6898     20.2884   6.2742106111e+01   3.0627026376e+01    0.1864505    0.1594026 -62.94 0.0006786769    1.168    0.144
       316  -9.3359    205.5197     17.4876   6.2351731050e+01   3.1447375139e+01    0.2206664    0.1491655  66.96  0.001269371    1.314    0.239
       317  -8.9394      1.4868     20.5672   1.1769480973e+02   6.9157706349e+01    0.1070819   0.07579315 -22.54 0.0008066309    1.014    0.014
       318 -11.7987      9.2833    166.3618   1.4314723543e+02   3.9183984891e+01    0.5054554    0.3665905 -69.08  0.002676977    1.183    0.155
       319 -11.8268     13.0928    157.2525   1.4135548947e+02   4.0902103313e+01    0.4922271    0.3839631  73.50   0.00125501    1.256    0.204
       320 -12.2197     22.8984    149.3307   1.3809687208e+02   4.1852136660e+01    0.6616263      0.36744 -44.16  0.003538718    2.015    0.504
       321 -10.7921     15.9573    148.0868   1.3963498600e+02   4.2730798839e+01    0.3585006    0.2307338  43.98  0.001152211    1.739    0.425
       322  -9.4794    198.1073    167.8225   9.9078936184e+01   7.9686905306e+00    0.2112513    0.2056659 -84.36  0.000563925    1.151    0.131
       323 -11.3621     30.9842    151.2140   1.3635156520e+02   4.0663568607e+01    0.6578924    0.3360226 -75.97  0.001390211    1.846    0.458
       324 -10.4230     27.9892    163.3454   1.3859291353e+02   3.8177952410e+01    0.3976515    0.2022311 -69.75  0.002089429    1.644    0.392
       325  -9.5248    225.7560     16.9887   6.0137925942e+01   2.6862993755e+01    0.2346575    0.1391349 -87.81  0.001274137    1.613    0.380
       326 -10.2904     18.8511    165.4504   1.4092547591e+02   3.8561786390e+01    0.2573823    0.2233459 -47.25  0.001357142    1.383    0.277
       327  -9.8358    188.7743    164.2903   1.0026654238e+02   1.0587916719e+01    0.2953092    0.2044121 -28.90 0.0009188578    1.595    0.373
       328  -8.6089     94.6581     12.2740   7.9906557042e+01   5.7393290980e+01    0.1115274   0.09646742  86.81 0.0006997787    1.616    0.381
       329 -10.1413    205.8310    162.6626   9.6403081392e+01   7.3850275029e+00    0.4879996    0.3231409  13.69  0.001624156    2.172    0.540
       330 -10.0980     80.8209    160.0621   1.2518019657e+02   3.2360752236e+01    0.3385266    0.2918792  37.74  0.001932556    1.256    0.204
       331  -9.6414    246.4964    158.4794   8.7992300527e+01   2.8723030178e-01    0.1359322    0.1222064 -23.31 0.0002856817    1.011    0.011
       332  -9.3342    215.2828    158.3701   9.3618691177e+01   6.2809482238e+00    0.1502284    0.1109785  -4.41 0.0007015746    1.698    0.411
       333  -9.2982    224.1585    156.8200   9.1606301600e+01   4.8001448099e+00    0.2038515    0.1657772  -6.77 0.0008554272    1.343    0.255
       334 -10.6155    104.4972    153.8203   1.1797567959e+02   2.9917324374e+01    0.4459704    0.2669454 -63.02  0.001948071    1.787    0.440
       335 -10.2731     72.6468    152.3761   1.2593391498e+02   3.5380069573e+01    0.4609638    0.2470861  52.98  0.002034528    2.156    0.536
       336  -9.6758     42.4678    147.5388   1.3294065148e+02   4.0325609502e+01    0.3384333    0.2215202 -82.74  0.001311495    1.551    0.355
       337 -10.1928     48.5741    151.3523   1.3195667817e+02   3.8747731015e+01    0.3495749    0.2534091   4.02  0.001278576    2.014    0.503
       338 -11.7335    120.4448     57.6783   8.8539911192e+01   4.6456295288e+01     1.224979    0.6783651  50.58  0.005582852    1.720    0.419
       339 -11.1487     46.8708    146.1696   1.3159596720e+02   4.0153596042e+01    0.5869785    0.3219153 -60.86  0.002573028    1.569    0.363
       340 -12.0376      5.2285    147.3006   1.4211327019e+02   4.3737683341e+01    0.6384569    0.3447123 -57.78  0.002883994    1.578    0.366
       341 -11.0702      2.9895    141.7537   1.4203978726e+02   4.5128947856e+01    0.3442342    0.3095115 -21.85  0.002596253    1.441    0.306
       342 -11.4591      3.8758    136.4990   1.4122533169e+02   4.6235215535e+01    0.2692972    0.1910711 -58.26 0.0004790831    1.230    0.187
       343  -9.9626    214.6129    151.8155   9.2314568637e+01   7.6449776030e+00    0.2073662    0.1320296 -48.97 0.0005804352    1.644    0.392
       344 -11.6256     62.2872    149.6531   1.2815538255e+02   3.7445988546e+01    0.5250999    0.4442553  54.23  0.002117361    1.245    0.197
       345  -9.4252     85.5991    150.1765   1.2216128133e+02   3.3945978781e+01    0.2111869    0.1236893 -48.12 0.0007942626    1.695    0.410
       346 -10.6787    249.4888    142.0065   8.4033300512e+01   2.5678597761e+00    0.4436033    0.2389717 -28.08  0.001979681    2.024    0.506
       347  -9.3795    108.7614    146.0055   1.1527021666e+02   3.0964862945e+01    0.2017663     0.189426 -65.08  0.001101905    1.040    0.038
       348  -9.3172     74.2182    145.5963   1.2430279618e+02   3.6750327851e+01    0.1806201    0.1378971  19.90 0.0007506676    1.607    0.378
       349 -10.7600     33.1799    144.2551   1.3483881405e+02   4.2050848033e+01    0.2750421    0.2312794  88.15 0.0007231482    1.152    0.132
       350  -9.9745    133.4559    140.5088   1.0772747429e+02   2.7398135125e+01    0.3320074    0.2649218 -20.69  0.001563593    1.518    0.341
       351 -11.9160     29.8803    132.9292   1.3402920110e+02   4.4968413786e+01    0.6089096    0.3595131 -77.95 0.0004690412    1.681    0.405
       352 -10.3155     26.4896    139.9683   1.3594946277e+02   4.3668244008e+01    0.2329996    0.1804805 -55.17 0.0005526014    1.196    0.164
       353 -11.8689     22.8856    135.4794   1.3625296636e+02   4.5010070628e+01    0.7165732    0.4088646  45.95  0.003977289    2.016    0.504
       354 -10.9482     70.6878    134.1173   1.2306981410e+02   3.9946858954e+01    0.5854577    0.3720285  15.06  0.002710633    2.225    0.551
