#   1 NUMBER                 Running object number                                     
#   2 MAG_AUTO               Kron-like elliptical aperture magnitude                    [mag]
#   3 X_IMAGE                Object position along x                                    [pixel]
#   4 Y_IMAGE                Object position along y                                    [pixel]
#   5 X_WORLD                Barycenter position along world x axis                     [deg]
#   6 Y_WORLD                Barycenter position along world y axis                     [deg]
#   7 A_WORLD                Profile RMS along major axis (world units)                 [deg]
#   8 B_WORLD                Profile RMS along minor axis (world units)                 [deg]
#   9 THETA_WORLD            Position angle (CCW/world-x)                               [deg]
#  10 FWHM_WORLD             FWHM assuming a gaussian core                              [deg]
#  11 ELONGATION             A_IMAGE/B_IMAGE                                           
#  12 ELLIPTICITY            1 - B_IMAGE/A_IMAGE                                       
         1 -15.4177      4.3810    181.0666   1.4495225877e+02   3.6026778985e+01     7.453769     1.119006 -69.58   0.02631648    4.115    0.757
         2 -14.3164    203.6774     19.7503   6.2112143748e+01   3.2369942049e+01     2.470173     1.537067  32.75   0.01194982    2.693    0.629
         3 -11.0982      2.0000     25.5171   1.1834097937e+02   6.8921915995e+01    0.6383448          nan -50.41  0.001499581   12.066    0.917
         4 -11.5455      2.0273     13.9066   1.1399853703e+02   7.0653847309e+01    0.4320845    0.1686443 -43.54  0.002233007    2.120    0.528
         5 -12.4735      1.9342      5.3213   1.1047833525e+02   7.1827527022e+01    0.7099468     0.443233   4.35  0.005333746    1.404    0.288
         6 -11.6863     51.7109    236.0430   1.4043043969e+02   1.8898246793e+01    0.4749126    0.2875043 -88.46  0.001835728    1.510    0.338
         7 -11.2149    191.4385    249.5312   1.1488131006e+02  -5.8246136123e+00    0.3810236    0.1560816  31.50  0.001620382    2.522    0.603
         8 -12.5312     99.9725    237.3596   1.3128706263e+02   1.1603303185e+01    0.7100395    0.5007398 -53.05  0.002966512    1.683    0.406
         9 -12.7971    108.1019    246.2077   1.3073336838e+02   8.5924274192e+00      1.01536    0.2855613  47.60  0.003821016    3.072    0.674
        10 -11.6509    101.0172    249.3288   1.3245379584e+02   9.1277392883e+00     0.563171    0.3085874  56.59  0.002477749    1.649    0.394
        11 -11.1722     92.9516    249.7035   1.3402615739e+02   1.0306667978e+01    0.3804101    0.3388821   5.16  0.001717678    1.728    0.421
        12 -12.5409     89.0586    244.7302   1.3423854439e+02   1.1854812881e+01    0.7045868    0.3714219  57.77  0.002196694    1.734    0.423
        13 -10.4797     81.8425    249.5243   1.3609071651e+02   1.2012593563e+01    0.2096762    0.2046804 -25.44  0.001493745    1.533    0.348
        14 -12.3411      5.1643    246.7352   1.4918484140e+02   2.2199378948e+01     1.029447    0.5307064  67.86  0.006749083    1.490    0.329
        15 -12.9943     34.1302    246.1962   1.4436206170e+02   1.9075852195e+01    0.9320647    0.7011048  48.45   0.00664944    1.419    0.295
        16 -10.5066     46.3905    249.0682   1.4245247887e+02   1.6995452274e+01    0.3205515    0.1777564  48.47  0.001265713    1.549    0.354
        17 -11.3017     20.1094    243.0520   1.4652859634e+02   2.1314444913e+01    0.3695092    0.1813506  64.87 0.0005826492    1.676    0.403
        18 -12.0694     12.1544    239.9920   1.4766624054e+02   2.2778910728e+01    0.7724287    0.3060884  82.80    0.0036209    2.513    0.602
        19 -10.4564     56.0417    230.7583   1.3914353238e+02   1.9413503991e+01     0.221144    0.1883781  62.18   0.00130252    1.214    0.177
        20  -9.8049     53.4872    228.4842   1.3941914548e+02   2.0226795105e+01    0.2231645    0.1327347 -88.98  0.000746001    1.573    0.364
        21 -10.9282     22.5035    235.9629   1.4565471394e+02   2.2455439630e+01    0.2316344    0.1916854 -63.13  0.001195965    1.622    0.383
        22 -10.9387    247.8235    249.1790   1.0438101102e+02  -1.4235009487e+01    0.3588964     0.152846  38.57  0.001834284    2.269    0.559
        23 -12.6821     38.3198    225.7823   1.4204336050e+02   2.2710488329e+01    0.3274168    0.2514962 -70.87 0.0007251495    1.378    0.274
        24  -9.6456     32.5820    224.7342   1.4302321682e+02   2.3612569191e+01    0.1658341    0.0912563  89.68 0.0004084963    1.605    0.377
        25 -14.1487     45.7277    216.4748   1.3980035071e+02   2.3786519006e+01     1.595392    0.8491068  49.52  0.005836538    1.707    0.414
        26 -11.0264     26.5854    214.9971   1.4336125812e+02   2.6364362046e+01     0.343296    0.1598246  89.83   0.00116193    2.068    0.516
        27  -9.4413     42.5239    231.9685   1.4177896969e+02   2.0906819157e+01    0.1701272    0.1002135 -76.30 0.0004646431    1.528    0.345
        28 -11.4495     76.0998    228.8230   1.3505427817e+02   1.7003974080e+01    0.3546984    0.2069458  54.18  0.001924812    1.505    0.336
        29 -10.7668    227.8710    204.2500   9.9919209900e+01  -4.5726565722e+00    0.3169956    0.2362794 -56.73 0.0008093391    1.809    0.447
        30  -9.9606    192.0667    193.1314   1.0482139202e+02   3.8666824819e+00    0.4412016     0.233341 -62.13  0.001564839    3.413    0.707
        31 -11.5824     64.4234    193.1021   1.3333262242e+02   2.6590783327e+01    0.3770393    0.2525648 -46.40  0.001372842    1.850    0.459
        32 -11.1040     83.1387    230.6688   1.3386035265e+02   1.5572057435e+01    0.3523541     0.144128  49.06  0.001587705    2.150    0.535
        33  -8.4318    181.5345    192.4938   1.0690378178e+02   6.0140056538e+00    0.1435897    0.1379254  18.84 0.0005004446    1.003    0.003
        34 -11.7200     69.8172    185.9035   1.3116763209e+02   2.7521658670e+01    0.3086817    0.2500559 -49.62 0.0006678096    1.425    0.298
        35 -11.1075     79.3432    174.1280   1.2719023267e+02   2.8935108820e+01    0.2611527    0.2352242 -76.39 0.0004270279    1.074    0.069
        36 -13.3219     66.5326    171.5420   1.2989134498e+02   3.1419571292e+01    0.5296343     0.284034 -45.49  0.001794557    2.212    0.548
        37 -10.2668    105.7200    173.1941   1.2062108086e+02   2.4836758251e+01    0.4357776    0.1710606  46.76  0.001572455    2.596    0.615
        38 -11.9147     62.6691    217.5350   1.3653176220e+02   2.1326523803e+01    0.5908291    0.2386193  47.04  0.001236643    2.216    0.549
        39 -10.1176    230.5851    167.8405   9.2066700778e+01   1.3788208414e+00    0.3442329    0.1179678 -47.83  0.001148918    3.282    0.695
        40 -12.1314     86.5396    165.7859   1.2404681908e+02   2.9839617091e+01    0.8146836    0.5565796  59.12  0.003996546    1.558    0.358
        41 -13.1487     66.8806    143.3991   1.2517195503e+02   3.8228914500e+01     2.462499     1.208577 -86.71  0.003040969    5.059    0.802
        42  -9.2153    101.9749    145.7733   1.1626042050e+02   3.2121322346e+01    0.2951884    0.1832835 -33.52  0.001217255    2.115    0.527
        43 -12.1149     87.8569    148.8500   1.2060635971e+02   3.3761958520e+01    0.3000095    0.2516221 -41.85 0.0005116197    1.276    0.217
        44 -11.3234     38.6340    146.7464   1.3318439068e+02   4.0837482620e+01    0.3280619    0.2275667  42.45  0.001152465    1.614    0.380
        45 -12.0351     28.1276    143.7842   1.3546294686e+02   4.2590939090e+01    0.4264748    0.2497987 -62.41  0.002339867    1.389    0.280
        46  -9.5171    110.4267    135.5487   1.1178686308e+02   3.3037016715e+01    0.3272809    0.2263486 -15.14   0.00133047    2.331    0.571
        47 -10.5746     97.6428    132.6320   1.1458457446e+02   3.6048654083e+01    0.2817738    0.2411524 -27.63 0.0009374326    1.312    0.238
        48  -9.2501    107.1972    122.8443   1.0967769596e+02   3.6634103013e+01    0.2084008    0.1945383 -74.26 0.0003116835    1.084    0.078
        49 -15.0815     53.2806    208.6313   1.3750340669e+02   2.4547083100e+01      9.46528    0.7903202  46.58   0.02402378    7.612    0.869
        50 -11.4236     20.5434    230.1263   1.4559604190e+02   2.3855976817e+01    0.4035178     0.215792  38.07  0.001085678    2.041    0.510
        51 -11.1185    168.0287    113.0431   9.1931371945e+01   2.5774227484e+01    0.3713788    0.3110461 -81.32 0.0008986769    1.347    0.258
        52 -14.3203     10.5684    206.6825   1.4573485960e+02   2.9820763953e+01      2.80832     1.078174 -53.37   0.01271986    3.440    0.709
        53  -9.4564    204.7228    110.8969   8.3975000227e+01   1.7727337876e+01    0.3876438    0.1854693  37.63  0.001348006    3.022    0.669
        54  -9.8043     99.0657    149.8214   1.1785513529e+02   3.1648796729e+01    0.2789166    0.2545077 -42.56  0.000648426    1.169    0.144
        55 -11.0742      1.8313     88.3635   1.3430575045e+02   5.7111237837e+01    0.4270982    0.1314909 -66.40  0.001866256    2.665    0.625
        56 -10.6688      2.1525     80.1495   1.3267110222e+02   5.8822584363e+01    0.2528073    0.1181036 -61.83  0.001398929    1.658    0.397
        57 -10.8106    171.8710    247.5237   1.1837403390e+02  -2.2797616044e+00    0.3426621    0.1838323 -42.72  0.001740222    2.169    0.539
        58  -8.9169    109.0049     42.4973   8.5541156712e+01   5.1602485189e+01    0.1943474    0.1254926  51.26 0.0005227024    1.490    0.329
        59 -13.2827    138.3426    247.9258   1.2502806907e+02   3.2989456705e+00     1.235988    0.4904749  44.78  0.005447983    2.134    0.531
        60 -10.1850     57.9242    240.1992   1.3964842208e+02   1.7231894370e+01     0.284547     0.139678  48.69  0.001543052    1.731    0.422
