#   1 NUMBER                 Running object number                                     
#   2 MAG_AUTO               Kron-like elliptical aperture magnitude                    [mag]
#   3 X_IMAGE                Object position along x                                    [pixel]
#   4 Y_IMAGE                Object position along y                                    [pixel]
#   5 X_WORLD                Barycenter position along world x axis                     [deg]
#   6 Y_WORLD                Barycenter position along world y axis                     [deg]
#   7 A_WORLD                Profile RMS along major axis (world units)                 [deg]
#   8 B_WORLD                Profile RMS along minor axis (world units)                 [deg]
#   9 THETA_WORLD            Position angle (CCW/world-x)                               [deg]
#  10 FWHM_WORLD             FWHM assuming a gaussian core                              [deg]
#  11 ELONGATION             A_IMAGE/B_IMAGE                                           
#  12 ELLIPTICITY            1 - B_IMAGE/A_IMAGE                                       
         1  -9.7986     71.7923      6.6002   6.4931131316e+01   6.4421930033e+01    0.1687423    0.1170896  57.05 0.0009512983    1.736    0.424
         2  -9.8818    245.9895    247.4783   8.7625290729e+01  -1.0997650813e+01    0.1723153   0.08903825  32.79 0.0008295519    1.598    0.374
         3  -9.8491    237.6918    239.6711   8.7793898349e+01  -8.9851925521e+00    0.1212966    0.0729561   8.19 0.0007039347    1.660    0.398
         4 -10.1092     88.3181    227.3269   1.1443808666e+02   1.6310692634e+01    0.1070065   0.09675247  -6.81 0.0004827305    1.678    0.404
         5 -11.0424     99.0365    226.0077   1.1220532586e+02   1.4974203452e+01    0.3133071    0.1460462  35.75  0.001511254    2.118    0.528
         6  -9.9924    163.0140    224.7765   9.9335321075e+01   4.8255055865e+00    0.1823807   0.09075663  40.21 0.0005894664    1.692    0.409
         7 -11.0017    126.1414    220.7390   1.0615586961e+02   1.1677073580e+01    0.2018523    0.1664842  80.16 0.0005622424    1.313    0.239
         8 -10.0046    131.5000    214.4709   1.0421617054e+02   1.1934698523e+01    0.1317299    0.1134791  48.64 5.531014e-05    1.011    0.011
         9 -10.0403     89.2243    199.4445   1.1116341240e+02   2.1699335658e+01    0.1885587    0.1039398  51.01 0.0006412847    1.639    0.390
        10  -9.9268    126.6311    197.1700   1.0273436666e+02   1.6090215853e+01    0.1829747    0.1248714 -43.64 0.0009403868    1.725    0.420
        11 -11.4137    173.2921    196.0479   9.2584194645e+01   7.9027101859e+00    0.2671242    0.1898433  46.58 0.0009314648    1.353    0.261
        12  -9.7837    174.1818    192.1332   9.1696572749e+01   8.4389787931e+00    0.1849095    0.1627906  64.52 0.0006732074    1.322    0.244
        13 -10.5145    157.2513    188.2796   9.4599974351e+01   1.2309763420e+01    0.2623224    0.1634659  38.28   0.00121413    1.492    0.330
        14 -12.1210     97.2439    187.8405   1.0788493322e+02   2.2929424847e+01    0.6586384     0.200215  45.27  0.002392074    2.990    0.666
        15 -10.0548     56.6493    188.3196   1.1694473555e+02   2.8607586118e+01    0.1379763   0.07882945  67.41 0.0007047988    1.742    0.426
        16 -10.6587    110.4068    186.8706   1.0477515498e+02   2.0990224642e+01    0.3296417    0.1907712  68.23  0.001421522    2.319    0.569
        17 -10.9798     78.6233    176.7775   1.1063308245e+02   2.8210853955e+01    0.5385964    0.1292943  48.43  0.001627455    4.576    0.781
        18  -9.8950    212.5066    182.5067   8.2148166027e+01   3.0240070995e+00    0.1394375    0.1202239   7.34 -0.0001657195    1.043    0.041
        19 -10.3181     12.3389    184.7419   1.2592935204e+02   3.4149625746e+01     0.180984    0.1437475  67.24 0.0006616547    1.165    0.142
        20  -9.4448    135.9853    172.6588   9.6531655424e+01   1.9470921516e+01    0.2501207    0.1018773  57.13 0.0007051309    4.411    0.773
        21  -9.6835    208.3634    170.2970   8.0469165859e+01   5.8448828799e+00    0.1490306     0.103619   8.78 0.0007032536    1.716    0.417
        22 -10.3817    123.4681    170.7579   9.9113405627e+01   2.2197100701e+01    0.3201799   0.08984351  49.14  0.000893166    4.307    0.768
        23 -10.4157     56.2494    170.3160   1.1503667699e+02   3.2705128088e+01    0.2723943    0.1167347  54.09  0.001176308    2.466    0.594
        24 -10.3269    101.9949    167.4961   1.0368812183e+02   2.6678735122e+01    0.3365798    0.1174641  44.54  0.001212741    2.741    0.635
        25 -10.2228    140.9531    166.3162   9.4181911356e+01   1.9876330221e+01     0.399177    0.1698255  58.21   0.00114058    4.413    0.773
        26 -10.4667     81.1441    165.2619   1.0840513151e+02   3.0484152038e+01    0.3834558     0.194658  68.49  0.001455992    3.012    0.668
        27  -9.6256     38.2411    164.9969   1.1864303263e+02   3.6012370560e+01    0.1654927   0.09090561 -74.10 0.0004975304    1.568    0.362
        28 -10.1633     94.0029    161.2000   1.0460319992e+02   2.9440007316e+01    0.2449346    0.1465259  63.21  0.001082561    1.979    0.495
        29 -10.1058      9.7848    161.2166   1.2477894764e+02   3.9532320128e+01    0.2113474   0.08377054  65.81 0.0009551159    2.787    0.641
        30  -9.7881     24.0091    160.4960   1.2149526539e+02   3.8465138420e+01    0.1797166   0.07055774  53.89 0.0008105307    2.633    0.620
        31 -10.4423    107.5219    159.0977   1.0088555226e+02   2.7661852452e+01    0.5279562    0.1949964  52.40   0.00168758    3.525    0.716
        32 -10.7167     51.0066    156.1768   1.1455689144e+02   3.6639370080e+01    0.3586198    0.1501235  54.87  0.001482299    2.763    0.638
        33  -9.7085    219.1212    156.1117   7.5379630463e+01   6.2241031810e+00    0.1769074    0.1718032 -70.09 0.0004368954    1.276    0.216
        34 -10.7811     83.5074    156.0116   1.0638012891e+02   3.2299662977e+01    0.4137546     0.143611  50.72  0.001383389    3.498    0.714
        35 -10.5645     69.3204    154.7747   1.0977836434e+02   3.4640343384e+01    0.3591222    0.1851412  51.42  0.001573876    2.029    0.507
        36 -10.0932     99.7427    151.7496   1.0151063744e+02   3.0705538770e+01    0.2370612     0.104138  49.11 0.0008926385    2.426    0.588
        37  -9.9853     29.8209    151.2140   1.1918171352e+02   4.0068383323e+01    0.2275961    0.1009887  67.26  0.000958791    2.886    0.654
        38 -10.8711     40.6321    148.5210   1.1618553097e+02   3.9614190161e+01    0.4568179     0.177276  54.16  0.001844623    3.092    0.677
        39 -11.3099    109.5862    146.7788   9.8037118142e+01   3.0158671539e+01    0.7384537    0.3194496  58.40  0.002212962    4.103    0.756
        40 -11.2444     57.2765    146.7044   1.1167635634e+02   3.8139510283e+01    0.5777152      0.23558  58.12  0.002061873    3.633    0.725
        41 -11.1821    150.6219    146.2654   8.7736217877e+01   2.2254909331e+01    0.5529112    0.3201996  69.29  0.001866591    3.263    0.694
        42  -9.8011     78.8145    147.6078   1.0619753171e+02   3.5003300327e+01    0.2028466    0.1206215  49.46 0.0009500121    1.732    0.423
        43 -10.1779     14.1281    146.6617   1.2253203728e+02   4.2501645328e+01    0.2175491   0.08679692  38.22  0.001085145    2.556    0.609
        44 -10.7865    127.1095    144.6840   9.3142499545e+01   2.7357925313e+01    0.4748353    0.2509355  58.77  0.001745883    2.542    0.607
        45 -10.6711     89.8678    145.0108   1.0283881142e+02   3.3926982061e+01    0.4481712    0.1800156  45.04  0.001699197    2.544    0.607
        46 -10.8385     24.6589    139.1598   1.1913742937e+02   4.3376538724e+01    0.4786789    0.1909228  56.30  0.002034039    3.085    0.676
        47 -10.2767     39.5365    136.5163   1.1491196725e+02   4.2595304041e+01     0.220887     0.101025  44.05  0.001028916    2.307    0.567
        48 -10.8069    114.5007    134.4097   9.4172087370e+01   3.2150949722e+01    0.4615621     0.211866  57.91  0.001465727    3.461    0.711
        49 -11.5073     85.3085    132.8261   1.0175521449e+02   3.7577969447e+01    0.6195525    0.2790764  52.24  0.002315014    2.756    0.637
        50 -10.8077    133.7547    132.9368   8.8844263273e+01   2.8695260717e+01    0.4139804    0.2474665  59.48  0.001642355    2.087    0.521
        51 -11.3476    101.2194    129.5904   9.6698313989e+01   3.5708503616e+01    0.6565308     0.313742  52.94  0.002438957    2.570    0.611
        52 -10.6514     13.7621    130.3702   1.2098549975e+02   4.6324350657e+01     0.349963     0.164221  61.22  0.001690347    2.514    0.602
        53 -10.1827    170.7370    130.7712   7.9460009746e+01   2.1199872641e+01     0.249049    0.1258201  56.31 0.0008889696    2.406    0.584
        54 -10.3240    154.8040    130.6350   8.3113880750e+01   2.4736987687e+01    0.2311874    0.1449298  55.03 0.0009530113    1.753    0.429
        55 -10.9452     74.5159    130.3041   1.0427433869e+02   3.9810070575e+01    0.3453797    0.1788987  46.64  0.001507957    2.078    0.519
        56  -9.6101      2.3199    130.6384   1.2396179788e+02   4.7046413609e+01    0.1260855   0.07139921  71.68 0.0007042242    1.772    0.436
        57 -10.8163    120.3985    127.0185   9.0929254828e+01   3.2735252176e+01    0.6525459    0.2901744  57.55  0.001984922    3.687    0.729
        58 -11.4459     60.8701    125.6394   1.0728304060e+02   4.2790584548e+01    0.6179129    0.3105353  61.59   0.00240658    3.025    0.669
        59 -11.4282     45.3362    124.2478   1.1149204814e+02   4.4946729249e+01    0.6810473    0.3427272  66.98  0.002738201    3.096    0.677
        60 -11.6739     29.6270    123.4255   1.1582139999e+02   4.6683921234e+01    0.8146098    0.3495626  68.74  0.002815462    4.544    0.780
        61  -9.9515    181.9646    126.0000   7.5825595024e+01   1.9658951699e+01     0.259088    0.0883053  47.97 0.0007764638    2.978    0.664
        62 -11.1657    143.4640    120.4425   8.3358953441e+01   2.9425289311e+01    0.4960283    0.2649475  53.03  0.001755025    2.063    0.515
        63 -10.4363     72.6611    121.0244   1.0299077731e+02   4.2326190808e+01     0.389283    0.1818617  46.35  0.001597736    2.392    0.582
        64 -10.4821    133.1507    120.1739   8.5916739099e+01   3.1695757336e+01    0.4740583    0.2047043  49.92  0.001637393    2.520    0.603
        65 -10.7617      4.1602    118.3941   1.2226144407e+02   4.9765789230e+01    0.3692491    0.1755292  64.82   0.00182416    2.549    0.608
        66 -11.0511    110.9588    116.0384   9.0858931551e+01   3.7112586916e+01    0.4929093    0.3317767  84.47  0.001947201    2.455    0.593
        67 -11.2682     80.9226    114.2823   9.9120582273e+01   4.2728500622e+01    0.6544288    0.3702025  63.97   0.00252475    2.832    0.647
        68 -11.6978     95.7137    114.1654   9.4744661733e+01   4.0333298012e+01    0.7256386    0.2897627  43.20  0.002635965    2.634    0.620
        69 -10.3602    124.1417    113.6269   8.6635123393e+01   3.5046929375e+01    0.4567521    0.1363844  49.36  0.001254357    4.039    0.752
        70 -11.1206     68.5094    111.9944   1.0235032158e+02   4.5087510238e+01    0.4831032    0.2430026  46.33  0.002078003    2.270    0.559
        71 -10.7280     15.2646    111.5996   1.1831808879e+02   5.0632437188e+01    0.3183089    0.1852005  54.15  0.001540125    2.006    0.502
        72 -11.7435     47.4234    104.0196   1.0724330579e+02   4.9596089724e+01    0.8486494     0.406774  60.63  0.003083379    3.936    0.746
        73 -10.5873    142.0901    106.1449   7.9953504768e+01   3.2830742670e+01    0.4788845    0.2113925  52.95  0.001631148    2.560    0.609
        74 -11.6574     23.9884    103.4011   1.1449381696e+02   5.1923335803e+01    0.7398517    0.3382263  63.93  0.002865757    3.934    0.746
        75 -10.5987      7.4909    103.9738   1.1960780723e+02   5.2919291813e+01    0.2180091    0.1520587  54.15  0.001375053    1.664    0.399
        76 -11.0133    130.8413    103.3046   8.2093835343e+01   3.5922978412e+01    0.5864238    0.2048609  50.20  0.001792544    3.220    0.689
        77 -11.7646    112.6607    101.3346   8.6563238477e+01   4.0138970749e+01    0.8268171    0.3105954  49.77  0.002655681    3.168    0.684
        78 -10.5938     83.8376    101.2378   9.5133693061e+01   4.5357805720e+01    0.4337071    0.2427412  56.86  0.001738761    2.521    0.603
        79 -11.5015     65.7437     97.5419   9.9951711820e+01   4.8903107363e+01    0.6647729    0.3591985  53.52  0.002810084    2.549    0.608
        80 -11.1101     97.1837     98.0043   9.0203548218e+01   4.3825941960e+01    0.5519503     0.225389  41.13  0.002017475    2.572    0.611
        81 -10.7412    140.8165     93.3814   7.6697525096e+01   3.5801028896e+01    0.3939807    0.1977205  59.87  0.001354865    2.655    0.623
        82 -11.0131    127.5042     92.5475   7.9947316224e+01   3.8954648120e+01    0.6932636    0.3007539  52.84  0.002367998    2.675    0.626
        83 -10.8615      7.5367     92.9205   1.1806342089e+02   5.5475300913e+01    0.4672433    0.1625787  31.83  0.002201314    3.263    0.694
        84 -11.4787     35.8847     90.8731   1.0834957331e+02   5.3859955669e+01    0.4071097     0.272102  77.27  0.002111638    2.048    0.512
        85 -11.2953     89.2758     88.4465   9.0000118177e+01   4.7369524362e+01    0.6907394    0.3202389  53.36   0.00242653    3.208    0.688
        86 -11.3263     50.6129     86.1901   1.0226526352e+02   5.3427798065e+01    0.6322485    0.3429145  58.93  0.002574047    3.237    0.691
        87  -9.4988     20.6409     88.3149   1.1299879559e+02   5.5701656381e+01    0.1238111   0.08758937  72.36 0.0007043355    1.751    0.429
        88 -11.1886    107.7721     85.2131   8.3372654328e+01   4.4633330608e+01    0.6676835     0.332914  54.83  0.002451024    2.631    0.620
        89 -10.2717    142.5838     84.3961   7.3606368629e+01   3.7200862439e+01    0.3137816    0.1472862  63.32 0.0009550093    3.439    0.709
        90 -11.1731     25.9168     81.7262   1.0989595158e+02   5.6820832455e+01    0.3869132    0.2467048  56.84  0.002059487    2.142    0.533
        91 -10.0842    121.3140     81.8519   7.8449107466e+01   4.2516095274e+01     0.280061    0.2143197  58.78  0.001322227    1.467    0.318
        92 -10.6686     75.9689     81.9113   9.2464788833e+01   5.0992290126e+01    0.3273823    0.2331134  59.44  0.001591499    1.887    0.470
        93 -10.8016     11.4500     81.9819   1.1500193038e+02   5.7753705423e+01    0.3823408    0.1313667  33.18  0.001746714    3.369    0.703
        94 -10.5939    130.5893     77.2145   7.4487916053e+01   4.1377046727e+01     0.542424    0.2099557  53.90  0.001759525    2.957    0.662
        95 -10.0565    142.7458     76.4188   7.1136797914e+01   3.8699243928e+01    0.3982443    0.1468198  48.98  0.001311932    2.676    0.626
        96 -10.9799     84.3844     74.3665   8.7389744967e+01   5.1250979933e+01     0.525597    0.3111744  58.82  0.002148652    2.643    0.622
        97 -10.2143     43.9464     73.7207   1.0148455752e+02   5.6973764876e+01    0.2803927    0.1364229  42.77  0.001272501    2.616    0.618
        98  -9.7245    117.9271     74.0000   7.6934562868e+01   4.4813574165e+01    0.2505465   0.08650603  46.97  0.000802542    2.943    0.660
        99 -10.0715    107.3805     73.0523   7.9700152226e+01   4.7213229157e+01    0.3062898    0.2040946  62.61  0.001325731    2.020    0.505
       100 -10.4387     96.6474     72.8227   8.2926487643e+01   4.9366559945e+01    0.3859663    0.2724403  67.19  0.001732604    2.095    0.523
       101  -9.8774      8.0320     73.3593   1.1465043029e+02   5.9887754124e+01    0.2799709   0.09667592  43.38  0.001129376    4.432    0.774
       102 -10.9309     52.9285     71.1226   9.7459164347e+01   5.6526380838e+01    0.4624351    0.3262008  67.57    0.0023038    2.290    0.563
       103 -10.9476     18.0743     70.9994   1.1047141476e+02   5.9806298274e+01    0.3388247    0.1743381  36.18  0.001801861    2.402    0.584
       104  -9.7987    123.1315     67.6415   7.3420279284e+01   4.4878684731e+01    0.3039219    0.1445591  57.16  0.001088815    2.559    0.609
       105 -10.5993     39.1038     65.7714   1.0115600527e+02   5.9206508976e+01    0.3785011    0.1997601  44.85  0.001807074    2.588    0.614
       106  -9.9161    148.7978     69.2554   6.7456569470e+01   3.8553116945e+01    0.3762782    0.1276773  51.56  0.001200268    2.860    0.650
       107 -10.3215    112.6627     65.2007   7.5552365963e+01   4.7623306870e+01    0.4469714    0.2049949  56.94  0.001561727    2.920    0.658
       108 -10.1616    101.5965     61.6998   7.7668179356e+01   5.0566539819e+01    0.3161854    0.2273345  87.86  0.001329078    2.590    0.614
       109 -11.0276     75.7369     60.8356   8.5931850046e+01   5.5435482701e+01    0.5663587    0.2697199  48.52  0.002293091    2.725    0.633
       110 -10.3932     26.7804     60.4265   1.0453865141e+02   6.1466074096e+01    0.3371236    0.1726411  47.11  0.001590631    3.015    0.668
       111  -9.6706     90.7220     60.7545   8.0800186283e+01   5.2844539372e+01    0.2170928    0.1175649  53.23 0.0008169404    2.375    0.579
       112  -9.6087    132.6555     59.3007   6.8148196113e+01   4.4167707485e+01    0.1526311    0.1207412 -78.84 0.0007037719    1.679    0.404
       113 -11.1304      9.2973     58.4827   1.1108755818e+02   6.3071452187e+01    0.3984482    0.1972277  41.36  0.002080455    2.821    0.645
       114 -10.3250    121.1892     57.2754   7.0457513207e+01   4.7165723368e+01    0.4367061    0.2111798  61.03  0.001561767    2.783    0.641
       115 -10.6554     55.6079     55.7858   9.1668686805e+01   5.9381561724e+01    0.3639885    0.2605157 -79.29  0.001764273    2.498    0.600
       116 -10.5370     45.9139     56.7175   9.5781609097e+01   6.0379113363e+01    0.3482449    0.2088755  46.14  0.001757547    2.283    0.562
       117 -11.0060     64.5252     55.8599   8.8296007575e+01   5.8134067470e+01    0.4114854    0.2093319  44.56  0.001842763    2.402    0.584
       118  -9.8159    108.2634     55.4114   7.3456536875e+01   5.0321438886e+01    0.2031883    0.1412624  57.54 0.0009513306    1.657    0.396
       119 -10.9483     32.8676     52.8570   9.9873112142e+01   6.2515966361e+01    0.4233814     0.252905  50.27   0.00213398    2.677    0.627
       120 -10.4074     22.1116     53.5070   1.0455335088e+02   6.3287891755e+01    0.2990816    0.1825507  35.46  0.001729043    2.058    0.514
       121 -10.6173     94.1939     52.1242   7.6596281418e+01   5.3756981255e+01    0.4287116    0.2617511  58.75  0.001879526    2.236    0.553
       122 -10.3684     83.9617     47.9853   7.8446290170e+01   5.6400546514e+01    0.3490672    0.1905947  54.31  0.001483427    2.490    0.598
       123  -9.7483    124.4848     47.3180   6.6106718237e+01   4.8036016531e+01    0.2675729    0.1324636  53.55  0.001077426    1.991    0.498
       124  -9.4472    113.9807     48.0000   6.9160662388e+01   5.0317420690e+01    0.2458008   0.08099653  51.02 0.0001664013    2.996    0.666
       125 -10.4939     46.0525     45.5509   9.1935932079e+01   6.2559040321e+01      0.21929    0.1884412  41.39  0.001391706    1.498    0.332
       126 -10.5162     18.3059     45.8099   1.0396109553e+02   6.5141749501e+01    0.3351413    0.1392979  25.39  0.001690107    2.744    0.636
       127 -10.4114     59.4980     43.8905   8.5876777433e+01   6.1101728439e+01    0.2985753    0.2217047  59.85   0.00158019    2.173    0.540
       128 -10.8220      6.5098     43.2991   1.0847662898e+02   6.6382946355e+01    0.3069809    0.2339723  54.32  0.001958577    1.938    0.484
       129 -10.5284     71.6647     42.8156   8.0825510617e+01   5.9417186332e+01    0.4554934    0.2374034  52.84  0.001917719    2.873    0.652
       130 -10.0515    107.9535     42.5258   6.8844742717e+01   5.2496313140e+01    0.3184064    0.1431993  56.89  0.001202652    2.610    0.617
       131 -10.3918     38.1107     41.6150   9.3883799597e+01   6.4199150633e+01    0.2725738     0.178693  47.63  0.001481457    2.282    0.562
       132  -9.9872     97.1248     39.3910   7.0863849331e+01   5.5257467472e+01    0.2714288    0.1831446  62.49  0.001292382    1.942    0.485
       133 -10.5462     27.9796     37.0018   9.6720198582e+01   6.6070229363e+01    0.2433242    0.1543238  48.41  0.001313293    2.585    0.613
       134  -9.9757    113.1771     35.7936   6.4859337855e+01   5.2328657880e+01    0.2360637    0.1546245 -70.56 0.0009511455    2.868    0.651
       135  -9.4660    105.4983     35.4903   6.6866099144e+01   5.4068106132e+01    0.1406254    0.1299065  16.27 0.0001023493    1.025    0.024
       136 -10.6599     62.3770     33.7224   8.0694818971e+01   6.2409310120e+01    0.3736577    0.2204208  50.11  0.001829902    2.323    0.570
       137 -10.3913     51.7490     33.9288   8.5083643290e+01   6.3916974044e+01    0.2735744      0.17725  35.28  0.001540349    1.685    0.407
       138 -10.5110     74.7130     32.5149   7.5554017595e+01   6.0564628967e+01    0.4209931     0.208042  51.55  0.001832472    2.581    0.612
       139 -10.6022     14.2197     31.8697   1.0136172147e+02   6.8142459668e+01    0.2227454    0.1751653  55.13  0.001458292    2.059    0.514
       140  -9.8336    103.1752     30.3991   6.5533769305e+01   5.5274316142e+01    0.1973021    0.1323282  62.49 0.0009568193    1.765    0.433
       141  -9.5063     42.6805     30.3463   8.7501825622e+01   6.5688989779e+01    0.1106806    0.1005974 -73.29 0.0007049157    1.730    0.422
       142 -10.4731     83.1248     28.7940   7.1072434454e+01   5.9571276589e+01    0.3593482    0.2495123  75.49  0.001635943    2.818    0.645
       143 -10.3038     93.5493     27.7621   6.7307559882e+01   5.7652734135e+01    0.3731943    0.2250348  67.91    0.0016171    2.646    0.622
       144 -10.3118      4.4506     28.1672   1.0490162464e+02   6.9447046576e+01    0.1811506    0.1396496  63.51  0.001187429    2.223    0.550
       145  -9.5142     40.3194     25.6379   8.6561715434e+01   6.6754873418e+01    0.1093536   0.09902043 -69.07 0.0007041939    1.772    0.436
       146 -10.4677     64.8564     21.6184   7.4474248587e+01   6.3825361733e+01    0.3054618    0.2230932  59.86  0.001672621    2.111    0.526
       147 -10.8241     50.9630     22.2838   8.0389251695e+01   6.5875572655e+01    0.4493118    0.1618318  43.23  0.001870057    3.306    0.698
       148 -10.5264     75.9354     20.3936   6.9885076621e+01   6.2046534728e+01    0.3810981    0.2294556  59.98  0.001823825    2.407    0.584
       149 -10.0076     89.4902     18.1351   6.4487355604e+01   5.9691151412e+01    0.2578253    0.1802269  67.84  0.001329445    1.949    0.487
       150  -9.9249     31.9652     16.9860   8.6603103594e+01   6.9097053515e+01    0.1802946    0.1215294  48.65  0.001015018    2.546    0.607
       151  -9.8650     98.6686     16.3412   6.1068121551e+01   5.7969096968e+01      0.19302    0.1590103 -67.74 0.0008571438    1.714    0.417
       152  -9.5340     18.3343     14.6548   9.2436446676e+01   7.0832033346e+01   0.09723094   0.09223785 -73.24 0.0007049632    1.766    0.434
       153  -9.7563     40.6371     12.8281   8.0501853642e+01   6.8650886642e+01    0.1669507   0.09967519 -39.74 0.0009506652    1.764    0.433
       154  -9.4731     84.6778     11.3261   6.2961300314e+01   6.1429253165e+01    0.1203355    0.1032626 -63.16 0.0007047922    1.686    0.407
       155  -9.4702     48.6286     10.3324   7.5697621236e+01   6.7869387401e+01    0.1071427   0.09932882 -64.96 0.0007027982    1.837    0.456
       156  -9.7886     57.4694     10.0000   7.1869522902e+01   6.6540208085e+01    0.2567951   0.06487927  45.17 0.0009323896    3.916    0.745
