#   1 NUMBER                 Running object number                                     
#   2 MAG_AUTO               Kron-like elliptical aperture magnitude                    [mag]
#   3 X_IMAGE                Object position along x                                    [pixel]
#   4 Y_IMAGE                Object position along y                                    [pixel]
#   5 X_WORLD                Barycenter position along world x axis                     [deg]
#   6 Y_WORLD                Barycenter position along world y axis                     [deg]
#   7 A_WORLD                Profile RMS along major axis (world units)                 [deg]
#   8 B_WORLD                Profile RMS along minor axis (world units)                 [deg]
#   9 THETA_WORLD            Position angle (CCW/world-x)                               [deg]
#  10 FWHM_WORLD             FWHM assuming a gaussian core                              [deg]
#  11 ELONGATION             A_IMAGE/B_IMAGE                                           
#  12 ELLIPTICITY            1 - B_IMAGE/A_IMAGE                                       
         1 -12.9404    159.6873     44.1319   8.1119001904e+01   4.0117209804e+01      1.50731     1.162741 -29.04   0.00688258    1.352    0.260
         2 -10.6911    173.0140     14.5156   6.9315155617e+01   4.0275667215e+01    0.8765441    0.3327648  43.75  0.003049747    3.152    0.683
         3 -11.3486    168.9770     11.5194   6.8936236163e+01   4.1646718506e+01    0.9948773    0.5947558  37.16  0.004561869    1.929    0.482
         4  -9.5049    236.1848      2.8152   5.9492491506e+01   2.5387741454e+01    0.3024166     0.225413 -46.47  0.000932994    1.239    0.193
         5 -10.7139    138.4553    238.8304   1.2893756096e+02   8.3215527199e+00     0.298317    0.2311009 -16.83 0.0006876562    2.123    0.529
         6 -15.7673    188.6846    226.8930   1.1817809580e+02   1.6546151568e+00     4.309766     3.564772 -35.22   0.02922716    1.472    0.321
         7  -9.5606    136.6629    224.0680   1.2747520612e+02   1.0946990401e+01    0.1195457   0.04978191  46.05 0.0001955595    1.942    0.485
         8 -11.5281      6.5773    222.6393   1.5086739825e+02   2.8743024617e+01    0.1218343   0.08647162  75.76 0.0004838688    1.086    0.079
         9 -10.7260     11.3845    221.7075   1.5003548250e+02   2.8445071897e+01     0.138303   0.07788166 -74.30 0.0009552363    1.726    0.421
        10 -10.7965    140.1042    203.7293   1.2404070012e+02   1.3829980415e+01    0.1824225    0.1604089  65.14 0.0003373573    1.098    0.089
        11 -10.5165     17.6246    202.3526   1.4794711480e+02   3.1462698374e+01    0.1224022   0.08927464  85.96 0.0002344564    1.130    0.115
        12 -10.0821    136.0219    198.9199   1.2416260272e+02   1.5423826100e+01    0.1852088     0.150191  56.71 0.0003031595    1.085    0.078
        13 -12.5413    131.8919    195.9168   1.2456713765e+02   1.6714421735e+01    0.3523589    0.2480336 -78.63 0.0009657677    1.748    0.428
        14  -9.7706     12.6351    198.8628   1.4865286778e+02   3.2627213649e+01   0.08316655   0.06936081  39.98 0.0002964408    1.588    0.370
        15 -11.2737     25.4124    193.7724   1.4596055989e+02   3.2368235036e+01    0.4063358    0.1916273  69.08  0.002303083    1.887    0.470
        16 -11.4626    122.8449    191.1235   1.2574756287e+02   1.9224392667e+01     0.222225    0.1881528 -74.09 0.0005760614    1.258    0.205
        17 -11.5797    138.9829    189.8444   1.2216358416e+02   1.6576168232e+01    0.5298936    0.3403403  23.98  0.002495005    2.169    0.539
        18  -8.3536    144.3187    191.7051   1.2134799656e+02   1.5248205028e+01    0.2440579    0.1766447  82.99 0.0003565493    1.798    0.444
        19  -9.1049     16.8476    187.2118   1.4716641529e+02   3.4543838673e+01    0.1106382   0.08538879  77.12 0.0008156676    1.087    0.080
        20 -10.7580     20.2023    184.5076   1.4633501053e+02   3.4770973521e+01    0.2519543    0.1224481 -84.46 0.0008770803    1.722    0.419
        21 -15.2031    113.3609    197.7557   1.2865467036e+02   1.9563852287e+01     1.299488    0.8825936  75.32  0.007120082    1.617    0.382
        22 -11.2770    164.0451    201.9045   1.1898416161e+02   9.8148088256e+00    0.3509058    0.3133873 -42.06 0.0004656856    1.307    0.235
        23  -8.4850    156.4844    180.5726   1.1693474200e+02   1.5013033451e+01    0.1744369     0.136447 -33.76 0.0001313741    1.513    0.339
        24  -7.1099    146.6344    183.5816   1.1953040233e+02   1.6334284125e+01    0.2369128    0.1236185  46.75 0.0006869791    1.716    0.417
        25 -10.5071    144.2026    175.8765   1.1872242875e+02   1.8278601828e+01    0.2929382    0.2244181  56.76 0.0003450474    1.240    0.193
        26  -9.3604    151.5804    181.3413   1.1810204129e+02   1.5814596250e+01    0.3578838    0.2054163  33.15  0.001312777    1.913    0.477
        27  -8.4961    147.2147    180.0339   1.1880099462e+02   1.6898487883e+01     0.293876    0.1963155 -50.84 0.0003636479    1.654    0.396
        28 -10.6247    131.8620    181.2487   1.2229840945e+02   1.9542464737e+01    0.2018439    0.1844107  69.57 0.0002907299    1.050    0.048
        29 -12.8519    108.7096    178.0553   1.2685772699e+02   2.4298248686e+01    0.4039905    0.2679907  44.26  0.001284119    1.413    0.292
        30  -8.0461    154.5512    177.1117   1.1672519203e+02   1.6037829716e+01    0.2209399     0.170099  56.74 0.0004014999    1.261    0.207
        31  -8.5609    131.0471    176.9168   1.2176217130e+02   2.0555039468e+01    0.1514261    0.1489313  59.47            0    1.152    0.132
        32 -12.2404     32.8231    176.5477   1.4317526988e+02   3.5146550237e+01    0.2037383    0.1723686 -86.45 0.0004427786    1.209    0.173
        33  -8.2409    120.6901    176.5125   1.2397241019e+02   2.2523797780e+01    0.1334753    0.1180083  83.26  1.90278e-05    1.097    0.088
        34 -19.3980     72.6229    230.9272   1.4005337134e+02   1.9581213814e+01      5.87509     3.322501  52.22   0.03703088    1.371    0.271
        35  -9.7603    137.0098    172.9308   1.1977372394e+02   2.0235842813e+01     0.201058    0.1807558  62.63 -0.001877172    1.025    0.025
        36  -8.5658     99.0213    173.0987   1.2828070373e+02   2.6962067033e+01     0.143075    0.1217234 -81.93            0    1.137    0.121
        37  -8.4585    143.8695    169.5495   1.1766140860e+02   1.9590763081e+01    0.2218011    0.1307991  43.44  0.001020199    1.574    0.364
        38  -9.4766     28.9735    168.3186   1.4328445383e+02   3.7303105777e+01     0.169528    0.1266123  86.90  0.000419025    1.047    0.045
        39  -8.1775    155.7815    168.3495   1.1484184176e+02   1.7472134232e+01    0.2206176    0.1659519  56.53 0.0006252941    1.311    0.237
        40  -8.8646    151.1908    166.8646   1.1555731863e+02   1.8678837163e+01    0.3312272    0.2351043  25.58 0.0004624813    1.706    0.414
        41  -8.2445     99.3458    168.6637   1.2754191022e+02   2.7860769247e+01    0.2828835    0.1159435  42.44  0.001016002    2.288    0.563
        42 -10.0819     21.2237    168.0572   1.4491311236e+02   3.8117323050e+01    0.1703187    0.1314192  70.97 0.0003041961    1.124    0.110
        43  -8.3982      6.0789    165.9764   1.4792331965e+02   3.9893804719e+01    0.1310589   0.09911039 -83.67            0    1.163    0.140
        44 -16.4883     60.5953    137.9717   1.3226083966e+02   4.0527276393e+01     7.919817     5.872207  48.26   0.04646692    1.392    0.282
        45 -16.0147    113.3138    229.0731   1.3244961962e+02   1.3911730173e+01     1.632292    0.5793288  57.88  0.006094863    3.852    0.740
        46  -9.1045    151.1361    157.8507   1.1381461334e+02   2.0484889804e+01    0.2205227    0.1911792  74.06 0.0005077953    1.218    0.179
        47 -16.0821    100.1899    211.8730   1.3304365144e+02   1.9017376841e+01     1.283912    0.5125834  45.24  0.006055325    2.069    0.517
        48  -7.7606    160.3743    152.2567   1.1061858310e+02   1.9687939205e+01     0.149507    0.1138059  18.26 0.0005661403    1.652    0.395
        49 -10.5244    237.8928    126.7236   8.9710912373e+01   7.5548608738e+00    0.4043707    0.3022228  44.63 0.0007084986    1.392    0.281
        50 -12.2099    247.6746    128.2638   8.8491295976e+01   5.3320222552e+00     1.737537    0.6572884 -31.59  0.006714849    2.522    0.603
        51 -12.2765    133.3696    235.8746   1.2951890228e+02   9.6000245997e+00    0.3082813    0.2379965 -81.33  0.002059135    1.573    0.364
        52  -9.8084    129.4790    231.6243   1.2973959355e+02   1.0904570024e+01    0.2041981    0.1418663  67.70  9.60766e-05    1.482    0.325
        53 -11.7266     23.5277    236.4393   1.4875978174e+02   2.4580417761e+01    0.1850314    0.1069476  56.28  0.001347242    1.279    0.218
        54  -9.4559    160.9635    127.7906   1.0497824176e+02   2.4489679572e+01    0.5272644    0.3598239 -88.35  0.002083242    2.428    0.588
        55  -8.2220    167.5797    113.8268   1.0001516969e+02   2.5773691851e+01    0.2875454    0.2026532 -84.38  0.001164057    2.169    0.539
        56  -8.8748    196.6982    106.9730   9.2204893661e+01   2.0142484090e+01    0.2697135    0.2198068  56.87  0.000528327    1.259    0.206
        57  -7.9545    189.0971    101.1425   9.2160565242e+01   2.3031561188e+01    0.2073806    0.1808817 -85.70 0.0004886422    1.298    0.229
        58 -11.2749     20.1810    233.3987   1.4915142768e+02   2.5465258444e+01    0.2577227    0.1016921  64.55  0.001525837    2.004    0.501
        59  -9.1358     39.0833     85.0003   1.2902245843e+02   5.5218665223e+01    0.2047503    0.1608135 -72.12 0.0004130137    1.191    0.161
        60 -10.3189    148.2927    231.3932   1.2622895103e+02   7.8389094520e+00    0.1709102    0.1431456  51.18 0.0002238406    1.066    0.062
        61 -10.6500     14.1708    226.6792   1.4980925482e+02   2.7272475725e+01    0.2088639    0.1684683 -23.51  0.001482265    2.889    0.654
        62 -11.4823    149.9888     58.2113   8.7757336993e+01   4.0432915747e+01    0.5867006    0.4308687  47.02  0.002783746    1.342    0.255
        63  -7.5534     26.4360    245.2499   1.4872589035e+02   2.2762439575e+01    0.1656114   0.07804557  43.17  0.001087947    1.832    0.454
        64  -8.3930    246.5997     51.1770   7.0214500170e+01   1.7079063444e+01    0.2162101    0.1771459 -82.91 0.0006186948    1.242    0.195
        65 -10.3694    163.2142     34.2200   7.7214789564e+01   4.0552774439e+01    0.4190684    0.3315127  36.90  0.001022097    1.340    0.254
        66  -7.9571    250.6416     47.1605   6.8804142479e+01   1.6699676600e+01    0.1858521    0.1236492 -20.82  0.000522414    1.695    0.410
        67  -8.5543    138.1940     27.0266   7.9578893625e+01   4.7906706592e+01    0.2345044    0.1942229  56.80 0.0003100247    1.140    0.123
        68 -11.0515     23.6142    242.2565   1.4902681316e+02   2.3573442764e+01    0.1450123    0.0918042  51.98   0.00110296    1.319    0.242
        69 -12.3870    138.2122    243.7110   1.2954248120e+02   7.6280995145e+00    0.4290465    0.1513392  39.29  0.001942347    2.449    0.592
