#   1 NUMBER                 Running object number                                     
#   2 MAG_AUTO               Kron-like elliptical aperture magnitude                    [mag]
#   3 X_IMAGE                Object position along x                                    [pixel]
#   4 Y_IMAGE                Object position along y                                    [pixel]
#   5 X_WORLD                Barycenter position along world x axis                     [deg]
#   6 Y_WORLD                Barycenter position along world y axis                     [deg]
#   7 A_WORLD                Profile RMS along major axis (world units)                 [deg]
#   8 B_WORLD                Profile RMS along minor axis (world units)                 [deg]
#   9 THETA_WORLD            Position angle (CCW/world-x)                               [deg]
#  10 FWHM_WORLD             FWHM assuming a gaussian core                              [deg]
#  11 ELONGATION             A_IMAGE/B_IMAGE                                           
#  12 ELLIPTICITY            1 - B_IMAGE/A_IMAGE                                       
         1 -13.2330    191.0316     29.2901   6.9775588405e+01   3.3539710086e+01     1.330942     1.272331  16.17  0.007355447    1.019    0.018
         2 -13.8121    204.1854     11.6513   6.2320160928e+01   3.1893531747e+01      1.86771     1.151462  32.07  0.008477928    1.780    0.438
         3 -12.8865      2.4365      4.2340   1.2357098910e+02   7.3196957572e+01     1.153074    0.7746945  41.45  0.007544048    2.211    0.548
         4 -12.5168      2.0000     12.5118   1.2667147533e+02   7.1539576762e+01      1.90674    0.2564619 -65.82  0.004682534    8.969    0.888
         5 -11.1437     81.6346    248.4586   1.3572788171e+02   1.8183300276e+01    0.2469856    0.1611547  52.78  0.002048177    1.085    0.078
         6 -11.1531    140.3165    250.2651   1.2658762671e+02   1.0573585269e+01    0.3650287    0.1011295  41.88  0.001844817    2.510    0.602
         7 -11.3743    124.5972    249.9384   1.2906939719e+02   1.2693115169e+01    0.3906296    0.1052761  37.54  0.001839763    3.109    0.678
         8 -11.2395     97.8908    248.6952   1.3320414079e+02   1.6220938824e+01    0.2848183    0.1653784  49.85   0.00143006    1.239    0.193
         9 -11.1142    101.2894    246.0228   1.3246989855e+02   1.6146595812e+01    0.2510363    0.1803939  83.05   0.00110163    1.610    0.379
        10 -10.5679     47.4304    249.5030   1.4096925297e+02   2.1755655323e+01    0.1257167    0.1006949  74.41 0.0005880574    1.275    0.216
        11 -14.3923     15.2363    244.8027   1.4546293329e+02   2.5438372046e+01     8.286029     2.431132  28.70   0.03352844    8.057    0.876
        12 -14.0105     47.3180    223.8972   1.3972482923e+02   2.5425572391e+01    0.7455697    0.5248635 -88.61  0.005364623    1.407    0.289
        13 -14.9515      7.7591    205.4036   1.4531126004e+02   3.1972780693e+01     4.947401    0.7368739 -77.10   0.01321738    5.418    0.815
        14  -9.4980    186.0229    239.0016   1.1795856107e+02   5.4035462629e+00     0.128892   0.09697916  30.75 0.0004284005    1.072    0.067
        15 -10.4318    119.8488    238.5573   1.2884820174e+02   1.4731091974e+01     0.211463    0.1318236  85.65  0.001386277    2.504    0.601
        16 -10.5227     85.4606    246.5024   1.3500458979e+02   1.7994659270e+01    0.1601832    0.1114741  53.29 7.164048e-05    1.027    0.027
        17 -15.2357     20.2203    171.7593   1.4161952250e+02   3.6739875203e+01     6.938993     2.121037  72.81   0.02763067    4.889    0.795
        18  -9.3065    229.0376    228.8670   1.0963496336e+02   1.2922989087e-01    0.1783988     0.150534 -66.50  0.001206544    2.875    0.652
        19 -10.7702     82.6236    243.7739   1.3527018685e+02   1.8690238277e+01    0.1713251    0.1460335  63.87  0.001574312    1.235    0.191
        20  -9.3162     32.4712    227.9861   1.4228126698e+02   2.6280614402e+01    0.1908688   0.08136877  50.30 0.0008253299    1.648    0.393
        21 -11.1907    124.2986    243.2155   1.2853267564e+02   1.3553471212e+01    0.2330525    0.1584772 -87.47  0.001705861    2.152    0.535
        22 -10.4183     85.3694    219.1821   1.3303528341e+02   2.1851981561e+01    0.3683407    0.1242517  34.62  0.001803568    2.982    0.665
        23  -8.8788     94.7825    216.8318   1.3120110898e+02   2.1025681834e+01    0.1457389   0.09623607  61.38 0.0003804682    1.357    0.263
        24  -8.7339    152.6918    212.9852   1.2046493072e+02   1.3422690959e+01    0.1442443    0.1239716  38.99 0.0003386917    1.111    0.100
        25  -9.9805     33.1216    207.5302   1.4121397757e+02   2.9392933834e+01    0.1822055    0.1031128  66.24 0.0004285168    1.408    0.290
        26 -10.3296     23.8272    202.9335   1.4255744168e+02   3.1001783367e+01    0.1799794    0.1218449  40.59  0.001333238    1.465    0.318
        27  -9.9889    193.2319    195.2693   1.1062552490e+02   9.2504941629e+00    0.5673861    0.2950211 -58.42  0.001846737    7.936    0.874
        28 -11.4087     66.3101    197.2431   1.3469290612e+02   2.7613162577e+01    0.2651128    0.2046116 -45.44  0.001254868    1.874    0.466
        29 -12.6174     41.2532    231.4830   1.4107179623e+02   2.4910269146e+01    0.2376144    0.2009289 -89.20 0.0007752902    1.405    0.288
        30 -11.6019     71.7623    189.6741   1.3303818488e+02   2.8264408497e+01    0.2145101    0.1946011 -70.35 0.0007303894    1.339    0.253
        31 -10.7140     80.9348    177.1567   1.3002823328e+02   2.9347509015e+01      0.19714    0.1786367 -82.00 0.0003666915    1.201    0.167
        32 -13.0432     68.1182    175.1204   1.3242031624e+02   3.1289177653e+01    0.3806753    0.2437006 -45.18  0.001500474    2.171    0.539
        33 -11.8142     87.9699    167.7486   1.2751805283e+02   3.0154457319e+01    0.5770006    0.4312674  57.95  0.003799869    1.204    0.169
        34 -12.6703     67.3338    144.1325   1.2922173204e+02   3.7391624380e+01      1.01161    0.5395112  78.86  0.004492285    2.601    0.616
        35 -11.7845     57.4637    130.7104   1.2989353519e+02   4.1319659766e+01    0.7925127    0.2966319 -81.63  0.002651213    4.969    0.799
        36  -9.1485    102.8820    147.5963   1.2147190022e+02   3.1886150481e+01    0.2247308    0.1737539 -28.83  0.001299468    1.702    0.412
        37 -12.0458     88.8214    151.1340   1.2520171054e+02   3.3219120558e+01    0.2302773    0.2241283 -28.88  0.000506422    1.240    0.193
        38  -9.3334    198.6710    246.3304   1.1680767952e+02   2.8728445633e+00   0.09759266   0.07064687  51.89 0.0007051568    1.714    0.416
        39  -9.6941    100.2095    151.7752   1.2271342228e+02   3.1471284888e+01    0.2315196    0.2161189  72.73 0.0007116664    1.038    0.037
        40  -8.3757    192.2373    143.9921   1.0135932024e+02   1.6469191457e+01    0.1618485    0.1138107 -28.92 0.0003628451    1.498    0.332
        41  -9.6359    110.7179    137.0049   1.1788264650e+02   3.2753338916e+01    0.3165966    0.2052518 -28.25  0.001062423    2.249    0.555
        42 -10.2809     98.3450    134.2086   1.2037438261e+02   3.5244017247e+01    0.2386847    0.2026561 -35.44 0.0005934695    1.360    0.265
        43  -9.5638     40.3272    129.3328   1.3392662580e+02   4.3362649919e+01    0.1139003   0.08045033 -44.77 0.0005349287    1.715    0.417
        44  -9.5946    107.7118    123.8584   1.1618043310e+02   3.5896405001e+01    0.1934954    0.1764212  25.08 0.0003483969    1.166    0.143
        45 -11.9834     32.6176    155.4809   1.3805962849e+02   3.8745417923e+01    0.3843014    0.2281597 -79.31  0.002542329    1.480    0.324
        46 -10.7813    168.1962    113.2115   9.9340145529e+01   2.6386887624e+01    0.3106539    0.2994894  83.47 0.0007201568    1.257    0.204
        47  -8.6735    203.4918    111.5167   9.1633723685e+01   1.9024691341e+01    0.1509183    0.1292636  12.04 1.392839e-05    1.041    0.039
        48 -10.2193      7.5059    101.9486   1.3957069441e+02   5.1746048295e+01    0.1745355   0.08737044 -77.85 0.0006151383    1.564    0.361
        49 -11.9457      2.0732     89.4664   1.3993023915e+02   5.4750453524e+01    0.9473597    0.1497905 -77.68  0.003006122    5.477    0.817
        50  -8.3166    184.6628     77.6587   8.6149923856e+01   2.8546316463e+01    0.1688006     0.112674  17.14 0.0007050343    1.764    0.433
        51 -11.2122    249.3148    247.7727   1.0914879566e+02  -4.2172710860e+00    0.3746612    0.2163098   0.91  0.002719701    1.718    0.418
        52 -11.4161    107.0325    247.3543   1.3165729951e+02   1.5260730791e+01    0.2914178    0.1955637  82.59  0.001994391    1.862    0.463
        53 -10.4512     88.5132    249.0241   1.3469548698e+02   1.7304781358e+01    0.2341343    0.0994755  47.09 0.0008206473    1.647    0.393
