#   1 NUMBER                 Running object number                                     
#   2 MAG_AUTO               Kron-like elliptical aperture magnitude                    [mag]
#   3 X_IMAGE                Object position along x                                    [pixel]
#   4 Y_IMAGE                Object position along y                                    [pixel]
#   5 X_WORLD                Barycenter position along world x axis                     [deg]
#   6 Y_WORLD                Barycenter position along world y axis                     [deg]
#   7 A_WORLD                Profile RMS along major axis (world units)                 [deg]
#   8 B_WORLD                Profile RMS along minor axis (world units)                 [deg]
#   9 THETA_WORLD            Position angle (CCW/world-x)                               [deg]
#  10 FWHM_WORLD             FWHM assuming a gaussian core                              [deg]
#  11 ELONGATION             A_IMAGE/B_IMAGE                                           
#  12 ELLIPTICITY            1 - B_IMAGE/A_IMAGE                                       
         1 -11.5794      5.7672     33.7796   7.2763792186e+01   6.5822376092e+01     0.661743    0.3770511 -53.57  0.003843692    2.814    0.645
         2 -11.1317     89.8072     27.8914   4.4839574167e+01   5.5231941308e+01    0.3998494    0.2514844 -25.69  0.002449663    1.624    0.384
         3 -12.4218    105.2226     21.0374   3.9334364311e+01   5.3090686021e+01    0.2878055    0.2748426  62.18 0.0005361966    1.177    0.150
         4  -8.7003     80.1503     19.2298   4.4257995529e+01   5.7748494222e+01    0.4292054    0.2796355 -12.01  0.002061814    1.580    0.367
         5 -10.3383     65.1995     29.4552   5.1630250034e+01   5.9153472622e+01    0.5673122    0.3387581  16.47  0.002767084    1.838    0.456
         6 -11.7955     62.2709     16.9813   4.8021378224e+01   6.0861775873e+01    0.7843112    0.2354762  46.73 0.0003171166    2.975    0.664
         7 -11.6531     69.9729     11.9355   4.4238869442e+01   6.0082020120e+01    0.2603616    0.2392008 -30.64 0.0005115354    1.406    0.289
         8 -10.4865     15.6855      9.7318   5.9887535042e+01   6.7726407899e+01    0.3370916     0.183049 -10.20  0.001253825    1.696    0.410
         9 -10.3318     13.8435      3.3636   5.7927793643e+01   6.8536370518e+01    0.3147137    0.1922017  23.89  0.002396823    1.423    0.297
        10 -11.1505      7.1055     16.9742   6.5983011473e+01   6.7825927233e+01    0.4682438    0.2732268   1.26  0.002140606    1.590    0.371
        11  -9.7887     24.5797      6.7944   5.5568980200e+01   6.6986809492e+01    0.1871367    0.1509259 -32.45  0.001056354    1.755    0.430
        12 -10.4955     20.7046      5.3391   5.6308527052e+01   6.7578360948e+01    0.1780913    0.1348369   8.33 0.0004782778    1.109    0.098
        13 -10.5623    165.5918     19.4288   2.9105039587e+01   4.1176721266e+01    0.5250974    0.3197344   7.06  0.002424774    3.160    0.684
        14 -11.2539    113.3154     34.5402   4.1779863056e+01   5.0176427704e+01    0.4943235    0.3920566  35.58  0.002835664    1.196    0.164
        15  -9.1499    153.0135     13.9929   2.9441705562e+01   4.4284895589e+01     0.326374    0.1627509 -52.43  0.001698709    2.424    0.588
        16 -10.6628    132.8330     21.4435   3.4417536686e+01   4.7677337549e+01    0.3839967    0.2676333  67.06  0.001157653    1.387    0.279
        17  -9.6124    117.3491     15.4953   3.5389211174e+01   5.1277279142e+01    0.3302627    0.1805279 -37.17  0.001909562    2.028    0.507
        18 -10.2891    217.2037     17.5873   2.3079565897e+01   3.0849864260e+01    0.3017242    0.1737944 -58.70 0.0003629654    1.583    0.368
        19 -10.2069    237.6263     18.0552   2.1408122504e+01   2.6828101172e+01    0.2904749    0.1963616 -23.14  0.001688076    2.301    0.565
        20  -9.5967     15.6973     17.5066   6.2991010494e+01   6.6907313979e+01    0.2401541     0.138743  -5.67  0.001090873    1.615    0.381
        21 -10.9854    174.7079     12.5358   2.6378517859e+01   3.9979320810e+01    0.4542324    0.3890521   5.84  0.003241064    1.565    0.361
        22  -9.7043    210.0530     13.3026   2.2889945578e+01   3.2737604012e+01     0.275672    0.1718927 -20.34  0.001616791    2.414    0.586
        23 -11.1134    195.7554      3.5681   2.2251607374e+01   3.6569186232e+01    0.3313513     0.184027  60.72 0.0004039916    1.697    0.411
        24  -9.6818    212.1118      8.3810   2.1734584132e+01   3.2844766695e+01    0.2481548    0.2118382 -50.18  0.001267452    1.294    0.227
        25 -11.2848    207.4179      2.9721   2.1085894261e+01   3.4311581565e+01    0.5002024    0.2506483 -78.96  0.001973196    2.173    0.540
        26 -10.7336    125.9108     12.4286   3.3061062437e+01   4.9869459406e+01    0.4011424     0.250721 -43.91  0.001029707    1.849    0.459
        27 -11.2435    133.0493     12.7300   3.2008883779e+01   4.8429737335e+01    0.2011737    0.1872759  73.78  0.000286955    1.082    0.076
        28  -9.6657     30.8694     12.2324   5.5631572304e+01   6.5707746952e+01    0.2671495    0.2316721  52.90   0.00140693    1.982    0.495
        29  -9.5854    200.2446     12.3329   2.3624273057e+01   3.4803696442e+01    0.2291722    0.1375441 -43.14  0.001435807    1.648    0.393
        30 -10.2995    145.4331     12.7435   3.0176465768e+01   4.5939422228e+01     0.365211    0.1656188  66.91  0.001618188    2.043    0.510
        31  -9.1027     98.6489      5.7970   3.5930346197e+01   5.5585309559e+01    0.3468271     0.172915  28.32  0.001884005    2.323    0.570
        32 -10.3861    107.3339      7.4990   3.4830965070e+01   5.3844792357e+01    0.4771161    0.1659705  55.52  0.002367564    2.334    0.572
        33  -9.6690    106.9808      2.5243   3.3411717561e+01   5.4280278388e+01    0.3047318    0.1558061  30.24  0.001705811    2.215    0.549
        34  -9.5299     97.1092     12.1268   3.8207406277e+01   5.5371632874e+01    0.2772363    0.1560411  -9.27 0.0008579087    2.103    0.524
        35 -10.4304    101.6304     11.1765   3.7016311982e+01   5.4618301560e+01    0.3601485    0.2317172  52.81  0.001256209    1.368    0.269
        36  -9.7712     91.6714      8.9572   3.8313670872e+01   5.6607861555e+01    0.4415347    0.1639219  48.60  0.002285203    2.194    0.544
        37  -9.1414     87.9742      6.4901   3.8287071950e+01   5.7454215494e+01    0.1744785    0.1206562  32.23  0.001202548    1.278    0.218
        38  -9.6735    191.6141     10.8429   2.4172599884e+01   3.6698073605e+01    0.2469203    0.2397215  54.02  0.001495778    1.306    0.234
        39  -9.3662    190.5144      6.9888   2.3467720054e+01   3.7296336018e+01    0.2342897    0.1645046  87.18 0.0008160819    1.257    0.204
        40  -9.0426     58.0303     11.0000   4.7005111660e+01   6.2043285132e+01    0.2968836    0.1084834  39.65  0.001345364    2.388    0.581
        41  -9.7129     54.6090      8.7265   4.7103190601e+01   6.2751167799e+01    0.2311418    0.1995258  49.39 0.0008869065    1.498    0.332
        42 -10.3349      7.9849      9.2320   6.2536429492e+01   6.8581822756e+01    0.1770717    0.1172554  18.38 0.0007596607    1.359    0.264
        43 -10.9465     79.3257      4.1603   3.9376390933e+01   5.9128718123e+01    0.2405654    0.1667945 -15.81  0.001032144    1.513    0.339
        44 -11.4774     74.9202      2.3530   3.9747934994e+01   6.0004162844e+01    0.4681454    0.3137573  35.71  0.002895404    1.237    0.191
        45  -9.3450      2.6060      6.4954   6.3471253677e+01   6.9387899493e+01    0.2231729    0.1244431 -33.21   0.00118336    1.783    0.439
        46  -9.1390      5.0209      2.3962   6.0811050241e+01   6.9555247056e+01    0.2332405    0.1173002  15.49  0.001511181    1.897    0.473
        47  -9.3833    149.9280      4.5705   2.7509057066e+01   4.5729819126e+01    0.3923326    0.3140095  38.46   0.00282054    1.356    0.262
        48 -12.1932    160.1367      2.0151   2.5638054105e+01   4.3881977792e+01    0.3867894    0.2722416  82.50  0.002628717    1.318    0.241
        49 -10.8795    156.0431      3.6214   2.6510300889e+01   4.4575315868e+01    0.1897758    0.1655878  59.19 0.0005706009    1.118    0.105
        50  -9.6711    138.5260      6.8139   2.9623302338e+01   4.7833441079e+01    0.2357877    0.1312127  60.25 0.0007068213    1.533    0.348
        51 -10.3848    135.8884      2.6339   2.8904620101e+01   4.8687754645e+01    0.2870248    0.2133339 -62.15  0.001302601    1.575    0.365
        52  -8.6616     48.4834      7.4698   4.8352691825e+01   6.3756925713e+01    0.1056486   0.08215261  14.29 0.0008096545    1.011    0.011
        53  -9.9327     45.6133      5.0751   4.8267655225e+01   6.4364201989e+01    0.2718437    0.1502329   1.18   0.00172483    1.887    0.470
        54  -9.0697    170.7909      5.9602   2.5327916248e+01   4.1387362314e+01    0.1603695   0.09900529  53.92 0.0003924082    1.572    0.364
        55 -10.2368    237.8714      3.6418   1.8808534982e+01   2.8382433566e+01    0.3348097    0.1672069  60.36  0.001708836    2.171    0.539
        56  -9.9416    232.1300      2.7019   1.9061363132e+01   2.9561181994e+01    0.2518209    0.1533944 -85.39 0.0004066722    1.404    0.288
        57  -8.2803     62.5214      5.4244   4.3802413909e+01   6.1796975293e+01    0.1093528   0.08109334  22.96 7.857913e-05    1.103    0.093
        58  -9.9673     38.2539      4.5215   5.0244039827e+01   6.5432524908e+01    0.2395898    0.1264996  20.23 0.0009351312    1.812    0.448
        59  -8.6706     42.0311      1.2096   4.7816856329e+01   6.5173571380e+01    0.1917958   0.08188561  37.18 0.0003251898    1.974    0.493
        60 -11.0330    218.3696      3.1428   2.0205219827e+01   3.2153041696e+01    0.2478538    0.1919415  70.46 0.0007301007    1.317    0.241
        61 -10.1007    115.8304      2.2265   3.1829722007e+01   5.2626527157e+01    0.1867408    0.1753817 -53.10  0.000376176    1.251    0.201
        62 -10.6795     30.4480      2.5910   5.1924483687e+01   6.6621566579e+01    0.2214114    0.2039231 -45.00  0.001722612    1.944    0.486
        63  -9.7902    180.9473      2.1584   2.3397747592e+01   3.9670349211e+01    0.3321495    0.1700916  87.69  0.001830329    2.079    0.519
        64 -10.2699     91.9832      2.3078   3.6130877016e+01   5.7045001781e+01    0.3536293    0.1840677  69.80  0.001944805    2.448    0.591
        65 -10.4974    249.9331      1.5761   1.7621857797e+01   2.6377005847e+01    0.1693137     0.109409 -88.01  0.001221779    1.267    0.211
        66  -9.2221    142.6782      2.1866   2.7861091041e+01   4.7372848513e+01    0.2236593    0.1047168  56.40  0.001261519    1.789    0.441
        67  -9.2800     23.2591      1.3666   5.3796376355e+01   6.7621286270e+01    0.1187084   0.08242585  34.61 0.0004735909    1.501    0.334
        68 -11.6003     21.4290    118.8116   9.0454495700e+01   4.8747672096e+01    0.5372428    0.3531764 -68.19  0.001221526    1.420    0.296
        69 -10.1949    201.3661    249.9677   7.4258848893e+01  -7.9251402674e+00     0.231588    0.1728707  18.54 0.0009808638    1.359    0.264
        70  -9.7632    221.2475    119.5147   4.4239517628e+01   1.4173105923e+01    0.2622463    0.2280515 -61.28 0.0007069667    1.066    0.062
        71  -9.3717     61.8824    119.9248   7.9513342808e+01   4.4045598836e+01    0.2755646    0.1901204  23.82 0.0009676688    1.782    0.439
        72  -9.6305     45.9379    119.8110   8.3879806826e+01   4.6041026024e+01    0.2284039    0.1880721  66.79  0.001343962    1.585    0.369
        73  -9.1346     93.9770    119.1972   7.0748553032e+01   3.9399846420e+01    0.2193172    0.1839425 -18.09   0.00110421    1.318    0.241
        74  -9.5159     80.4454    115.5399   7.3403049010e+01   4.2373739741e+01    0.2335513    0.2185113 -35.94 0.0005870931    1.084    0.077
        75 -10.4311     34.9327    115.0843   8.5910295449e+01   4.8297991474e+01    0.3384698    0.2238481  52.26  0.001826309    2.110    0.526
        76  -8.3138    104.6841    115.3210   6.7015834187e+01   3.8410112246e+01    0.1455952    0.1144159 -81.20 0.0007041146    1.660    0.397
        77 -10.2761     10.7947    113.5993   9.2380822417e+01   5.0785506875e+01    0.3792504    0.2619968  11.94  0.002366164    1.896    0.473
        78 -11.2182     37.1847    109.6163   8.4045809746e+01   4.9271128891e+01    0.3652956    0.2028854 -51.97 0.0006617504    1.430    0.301
        79 -11.0030     32.4883    105.6846   8.4497270410e+01   5.0604028191e+01     0.376657    0.2221206 -40.59  0.001481944    1.456    0.313
        80  -9.1630      4.8722    110.8369   9.3504687724e+01   5.1827992380e+01    0.1829639    0.1267488 -43.85 0.0003893484    1.226    0.185
        81 -10.7175     20.5612    108.9931   8.8679914761e+01   5.0998802581e+01    0.3451502    0.2871525  25.12  0.002005994    1.518    0.341
        82  -9.9216     89.8210    108.1307   6.8991605240e+01   4.2487573671e+01    0.2764784    0.2171408 -68.40 0.0003327649    1.508    0.337
        83  -8.4734    116.5894    108.1958   6.2195200459e+01   3.7744817925e+01    0.2067689    0.1297883 -35.69 0.0005600115    1.579    0.367
        84  -9.0706     93.5155    105.2127   6.7242106616e+01   4.2485469662e+01    0.2561973    0.1888614  62.71 0.0009434737    1.829    0.453
        85  -9.7942     51.8487    104.7311   7.8654817224e+01   4.8660143168e+01    0.2805831     0.186827 -35.66 0.0008650854    1.376    0.273
        86  -9.9150     51.0746     99.8097   7.7633157367e+01   4.9789325193e+01    0.3123665    0.1369699 -41.70 0.0008933415    1.986    0.497
        87  -9.3832     53.5047     95.5148   7.5800974804e+01   5.0370479736e+01     0.252306     0.114914 -51.53 0.0007731998    1.964    0.491
        88  -9.4924     55.5549    104.5112   7.7534866882e+01   4.8246055580e+01    0.3053055    0.1961498 -52.24  0.001138108    1.367    0.268
        89  -9.7818     57.4957    100.0014   7.5818844025e+01   4.8943318518e+01    0.3340804    0.2015838 -25.24  0.001153065    1.947    0.486
        90  -8.6300     25.6840    105.2875   8.6388368395e+01   5.1342652395e+01     0.114759   0.09406573 -88.27 0.0003673466    1.589    0.370
        91  -9.3611    141.7073    103.2688   5.5091012956e+01   3.3794693940e+01    0.2557986     0.212772 -66.38 0.0008451274    1.285    0.222
        92  -8.6067    161.5331    103.5857   5.1034317665e+01   2.9611549687e+01    0.1461694    0.1346027 -58.95 8.189751e-05    1.024    0.024
        93  -9.7001     70.9779    102.6567   7.2682559385e+01   4.6545846315e+01    0.2925692    0.2109414 -36.08   0.00159079    1.248    0.198
        94  -8.6775     40.6334    103.3032   8.1557103582e+01   5.0261551510e+01    0.1224361   0.09957702  86.17 0.0007035085    1.740    0.425
        95  -8.8653    112.2087    101.5842   6.1497762295e+01   3.9912034598e+01     0.221055    0.1897053  -1.06 0.0007914896    1.319    0.242
        96  -8.4363    111.7005     98.2796   6.0723526015e+01   4.0662477970e+01    0.1356517    0.1118385 -79.15 0.0002637399    1.542    0.351
        97 -10.2054    103.9674    100.2023   6.3184614295e+01   4.1692273185e+01    0.3446676    0.2241456  20.49  0.001563185    2.122    0.529
        98  -9.8366     25.9699    110.8953   8.7540496678e+01   5.0098289814e+01    0.1944776    0.1540538 -50.72  0.001236496    1.024    0.023
        99 -10.1919      7.8208     97.8987   9.0023412452e+01   5.4381084892e+01    0.4826371    0.3080103  61.04  0.002611052    2.773    0.639
       100 -10.9233      2.3322     86.8644   8.9241866383e+01   5.7016943889e+01    0.6205952     0.157629 -53.55  0.001839417    2.583    0.613
       101 -10.3211    117.6722     97.9980   5.9192606546e+01   3.9593006647e+01    0.2294441    0.2084963  36.86 0.0003019851    1.183    0.155
       102 -10.2900     92.5566     95.7047   6.4905222323e+01   4.4569140890e+01    0.4532435    0.3059393  73.23  0.001975907    2.748    0.636
       103  -9.2955    165.8980     95.1648   4.8051687208e+01   3.0291613871e+01    0.2477439    0.2034841 -30.63 0.0004008479    1.286    0.222
       104  -8.8881    141.5090     95.8670   5.3182489528e+01   3.5268296563e+01    0.2180643    0.1351047 -41.70 0.0005011035    1.514    0.340
       105  -9.5236     82.3174     95.8588   6.7703155433e+01   4.6212719967e+01     0.248136    0.1563673  53.76 0.0007761477    2.132    0.531
       106  -9.0479     63.2338     96.3478   7.3196409980e+01   4.8928357550e+01    0.1697085    0.1236143  44.52 0.0002154532    1.684    0.406
       107  -8.7577     27.8677     95.8210   8.3528380424e+01   5.3131028290e+01    0.1567972    0.1338738 -62.19 0.0003435458    1.287    0.223
       108  -7.8938     42.2978     95.6502   7.9154400901e+01   5.1672227243e+01     0.121582    0.0981614 -79.07 0.0007035479    1.685    0.407
       109  -9.1405     47.9224     93.0289   7.6792505666e+01   5.1553497147e+01    0.3311515    0.1715294 -58.41  0.001539407    2.143    0.533
       110 -10.8276     42.3669     89.7093   7.7578341139e+01   5.2858836510e+01     0.405817     0.295004  13.02  0.001779648    1.590    0.371
       111  -9.1984     31.5263     93.5249   8.1855300147e+01   5.3244767505e+01    0.2454666    0.1829774  82.77  0.001198953    2.316    0.568
       112  -8.7568     16.5722     85.8008   8.4536582132e+01   5.6156853502e+01    0.1690403    0.1008111 -62.63 0.0006717206    1.784    0.440
       113  -9.7756     13.6813     92.7142   8.7094346647e+01   5.5005109154e+01    0.2029726    0.1337972 -34.91 0.0005865951    1.328    0.247
       114 -10.8089     18.0201     90.7718   8.5304740848e+01   5.5044148897e+01    0.2239144    0.1699414 -43.93 0.0003104538    1.015    0.014
       115  -9.2629    107.5645     91.4422   5.9856006996e+01   4.2743800156e+01    0.2573852    0.1236552 -32.58 0.0007871443    2.314    0.568
       116  -9.5118     85.9464     88.9804   6.4784703914e+01   4.6962811476e+01    0.2166917    0.1912928 -28.66  0.001226465    1.007    0.007
       117 -10.6563     79.9240     82.8758   6.4675877511e+01   4.9062508008e+01    0.5630131    0.3736024  10.66  0.002413569    2.000    0.500
       118  -9.1676     66.4815     80.4961   6.7795255025e+01   5.1519876456e+01    0.3640621    0.1495072 -35.27  0.001510914    2.449    0.592
       119  -9.4335     70.1223     85.8516   6.8297958301e+01   5.0002920699e+01     0.261611    0.1706242 -41.81  0.001019174    1.355    0.262
       120 -10.9337     72.8686     80.2513   6.5887227955e+01   5.0625783483e+01    0.4200654    0.3403169 -38.18  0.001527861    1.141    0.123
       121 -10.0768     65.5803     90.6380   7.0955998928e+01   4.9737331151e+01    0.2965651    0.2060798 -16.09 0.0007144401    1.643    0.391
       122 -10.3768     65.5003     85.8521   6.9629473351e+01   5.0666917733e+01    0.3493684    0.2690534  -6.81  0.001775751    1.399    0.285
       123 -11.0076     67.2277     74.7105   6.5859480233e+01   5.2440319671e+01    0.4759764    0.2316274  36.59 0.0009824393    2.239    0.553
       124  -9.7069     59.2206     72.8832   6.7669571780e+01   5.3885630278e+01    0.2230676    0.1744806  -1.24 0.0004255372    1.295    0.228
       125  -9.7133     53.0361     90.2849   7.4531750721e+01   5.1473465284e+01    0.2593073    0.1668747 -50.63 0.0008643444    1.434    0.302
       126  -9.3716     33.7567     90.6249   8.0438883710e+01   5.3604163973e+01    0.1897549    0.1578212  33.66  0.001176008    1.505    0.336
       127  -8.8873     98.3494     89.5212   6.1654422642e+01   4.4759819286e+01    0.2471432     0.120863 -42.02 0.0008398416    1.882    0.469
       128 -10.6194     57.3024     87.8356   7.2590933702e+01   5.1403376910e+01    0.3918381    0.2694648 -51.64  0.002195914    1.430    0.301
       129  -9.2730    111.3230     87.8970   5.7932050117e+01   4.2706979223e+01    0.4123345    0.1680468 -48.42  0.001561392    2.601    0.616
       130 -10.6083     25.9859     86.1911   8.1691640951e+01   5.5246227766e+01    0.5194601    0.4060765 -43.50  0.002495025    1.075    0.070
       131  -9.0026     19.2968     80.7490   8.2385535322e+01   5.6906270332e+01    0.1845505    0.1589571  52.32 0.0008799838    1.694    0.410
       132  -9.5563    243.7713     98.0498   3.6448615434e+01   1.3825633684e+01     0.186617   0.09264065 -44.90 0.0006523137    1.657    0.397
       133 -10.4178    150.4074     79.9064   4.7102520381e+01   3.6282989518e+01    0.3814697    0.2306275  51.54  0.001229447    1.708    0.414
       134 -10.2415    154.9655     85.1046   4.7576163357e+01   3.4425730643e+01    0.2986232    0.2406542   3.13 0.0003338884    1.653    0.395
       135 -11.0302    121.4888     85.6453   5.4876875646e+01   4.1171119225e+01    0.4531082     0.332347  60.74  0.002095265    1.598    0.374
       136  -9.0364    117.1492     83.1438   5.5189917853e+01   4.2456965935e+01    0.2222163    0.1977027  45.13  0.001297289    1.189    0.159
       137 -10.1442    142.5669     83.2991   4.9596071729e+01   3.7336183563e+01    0.4229667    0.3239916 -58.10  0.001976108    1.387    0.279
       138  -9.4533     46.4738     84.8697   7.5012460958e+01   5.3325044063e+01      0.18096    0.1615326 -11.68  0.001204245    1.149    0.130
       139 -10.1675     51.7772     82.3149   7.2684334595e+01   5.3161095779e+01    0.3838405    0.2361491 -23.47  0.002026187    1.742    0.426
       140 -10.4121     52.4037     76.8335   7.0906346812e+01   5.4087979172e+01    0.2859665    0.2637661 -45.83  0.001002767    1.284    0.221
       141 -10.1363     40.5578     81.1881   7.5802559507e+01   5.4706264044e+01    0.4375613    0.2751271   3.24  0.002379901    2.029    0.507
       142 -10.0613    124.1526     80.3132   5.2771364946e+01   4.1584718560e+01    0.3076395    0.2162576 -22.80  0.001102704    1.591    0.371
       143  -9.5142     92.3298     80.0261   6.0487452135e+01   4.7530289789e+01    0.3175818    0.2053826 -14.05   0.00115285    2.015    0.504
       144 -10.5712    166.9465     77.9764   4.3497383003e+01   3.3098728811e+01    0.2853251    0.2522689 -13.84            0    1.331    0.249
       145 -10.0140    169.7845     74.3671   4.2085559444e+01   3.3086427621e+01    0.2807301    0.2314431 -56.20 0.0006294832    1.161    0.138
       146  -9.9835    166.0441     72.3216   4.2219172053e+01   3.4215698737e+01    0.3085193    0.2419195 -35.56 0.0005807641    1.295    0.228
       147  -9.6335    166.4876     68.4889   4.1167615352e+01   3.4726465043e+01    0.2584831    0.2274191 -70.90 0.0008415401    1.118    0.105
       148  -8.7643    106.3896     79.7876   5.6828751587e+01   4.5071002776e+01    0.1926563    0.1214953 -28.91  0.000660577    1.637    0.389
       149  -9.3167    126.1286     97.2498   5.6992497037e+01   3.8099763576e+01    0.2703968    0.2101191 -56.99  0.001248354    1.346    0.257
       150  -9.4097    119.4985     76.8766   5.2862368072e+01   4.3081675112e+01    0.3217224    0.2158726 -68.42   0.00116435    2.288    0.563
       151  -9.1910    135.9413     76.6726   4.9178424326e+01   3.9828703625e+01    0.1802485    0.1761688  74.52 0.0005177323    1.061    0.058
       152 -10.0455    109.4461     74.1511   5.4444760047e+01   4.5457693844e+01    0.3482203    0.2750658 -56.21  0.001400012    1.451    0.311
       153  -8.8608    100.1967     76.9359   5.7546859941e+01   4.6686748266e+01    0.1850025     0.157794 -26.17            0    1.095    0.087
       154  -9.5207    145.1614     75.8119   4.7049578459e+01   3.8065946847e+01    0.2338067    0.1887999 -37.57 0.0006130178    1.211    0.174
       155 -10.6743     14.8296     64.8996   7.9490774233e+01   6.0188916495e+01    0.7276413     0.332353  -3.95   0.00298391    4.426    0.774
       156  -9.4685     19.7740     73.2766   8.0219209411e+01   5.8262992423e+01    0.3981877    0.2427709 -62.47  0.002222011    2.097    0.523
       157 -10.5853     29.2300     68.1195   7.5646486601e+01   5.8284731488e+01    0.3581307    0.2870229  12.48  0.001483883    1.357    0.263
       158  -9.4299     26.8536     63.0982   7.4923761188e+01   5.9385858124e+01    0.3105788    0.1697205 -56.02  0.001283613    2.329    0.571
       159 -10.1981     30.5889     58.3328   7.2204221449e+01   5.9787765037e+01    0.2588605    0.2304192  11.48  0.001915675    1.327    0.246
       160  -9.8324     32.5083     53.2693   6.9938663590e+01   6.0378729936e+01    0.6355258     0.434568  46.85  0.003905637    2.258    0.557
       161 -10.1598     21.5909     67.0006   7.7836012249e+01   5.9221668466e+01    0.4788577    0.2589841 -52.60  0.002692953    1.831    0.454
       162  -9.7805     22.4728     60.0052   7.5447425733e+01   6.0332110101e+01    0.3347117    0.1467786 -51.90  0.001234437    2.455    0.593
       163 -10.9567     24.9962     54.9655   7.3014849223e+01   6.0903611423e+01    0.3797562     0.183782 -46.73  0.001447443    1.956    0.489
       164 -11.1098     20.0795     53.5432   7.4244523173e+01   6.1608695968e+01    0.3073854    0.2470072 -26.40  0.001651992    1.117    0.104
       165  -9.2214    179.5541     74.6180   4.0502542183e+01   3.0956155066e+01    0.2514451    0.1591772  32.50 0.0009291877    2.400    0.583
       166  -9.7324     93.0279     66.8542   5.6366480600e+01   4.9606406765e+01    0.3307467    0.1730251 -40.93   0.00154936    1.858    0.462
       167 -10.7242     88.9131     73.5812   5.9479165461e+01   4.9218962540e+01    0.4997915    0.3285593 -24.31  0.002446604    1.571    0.364
       168 -10.6183     94.9296     72.2827   5.7513889737e+01   4.8399712909e+01    0.3008919    0.2725915  13.93 0.0004897754    1.098    0.089
       169  -9.9172     29.0013     74.5480   7.7582430127e+01   5.7160499302e+01    0.2508256    0.1712851 -28.01  0.000854014    1.266    0.210
       170 -10.5619    135.0827     57.0980   4.3921046552e+01   4.3010889128e+01    0.5456262    0.3325759  25.75   0.00254151    2.384    0.580
       171 -11.0788    144.8796     70.3043   4.5618895886e+01   3.9013086957e+01    0.5702986    0.3507356  57.89  0.002836925    1.696    0.410
       172 -10.2414    147.5811     66.1888   4.3987375029e+01   3.9087022393e+01    0.4241318    0.2535749  60.96  0.001983999    1.774    0.436
       173 -10.6387    137.5583     65.5391   4.5771963282e+01   4.1267923679e+01    0.2894665    0.2574657  74.17 2.115236e-05    1.201    0.167
       174 -10.7529    134.5493     63.5369   4.5824661213e+01   4.2186261902e+01    0.3575197    0.2641945 -30.94 0.0007583783    1.375    0.273
       175 -10.9909     52.4443     69.0407   6.8553213516e+01   5.5444707813e+01    0.4018061    0.3277526 -51.39  0.002575285    1.452    0.311
       176  -8.6820     47.9742     63.4903   6.8216909724e+01   5.6937735840e+01    0.1743974    0.1355881 -82.50 0.0006054742    2.706    0.630
       177  -9.2907    218.8732     69.9893   3.3731247263e+01   2.3445316818e+01    0.1943719    0.1609594 -68.51 0.0003990844    1.039    0.038
       178  -9.6643    173.2812     68.6612   4.0065377406e+01   3.3247732904e+01    0.2404259    0.1841631 -67.50 0.0007867591    1.363    0.266
       179  -8.9644    157.2780     68.6078   4.2825644145e+01   3.6668657720e+01    0.2238964    0.1650672 -14.13  0.001158882    1.761    0.432
       180  -8.9779    102.7325     69.0763   5.4585638000e+01   4.7523335910e+01    0.2191259    0.1473165  -6.54 0.0009731722    1.966    0.491
       181  -9.1919     64.1107     69.2166   6.5098207507e+01   5.3825197792e+01    0.1953405    0.1560773  -6.69  0.001217767    1.201    0.167
       182 -10.0957     16.9757     46.7654   7.3127091438e+01   6.2948660450e+01    0.3569146    0.1999515  26.10  0.001277637    1.952    0.488
       183 -11.2831      8.3080     50.8409   7.7516605548e+01   6.3074329871e+01    0.4651122    0.2948617   3.40  0.002691764    1.652    0.395
       184 -10.9660      2.3228     66.3866   8.4143570753e+01   6.0895189253e+01    0.3677785    0.1478478 -41.89  0.001547135    1.826    0.452
       185 -11.4619     13.6493     36.7321   7.0897817140e+01   6.4710785301e+01    0.3890155     0.201168 -42.86 0.0007801007    1.863    0.463
       186 -11.2690      5.7576     61.2090   8.1524701304e+01   6.1555029835e+01    0.4054063    0.3588497  23.49  0.001419361    1.529    0.346
       187 -10.0546      6.3120     55.8217   7.9751222292e+01   6.2423502099e+01    0.2966892    0.2285518  44.87  0.001501782    2.095    0.523
       188 -10.2096    115.6942    248.2105   9.0245263453e+01   5.7832211362e+00     0.264685    0.2257846 -59.96   0.00116051    1.198    0.165
       189 -10.6983      9.6771     31.7356   7.0578479031e+01   6.5756412743e+01    0.2190192    0.1787144  -0.83 0.0002860642    1.255    0.203
       190  -9.2564    120.1417     67.4771   5.0019900808e+01   4.4474368704e+01    0.2142899    0.1865994 -60.74  0.001277454    1.294    0.227
       191  -9.6877    190.6335     67.1085   3.6971657096e+01   2.9787157301e+01    0.2128413    0.1820969  69.07 0.0003458673    1.193    0.162
       192 -11.0950     76.6042     64.8591   6.0161165949e+01   5.2650543513e+01     0.512982    0.3542358 -28.46  0.001701118    1.339    0.253
       193  -9.2829     83.5865     64.8374   5.8239275932e+01   5.1525342301e+01    0.1967097    0.1822009 -88.73 0.0003632762    1.466    0.318
       194  -9.5034     82.7720     61.2395   5.7338034976e+01   5.2213055701e+01       0.2387    0.1797812 -13.71 0.0006589747    1.318    0.241
       195  -8.8371    197.5623     66.2856   3.5775970678e+01   2.8448368476e+01    0.1651829    0.1237035 -33.74 0.0005199744    1.451    0.311
       196  -8.4150    106.5089     66.4295   5.2876945315e+01   4.7242923536e+01    0.1291545    0.1206571  -2.28 0.0001328296    1.013    0.013
       197  -9.7052    165.8524     63.9779   4.0130050875e+01   3.5552704324e+01    0.2045432    0.1827972  67.03 0.0002830272    1.119    0.106
       198  -9.8110     97.8941     63.8853   5.4225736402e+01   4.9206929916e+01     0.222877    0.1737897 -38.13 0.0003771499    1.273    0.215
       199  -9.8581     54.4762     63.0023   6.6050529574e+01   5.6174551082e+01    0.2770422    0.1977663 -31.96 0.0007884833    1.216    0.178
       200 -11.9474     56.1563     56.9292   6.3591953396e+01   5.6895187271e+01    0.3319121     0.271426  11.13 0.0003318928    1.178    0.151
       201  -9.0913    193.5128     62.5029   3.5477455968e+01   2.9880251327e+01    0.1916881    0.1176756  52.32 0.0001503227    1.764    0.433
       202 -10.0705    155.2646     61.4396   4.1311467040e+01   3.8179985957e+01    0.2326973    0.2298009   9.08 0.0003320781    1.095    0.087
       203  -8.5312    108.8266     62.3722   5.1117441446e+01   4.7425694705e+01    0.1777095    0.1155908  38.47 0.0009361217    1.573    0.364
       204  -9.7517     65.1795     61.7709   6.2454271046e+01   5.4872656247e+01    0.2434308    0.1900938  20.32  0.001542018    1.285    0.222
       205  -8.9334     43.3658     61.8774   6.9164345214e+01   5.7767119896e+01    0.1680492    0.1284324 -26.57 0.0006249659    1.078    0.072
       206  -8.5462    242.6771     61.6964   2.9236997055e+01   2.0011574525e+01    0.1063419    0.1000529  11.31 0.0004101015    1.636    0.389
       207  -9.5989     70.7247     60.5895   6.0475177473e+01   5.4226735887e+01     0.227192    0.1861113 -29.07 0.0007207886    1.147    0.128
       208  -8.3487    213.2014     59.9769   3.2284915247e+01   2.6145975028e+01    0.1626848   0.09170015 -42.35 0.0003279583    1.640    0.390
       209  -9.2685    166.6307     60.1633   3.9033172130e+01   3.5952325278e+01    0.1781017    0.1239733 -25.90 0.0007953249    1.659    0.397
       210  -9.3368     94.3993     59.2798   5.3693458093e+01   5.0516598922e+01    0.3062368    0.1999821  13.23  0.001565613    1.988    0.497
       211  -9.4589    142.6997     58.8777   4.2936852480e+01   4.1187379997e+01    0.2326339    0.1645959  46.23 0.0009156382    1.431    0.301
       212  -9.2417    226.2030     56.2462   2.9949221975e+01   2.4057734653e+01    0.2668511     0.137495 -50.96   0.00137902    1.694    0.410
       213  -8.8880     12.7898     57.3091   7.7938986263e+01   6.1652087127e+01     0.161287    0.1128163 -37.51  0.001090795    1.147    0.128
       214  -9.3856    116.4286     55.9945   4.7496095656e+01   4.6891100007e+01    0.2348879    0.1853792  78.75  0.001346825    1.645    0.392
       215  -9.9609     82.8629     55.0767   5.5367433156e+01   5.3102517183e+01    0.3551117    0.2242642  -3.87  0.001598407    2.056    0.514
       216  -9.9770     94.7207     52.6640   5.1558149798e+01   5.1396655804e+01    0.4404161    0.2787226  15.97  0.001786965    2.040    0.510
       217  -9.5243     97.0953     48.1253   4.9559978756e+01   5.1577157609e+01    0.2569788    0.1632807 -12.07 0.0008314183    1.858    0.462
       218 -10.5283     70.7108     52.0700   5.7732020819e+01   5.5479277804e+01    0.4934407     0.320052 -14.65  0.002819841    1.618    0.382
       219  -8.9332     64.3110     54.6489   6.0415486871e+01   5.6075359301e+01    0.1676966    0.1493463  43.33 0.0006734653    1.415    0.293
       220  -9.6417     61.3314     52.0600   6.0443097085e+01   5.6883656066e+01     0.205003    0.1794443   1.73 0.0005194237    1.094    0.086
       221  -9.4017     43.0701     52.8727   6.6352316742e+01   5.9208296939e+01    0.3132471    0.1555047 -45.32  0.001505862    2.109    0.526
       222 -10.1264     46.8067     47.0512   6.3211781619e+01   5.9581267842e+01    0.4414897    0.2050827  26.12  0.001733646    2.475    0.596
       223  -9.2182    192.5107     52.9796   3.3416303395e+01   3.1477533222e+01    0.1902433    0.1616352  85.12 0.0005558187    1.111    0.100
       224  -9.6644    145.8198     52.3904   4.0599512156e+01   4.1441085961e+01    0.2390838    0.1577612 -57.92   0.00111017    1.782    0.439
       225  -9.9237    122.7027     52.3646   4.5089027833e+01   4.6157069484e+01    0.2770213    0.2220002  75.42  0.001643814    1.487    0.328
       226  -8.5413    183.7822     52.1338   3.4432107478e+01   3.3442416851e+01    0.1550575    0.1487384  36.55 0.0005225005    1.254    0.202
       227 -10.8431    110.9751     51.8021   4.7461254494e+01   4.8514459101e+01    0.2384437    0.1961053  34.63 -0.000430966    1.184    0.156
       228  -9.3428    199.6171     50.2682   3.1865365864e+01   3.0363443621e+01    0.2360364    0.1181205  70.86 0.0006953251    2.108    0.526
       229  -9.8081    174.6652     49.1127   3.5030585836e+01   3.5790150976e+01    0.4246539    0.2543056  38.90   0.00210874    2.212    0.548
       230 -10.7907    143.9917     40.9998   3.7852893722e+01   4.3279640249e+01    0.3762629    0.2161037  38.44  0.001912636    2.023    0.506
       231  -9.5787    148.7143     38.7303   3.6451786909e+01   4.2572031185e+01    0.2066794    0.1921634  87.97 0.0003956838    1.064    0.060
       232 -10.2685    141.0180     48.3111   4.0364651147e+01   4.2978239750e+01     0.382434    0.1976544 -30.66   0.00148708    2.058    0.514
       233  -9.9872    136.9506     49.4455   4.1431582044e+01   4.3667774613e+01    0.2860614    0.2019697  62.13 0.0005117183    1.437    0.304
       234  -9.2543    133.4888     48.5650   4.1844452086e+01   4.4490039833e+01    0.1899888    0.1824138 -36.33 0.0007378216    1.071    0.067
       235 -10.1523     87.0083     49.0243   5.2351933775e+01   5.3234471994e+01    0.3296725     0.236926  39.22   0.00134634    1.365    0.267
       236 -10.4185    128.3820     48.3988   4.2793107839e+01   4.5545397894e+01    0.2566575    0.2449466 -32.61 0.0006146338    1.079    0.074
       237 -10.1081    150.7094     46.3122   3.8120405230e+01   4.1219637791e+01     0.369351    0.1865168 -58.90  0.001441921    2.959    0.662
       238  -9.8894    158.2976    244.3177   8.1457408936e+01  -2.3385818694e-01    0.2265347    0.1488694 -38.41 0.0005791101    1.630    0.387
       239  -9.3260     91.7819     42.8345   4.9178730251e+01   5.3195836282e+01    0.2134851     0.195661 -59.66  0.001215125    1.397    0.284
       240 -10.2455     86.8693     37.6099   4.8704385888e+01   5.4681098070e+01    0.4098263     0.311953 -41.33  0.002256128    1.518    0.341
       241 -11.0134     79.7893     44.5565   5.2785940500e+01   5.5032513156e+01    0.6206278    0.4805078 -53.45  0.003853404    1.765    0.433
       242  -9.8024     87.1285     42.4119   5.0196092143e+01   5.4060490247e+01     0.235494    0.1827216  16.53 0.0003808162    1.251    0.201
       243  -9.9669     83.3959     41.1944   5.0747364315e+01   5.4848343992e+01    0.2339127    0.1713758  11.99 0.0009120427    1.391    0.281
       244  -9.2642     32.0278     47.3635   6.8139324107e+01   6.1317340918e+01    0.1810356    0.1219195 -24.11 0.0009145511    1.220    0.180
       245 -10.3672      3.3534     43.3295   7.6903415974e+01   6.4635695623e+01    0.5966074    0.2343929 -35.59  0.003020123    2.001    0.500
       246  -8.9564    235.0354     47.2423   2.7186236604e+01   2.3597051845e+01    0.1667385    0.1290165 -76.22 0.0004023079    1.096    0.088
       247 -10.4443    115.4283     45.0500   4.4473484729e+01   4.8531315731e+01    0.2735252    0.2430115  35.94 0.0005657455    1.070    0.065
       248  -9.4001    113.1764     41.3877   4.3858333143e+01   4.9414133351e+01    0.2054702    0.1645173 -57.71 0.0002231716    1.537    0.349
       249 -12.7734     61.7572     44.4590   5.7776478051e+01   5.7866156853e+01    0.3226629    0.2445312  35.54 0.0003363768    1.378    0.274
       250 -11.4144     57.7406     45.3599   5.9270998154e+01   5.8327509180e+01    0.2418549     0.226549  29.51 0.0003455318    1.372    0.271
       251  -9.4217     38.8131     47.0088   6.5769096885e+01   6.0583371685e+01    0.1808853    0.1454326   4.47 0.0005741656    1.150    0.131
       252  -9.4203    185.1738     44.7885   3.2512420828e+01   3.4138541887e+01    0.3180696    0.2079439  -9.26  0.001565003    2.647    0.622
       253  -9.7870    123.1984     44.9388   4.2834509659e+01   4.7020435329e+01     0.366821    0.1659399  49.94  0.001736388    2.075    0.518
       254  -9.2686    245.1092     44.4649   2.5663760406e+01   2.2039006013e+01    0.1979964    0.1291062  86.60 0.0006151667    1.484    0.326
       255  -9.3512    248.8714     43.1396   2.5065653966e+01   2.1509350232e+01    0.1903054    0.1598672  75.80 0.0003880015    1.353    0.261
       256  -9.7513    108.4700     40.4921   4.4597680996e+01   5.0420012623e+01    0.2391078     0.209143 -23.82 0.0007945138    1.170    0.145
       257  -9.8611    107.2339     43.9949   4.5935931194e+01   5.0229440923e+01    0.3637646    0.1570875  43.73  0.001690002    2.248    0.555
       258  -9.8456    103.4529     41.7910   4.6107647146e+01   5.1206372547e+01    0.2570041     0.236932   1.26 0.0009445876    1.051    0.048
       259  -9.3867    200.7955     43.0908   3.0126777473e+01   3.1087929177e+01    0.2440427    0.1600756  62.94 0.0009713077    1.507    0.336
       260  -9.5689     45.6374     42.7429   6.2106416569e+01   6.0324172830e+01    0.2654517    0.1541947   2.12  0.001140275    2.148    0.534
       261  -9.0629     34.4526     41.6292   6.5361539402e+01   6.1851643397e+01    0.1954269    0.1223513  15.15   0.00123619    1.619    0.382
       262  -9.4396    215.3623     41.2024   2.8041581852e+01   2.8342959739e+01    0.2522239     0.157331 -73.14  0.001330264    1.622    0.384
       263 -10.0701    228.4417     39.6910   2.6361196676e+01   2.5921147062e+01    0.3413658    0.2847769  34.77  0.002237237    1.856    0.461
       264  -9.8354     23.9055     39.5017   6.8218634265e+01   6.3311658155e+01    0.3886855    0.1944359 -11.33  0.001687081    2.708    0.631
       265  -8.7889    159.0062     39.5213   3.5013093089e+01   4.0325675838e+01    0.2680106    0.1319659 -63.90 0.0008322502    3.530    0.717
       266 -11.6144    238.5666     37.7007   2.4993227731e+01   2.4206780633e+01    0.2544524      0.19814 -70.48 0.0002299932    1.014    0.014
       267  -8.7810    242.4853     34.5380   2.4038429433e+01   2.3869795110e+01    0.1530357    0.1059898 -35.39 0.0009644826    1.694    0.410
       268 -10.0043    203.3099     39.0256   2.8941137689e+01   3.1095412689e+01    0.2131792    0.1610752  82.00 0.0004029532    1.230    0.187
       269  -9.9939    130.3269     37.0744   3.9208948956e+01   4.6534760222e+01    0.3891828    0.2309902 -25.24  0.002122303    1.855    0.461
       270  -9.4756     94.0130     38.2356   4.7176479866e+01   5.3350517759e+01    0.1923568    0.1578543 -15.13 0.0003129164    1.196    0.164
       271  -9.8648     98.2492     35.1717   4.5223745829e+01   5.2934815059e+01    0.2779681    0.2088589  55.66  0.001261382    1.405    0.288
       272  -9.3249     29.0682     41.9028   6.7273939848e+01   6.2424148964e+01    0.3809811    0.2025051  -1.76  0.001976471    2.598    0.615
       273  -8.8924     40.4562     39.4592   6.2625044080e+01   6.1418763850e+01    0.1152937   0.08929919  -7.54 0.0002071982    1.040    0.039
       274  -9.2353    187.4844     37.4662   3.0518830959e+01   3.4586013606e+01    0.3058265    0.1603429 -70.48   0.00139885    2.626    0.619
       275  -8.7564    198.5752     36.9180   2.9037135362e+01   3.2342292297e+01    0.1522071    0.1090801   0.03 0.0008055132    2.526    0.604
       276  -9.5940    177.5602     37.0026   3.1711026672e+01   3.6726644366e+01    0.2383051    0.1585637  87.36 0.0008455789    1.619    0.382
       277  -9.3757    153.8451     37.1046   3.5199452863e+01   4.1695051416e+01     0.179984    0.1539126 -77.22 0.0004242747    1.214    0.177
       278  -9.1938      1.4935    244.0156   1.1018042045e+02   2.1686553107e+01    0.1683614   0.08522288 -78.72 0.0003954987    1.511    0.338
       279 -11.9562    107.3218     30.1316   4.1685177470e+01   5.1795105071e+01    0.4830897    0.3354914  20.11   0.00292775    1.595    0.373
       280  -9.8992    118.9930     31.1659   3.9652533025e+01   4.9440318159e+01    0.2182519    0.1824725  17.42 0.0007386826    1.244    0.196
       281  -8.8057     44.0262    244.0000   1.0300728799e+02   1.6878703108e+01    0.1772319   0.06536555  38.66 0.0007968748    2.904    0.656
       282  -9.7392    244.7567    242.1598   6.5153553915e+01  -1.2729251952e+01     0.198389    0.1274584  -7.64 0.0006494318    1.712    0.416
       283 -10.7823     62.1786     23.2944   5.0298213094e+01   6.0265909650e+01    0.3895245    0.2422625   9.15  0.002067756    1.696    0.410
       284  -9.7189    247.8914    239.2989   6.4104184975e+01  -1.2691189763e+01    0.2148406    0.1805907  13.19  0.001474812    1.228    0.186
       285  -9.5737    145.7801    242.3897   8.3577116506e+01   2.1555895154e+00    0.1801751    0.1225812  29.29 0.0005110334    1.641    0.391
       286 -10.2570     78.2953     34.9988   5.0014824919e+01   5.6435682409e+01    0.2970345    0.2022348  34.91  0.001244051    1.366    0.268
       287 -11.9086     78.1244     29.8807   4.8343256307e+01   5.7030121406e+01    0.6073049    0.4275716  56.70  0.001380277    1.701    0.412
       288  -9.6971     60.8435     34.6678   5.4679635837e+01   5.9223267055e+01     0.193192    0.1555078 -17.85 0.0002520126    1.173    0.148
       289 -10.0374     51.9807     33.1578   5.6770935730e+01   6.0680906467e+01    0.2504348    0.1784901  44.58  0.001321442    1.679    0.404
       290  -9.9933     55.5276     32.4771   5.5465953903e+01   6.0257531511e+01    0.2027096    0.1665792  -9.08 0.0005259689    1.100    0.091
       291  -8.8437    247.4986     36.4696   2.3952466255e+01   2.2666355745e+01    0.1178496   0.09058631 -70.09 3.488951e-05    1.002    0.002
       292  -8.4980    166.8411     36.3772   3.3055477270e+01   3.9056622465e+01    0.1708198    0.1010369  53.05 0.0005118182    1.655    0.396
       293 -10.2031    146.3731     28.9570   3.4252676093e+01   4.4159878794e+01    0.2337854    0.1813931  60.24 0.0003505607    1.188    0.158
       294 -10.3708    139.9045     33.8481   3.6619137099e+01   4.4953465824e+01    0.3214425    0.2072301 -29.07  0.001153613    1.668    0.400
       295  -9.1274    142.4673     30.5209   3.5295050949e+01   4.4794248390e+01    0.2113857    0.1680803  23.84 0.0007123086    1.459    0.315
       296  -9.3101    223.9159     33.7879   2.5640566649e+01   2.7584064207e+01     0.238511    0.1427529  58.23   0.00140054    1.825    0.452
       297  -9.1408    146.0709     34.0288   3.5641036664e+01   4.3664574728e+01    0.2000847     0.140573 -75.16  0.001133053    1.791    0.442
       298  -8.9241     73.4930     34.4593   5.1095814292e+01   5.7283482017e+01    0.1172997    0.0979846   9.61  9.36588e-05    1.029    0.028
       299  -8.8420     47.0373     34.5146   5.8775846088e+01   6.1194636863e+01    0.1545322    0.1007431  31.77 0.0004181773    1.503    0.335
       300  -8.8662     43.4482     32.5858   5.9216120660e+01   6.1903011015e+01    0.1817515    0.1248207 -14.77   0.00095566    1.261    0.207
       301  -9.0550     30.9752     33.6052   6.3684423137e+01   6.3313527763e+01    0.1454364   0.09521931  26.08 5.605682e-05    1.517    0.341
       302  -9.4689    158.2022     31.8431   3.3187947698e+01   4.1390600906e+01    0.2449575    0.1838858 -75.05  0.001063696    1.473    0.321
       303  -9.2655    133.2015     31.6651   3.7177584147e+01   4.6557931306e+01    0.1990419    0.1366663  63.44 0.0005458982    1.417    0.294
       304  -9.6537     47.1943     26.2500   5.5742945246e+01   6.2131369663e+01    0.3257874    0.2598515  52.62  0.001618989    1.852    0.460
       305  -9.9506     25.4353     31.0077   6.4642014190e+01   6.4266802126e+01    0.5217476    0.2011909  24.33  0.002554536    3.154    0.683
       306 -11.1080     37.1816     26.8502   5.9139940434e+01   6.3379461984e+01    0.4128157    0.2268597  33.42  0.002620388    1.774    0.436
       307  -9.7920    248.2954     30.4460   2.2782131148e+01   2.3298834892e+01    0.1959064    0.1635942 -52.82 0.0006687485    1.305    0.233
       308 -10.1208    233.8544     30.6997   2.4093564697e+01   2.6021860421e+01    0.2787555    0.1740564  62.07  0.001147361    1.718    0.418
       309  -9.0279    178.4896     30.9259   3.0159528042e+01   3.7251730271e+01    0.1708371    0.1160984 -35.55   0.00102232    1.562    0.360
       310  -9.4456    190.4287     29.1576   2.8284886740e+01   3.4969399264e+01    0.2439695    0.1649048 -88.89  0.001466284    1.478    0.324
       311  -8.9963    126.5076     30.3092   3.7994580576e+01   4.8047039023e+01    0.3244437   0.07365074  52.58  0.001203535    3.543    0.718
       312  -9.5346     56.6249     36.1769   5.6441471461e+01   5.9660452127e+01    0.2186803    0.1445654 -11.90 0.0004175855    1.444    0.307
       313 -10.7858     18.6688     27.8901   6.5883594040e+01   6.5378585778e+01    0.3141584    0.1920567 -39.56  0.001076876    1.758    0.431
       314 -10.0897    222.0610     26.4365   2.4365749679e+01   2.8860620903e+01    0.2527439    0.1673522 -69.23 0.0005251127    1.346    0.257
       315  -8.8233    211.5481     26.8976   2.5490780678e+01   3.0908476586e+01    0.1612414    0.1091734 -38.47  0.001006689    1.558    0.358
       316  -9.3987     82.9536     26.0071   4.5848653603e+01   5.6616367254e+01     0.172536    0.1538292  47.89   0.00125354    1.264    0.209
       317  -9.6555    189.2251    240.3943   7.4882093820e+01  -4.4180479757e+00    0.1806257    0.1181639  47.48 0.0009524447    1.707    0.414
       318 -10.0096    221.6127    236.1752   6.8142749057e+01  -8.5675559928e+00    0.3779234    0.1084246 -41.06  0.001413102    3.202    0.688
       319 -10.2090      1.8330     24.8581   7.1026021960e+01   6.7342725749e+01    0.2887328    0.1310175 -31.92  0.001153298    1.738    0.425
       320 -10.3179    187.9867    235.6756   7.4294237829e+01  -3.3633004187e+00    0.1847855    0.1634609  24.24 0.0006512657    1.137    0.120
       321  -9.3050     31.9280    232.1241   1.0399759769e+02   2.0930919836e+01    0.1891046    0.1301501  81.09 0.0003654073    1.241    0.194
       322  -8.9302    178.7843    231.3943   7.5308846664e+01  -1.0798148198e+00    0.1833797    0.1244424  26.00 0.0005563887    1.642    0.391
       323  -9.2760    187.3076    230.6622   7.3535032016e+01  -2.3198717400e+00    0.1287364    0.1066602 -87.92 0.0007042459    1.680    0.405
       324  -8.7611    163.4784    227.0158   7.7542109611e+01   2.3090588257e+00    0.2040464    0.1294734 -48.68 0.0007349299    1.533    0.348
       325  -8.6985    224.1330    225.3728   6.5703762954e+01  -7.0714426988e+00    0.2104546    0.1422171 -42.82 0.0008621477    1.390    0.280
       326  -9.7569    153.7568     22.7520   3.1538797461e+01   4.3284751937e+01    0.2601103     0.184924 -27.76   0.00113881    1.574    0.365
       327 -10.4724    152.0232     18.0424   3.0594869789e+01   4.4106373778e+01    0.2033585    0.1883068 -87.24 0.0002975036    1.077    0.071
       328  -9.4543    188.9579     22.6990   2.7024509797e+01   3.6002675975e+01    0.2418671    0.1704357 -65.55  0.001538468    1.381    0.276
       329 -10.1121    173.3764     22.1759   2.8764455584e+01   3.9282352508e+01    0.2247467    0.1920491  48.42  0.000696548    1.289    0.224
       330  -8.4269    169.6917     22.7188   2.9360797684e+01   3.9989468707e+01    0.1828909    0.1451158  51.37 0.0002748416    1.306    0.234
       331  -8.9733    144.3524     21.2387   3.2538693674e+01   4.5365058813e+01    0.1943923    0.1347139 -78.31  0.000566174    1.786    0.440
       332  -9.0440    207.7305    226.4159   6.8899193234e+01  -4.7657768433e+00    0.1767558    0.1219928  22.19 0.0009426947    1.611    0.379
       333  -9.9367    139.8980     20.1773   3.2943041369e+01   4.6373836988e+01    0.2719304    0.2107916  38.57 0.0009143539    1.328    0.247
       334  -9.5280    117.0408     22.2514   3.7413315835e+01   5.0720346360e+01    0.1694511    0.1331209  37.55 0.0003352591    1.194    0.162
       335  -9.3631    122.6254     22.3865   3.6434911715e+01   4.9615994799e+01    0.3783065     0.225817 -76.37  0.001783701    3.216    0.689
       336  -8.5855    235.0229    225.0198   6.3704330748e+01  -8.5954930408e+00    0.1569465    0.1311848 -22.04 0.0004693781    1.002    0.002
       337 -10.2758     85.8762     22.1958   4.3893437488e+01   5.6485474932e+01     0.243786    0.1764312  58.95 0.0005952258    1.557    0.358
       338 -10.5149     50.6117     22.0006   5.3151521387e+01   6.2105942530e+01    0.2321603    0.1606959  -5.25 0.0006039507    1.295    0.228
       339  -9.4787     26.4792     21.8340   6.0844197073e+01   6.5237498229e+01    0.2251057    0.1280833 -17.71  0.001478328    1.552    0.356
       340  -9.0503     12.2715     23.1433   6.6431047441e+01   6.6603297598e+01    0.2000047    0.1384249  29.20  0.001498102    1.674    0.403
       341  -9.6029    221.7058     21.3663   2.3406079599e+01   2.9529699222e+01    0.2170038    0.1377196 -78.98 0.0006970352    1.456    0.313
       342  -8.4324    132.4304    225.4577   8.3518179560e+01   7.8332352834e+00    0.1359665    0.1270107 -82.44 4.967061e-05    1.028    0.027
       343 -10.0132     41.0698     21.4984   5.5893415061e+01   6.3466284284e+01    0.1921599    0.1695453  -1.26  0.001530857    1.295    0.228
       344  -9.2936     18.0124     21.9455   6.3874064497e+01   6.6160622184e+01    0.1507556    0.1133572  -6.65 0.0003090938    1.043    0.041
       345  -8.5594    207.3064     21.6070   2.4834047528e+01   3.2377450039e+01    0.1277113   0.07146452 -66.13 8.155363e-05    1.822    0.451
       346  -8.8400    109.7781    221.8295   8.7560144789e+01   1.2343533840e+01    0.1898747    0.1485566  89.33 0.0004040097    1.336    0.252
       347  -9.4709    193.5572     20.0863   2.5945350925e+01   3.5342575404e+01    0.1811468    0.1366145 -86.38 0.0003949146    1.195    0.163
       348 -11.0085    182.3797     18.4172   2.6823719338e+01   3.7815047128e+01    0.2336809    0.1901043  59.01 0.0004245265    1.260    0.206
       349  -9.2358     31.8035     19.3346   5.8080973402e+01   6.4875249354e+01    0.1898973    0.1267765 -11.38  0.001361774    1.255    0.203
       350  -8.6881    199.5461     18.5313   2.4983335276e+01   3.4289735803e+01    0.1141225   0.09678047 -85.95 0.0001233194    1.029    0.028
       351  -9.2536     89.2312    220.9820   9.1626995140e+01   1.5746584686e+01    0.2177929    0.1913048 -17.47 0.0008019112    1.596    0.373
       352  -9.1709    174.9159    217.8434   7.3621869066e+01   2.2425810630e+00    0.2793992    0.1705305 -42.82 0.0008842847    1.563    0.360
       353  -8.5310    117.9671    211.9809   8.4273776276e+01   1.3235471388e+01    0.1681368    0.1553213 -79.39 0.0004310319    1.014    0.014
       354  -8.4996    230.6509    209.6690   6.1550992485e+01  -5.2297980874e+00    0.1399503   0.09482429 -11.53 0.0007048573    1.768    0.434
       355  -8.0884    123.9802    205.9850   8.1973083587e+01   1.3601083320e+01    0.1645685    0.1453084 -64.39  0.000910875    1.047    0.045
       356  -8.1976    133.0119    198.9917   7.8777708647e+01   1.3657635476e+01    0.1663446    0.1598712 -86.89            0    1.063    0.059
       357  -9.0423    143.9384     16.3561   3.1325859428e+01   4.5914415183e+01    0.2129896    0.1025363  72.60  0.001043647    2.244    0.554
       358  -8.2695     81.2800    198.6951   8.9949453978e+01   2.2194315147e+01    0.1414085    0.1000518  84.93 0.0002892004    1.553    0.356
       359  -9.8312     44.6427     15.5081   5.2529529375e+01   6.3584223832e+01    0.3264829    0.1363727  41.38  0.001846999    2.235    0.553
       360  -9.3192    195.0455     15.1024   2.4723879042e+01   3.5568380245e+01    0.1716778    0.1381921 -85.42 0.0003555266    1.063    0.059
       361  -9.0505     84.2664     14.9509   4.1870590115e+01   5.7422290930e+01    0.1794236    0.1069233  16.17 0.0008463552    1.896    0.472
       362  -8.7597    109.2086    196.7728   8.3538409871e+01   1.8252721570e+01    0.1850993    0.1654971 -30.09 0.0002966091    1.322    0.244
       363  -9.1372    112.8640     13.8461   3.5712069044e+01   5.2282388763e+01    0.1785801    0.1287308  35.53 0.0007728809    1.318    0.242
       364  -9.1711     90.9919     13.6691   3.9970326564e+01   5.6347416846e+01    0.2514103    0.1293174  61.34   0.00138738    2.120    0.528
       365  -9.5906      5.9947    195.2396   1.0515277507e+02   3.2094575221e+01    0.1819948    0.1026406 -57.34 0.0007312785    1.636    0.389
       366 -10.0730    243.6446     13.3653   2.0094419707e+01   2.6233829857e+01    0.2280436    0.1140899  67.91  0.001205157    1.927    0.481
       367  -8.4380    227.3498     13.6973   2.1448187934e+01   2.9296665346e+01    0.1204394   0.06686694 -70.59 0.0007039847    1.697    0.411
       368  -8.6879     28.5702    178.4868   9.8494682859e+01   3.3870444867e+01    0.1343573    0.1027966 -70.53 1.963126e-05    1.037    0.035
       369  -9.4303    184.1541     12.8904   2.5399559667e+01   3.8012366983e+01    0.1683358    0.1459074  86.92 0.0005901667    1.036    0.035
       370  -9.9711     17.6443    174.1848   1.0031252155e+02   3.6004191638e+01    0.1760267    0.1453065 -84.73  0.001146908    1.131    0.116
       371 -11.6340     39.3654    160.0383   9.3276474051e+01   3.7209211346e+01    0.6575587    0.3848287  77.57  0.002953735    2.498    0.600
       372 -12.4551     34.6120    158.1163   9.4100572734e+01   3.8195823849e+01      1.17178    0.5841868  67.69  0.004422718    3.809    0.737
       373  -9.9318     24.1030    163.3264   9.7370422483e+01   3.8003492127e+01    0.2166164    0.1423616 -59.51 0.0004508997    1.223    0.183
       374  -9.4647     20.6461    157.9651   9.7386323996e+01   3.9629694403e+01    0.1926795     0.130661 -66.35 0.0003951327    1.125    0.111
       375  -9.9279      9.4077    156.7621   9.9828205868e+01   4.0914284115e+01    0.2471318   0.09954221 -70.57 0.0008238001    2.015    0.504
       376  -9.7512      2.0966    156.2993   1.0144083881e+02   4.1613178083e+01     0.343354    0.1294187 -66.67  0.001234467    1.908    0.476
       377  -9.4166    249.1098    154.0770   4.7272989370e+01   2.3914169538e+00    0.2103788    0.1635826 -31.69 0.0007439866    1.240    0.194
       378  -9.9267     19.7332    151.9087   9.6688582041e+01   4.1169083410e+01    0.2970393    0.1241997 -56.01  0.001393266    1.807    0.447
       379  -9.4849     58.3419    150.9294   8.7017583120e+01   3.7167409052e+01    0.1996084    0.1792638 -88.89 0.0002871977    1.190    0.159
       380  -9.7430     14.8935    150.8368   9.7685089752e+01   4.1857185791e+01    0.1906198      0.14131 -55.86 0.0004638355    1.173    0.147
       381 -10.5785     11.1571    146.7561   9.7968977913e+01   4.3142566930e+01    0.2991587    0.1971844 -43.75  0.001213582    1.530    0.346
       382 -10.0489     23.2584    148.6766   9.5325542845e+01   4.1615933426e+01    0.2269564    0.1787269 -88.56  0.001356027    1.308    0.236
       383 -10.0349     29.0330    144.0975   9.3131058490e+01   4.2154696697e+01    0.2163793     0.152481 -60.95 -0.0009232552    1.102    0.092
       384  -9.7652      3.9053    145.0077   9.9456829314e+01   4.4129175649e+01    0.2321081    0.1816337 -24.58  0.001522531    1.650    0.394
       385 -10.0709      1.8785    139.7539   9.9175554111e+01   4.5504868936e+01    0.3896787    0.1216775 -71.07  0.001492674    3.021    0.669
       386 -10.4962    239.7262    140.5529   4.5901376284e+01   6.6216688402e+00      0.27653    0.1632013 -43.22 0.0007616954    1.392    0.282
       387  -9.3888     36.3795    144.0529   9.1271202675e+01   4.1412863360e+01    0.1932379    0.1637272 -46.99 0.0002898956    1.185    0.156
       388  -9.7455     14.2378    141.3295   9.6369311727e+01   4.4165567276e+01     0.184276    0.1588939  59.97 0.0006860636    1.430    0.300
       389 -10.4467     40.5872    136.7778   8.8835016287e+01   4.2696622855e+01    0.4122458     0.301484  89.30  0.001479704    1.663    0.399
       390  -9.5834     34.5941    136.7842   9.0396123967e+01   4.3333187782e+01    0.2839869    0.1999391  73.02 0.0009871037    1.904    0.475
       391  -9.0458     58.7513    135.4035   8.3798156307e+01   4.0860773787e+01    0.3211382    0.1993389   0.41  0.001378709    2.894    0.654
       392  -9.6258     61.6567    131.7591   8.2250213125e+01   4.1343695497e+01    0.3573757    0.1548849 -52.40  0.001472167    1.882    0.469
       393 -10.1746     16.3046    131.2552   9.4152971527e+01   4.6344904754e+01    0.5646004   0.09881909 -57.44  0.001911388    3.336    0.700
       394  -8.6068     19.0000    126.9668   9.2672646511e+01   4.7104126364e+01    0.2169387   0.09965467 -49.45  0.001063864    1.719    0.418
       395 -10.0064      7.9510    133.3365   9.6657624570e+01   4.6536837054e+01     0.327915    0.2098086 -11.00  0.001849915    2.314    0.568
       396  -8.9167    248.6837    133.6797   4.3136557792e+01   6.3657881397e+00    0.1316769    0.1013766 -19.56 0.0003142323    1.659    0.397
       397  -8.7221    225.5268    133.4998   4.6620021195e+01   1.0607650223e+01    0.1465499    0.1214074 -51.84   0.00010224    1.027    0.026
       398 -10.1027      2.6193    131.2210   9.7673551820e+01   4.7419559908e+01    0.3170908    0.1508456 -50.05   0.00168476    1.676    0.403
       399 -10.5334     41.5075    129.4072   8.7129109959e+01   4.4330338247e+01    0.2443246    0.2246386 -54.22 0.0002099425    1.142    0.124
       400  -9.2097     33.9522    126.9082   8.8654256759e+01   4.5711075959e+01    0.1987537    0.1493211  87.99  0.001117482    1.673    0.402
       401  -8.8681     12.5224    126.1119   9.4237393399e+01   4.7838898004e+01    0.1917808   0.09806551 -62.18 0.0003766598    1.494    0.331
       402 -10.4242      4.0524    124.1610   9.6135086278e+01   4.8923922033e+01    0.3489241     0.170778 -75.69  0.001684698    2.173    0.540
       403 -10.0865      7.2431    121.1054   9.4751981999e+01   4.9380461501e+01    0.2915143    0.1976842  53.36  0.001743943    2.023    0.506
       404 -10.3657    241.3861    124.3594   4.2250993011e+01   9.4384087977e+00    0.2786702    0.2087028 -59.89 0.0009576523    1.225    0.184
       405  -8.0423     77.6507    124.7455   7.6399583085e+01   4.0726383169e+01    0.1396081    0.1051619 -19.81 0.0002047696    1.595    0.373
       406 -10.6839     28.9729    118.3743   8.8277642007e+01   4.8151872060e+01    0.4950857    0.3083474 -87.46  0.002355612    2.529    0.605
