#   1 NUMBER                 Running object number                                     
#   2 MAG_AUTO               Kron-like elliptical aperture magnitude                    [mag]
#   3 X_IMAGE                Object position along x                                    [pixel]
#   4 Y_IMAGE                Object position along y                                    [pixel]
#   5 X_WORLD                Barycenter position along world x axis                     [deg]
#   6 Y_WORLD                Barycenter position along world y axis                     [deg]
#   7 A_WORLD                Profile RMS along major axis (world units)                 [deg]
#   8 B_WORLD                Profile RMS along minor axis (world units)                 [deg]
#   9 THETA_WORLD            Position angle (CCW/world-x)                               [deg]
#  10 FWHM_WORLD             FWHM assuming a gaussian core                              [deg]
#  11 ELONGATION             A_IMAGE/B_IMAGE                                           
#  12 ELLIPTICITY            1 - B_IMAGE/A_IMAGE                                       
         1 -14.5761    135.5695    124.4985   1.0804519948e+02   3.0776990269e+01     3.313288     0.547695 -49.13  0.006995208    6.883    0.855
         2 -14.4919    151.4219     58.4698   8.5242851970e+01   4.0119622951e+01     1.447555     1.180582  33.02  0.001014899    1.319    0.242
         3 -14.7943    162.5976     43.8539   7.8255713060e+01   3.9481756442e+01     1.313483     1.088086 -18.15  0.003320197    1.331    0.249
         4 -14.9606    177.4615     11.2630   6.5713847494e+01   3.9529158453e+01     1.980786     1.164119  70.67   0.00719273    1.542    0.352
         5 -11.9089     12.6273    241.7523   1.4961408595e+02   2.4339720959e+01    0.1682953    0.1298197  81.87  0.001068825    1.273    0.214
         6 -20.0873     76.2689    174.3410   1.3194210277e+02   3.0072435934e+01     16.96996     7.058034 -67.27   0.07342634    2.398    0.583
         7 -10.2861    139.6868    250.2026   1.2829271742e+02   5.8676997760e+00    0.1701894    0.1306779  69.44   0.00115224    1.415    0.293
         8 -10.9704     30.9791    182.6683   1.4276843636e+02   3.3905634987e+01    0.2546624    0.1826307  13.14  0.001545611    2.326    0.570
         9 -10.8951    161.6673    178.7118   1.1346486815e+02   1.4119104173e+01    0.1410439    0.1092678  12.24 0.0002458285    1.625    0.385
        10 -14.5992    137.9379    171.2066   1.1728749370e+02   2.0224653018e+01     1.169217    0.8084409  71.78  0.005537703    1.798    0.444
        11 -14.3297    144.4981    168.8097   1.1537041704e+02   1.9442587711e+01     1.004895    0.6325701  74.28  0.003962757    2.488    0.598
        12 -10.7324     16.3529    208.9433   1.4738712803e+02   3.0025123293e+01    0.1586621    0.1013018 -64.65   0.00107239    1.798    0.444
        13 -12.0893    187.8032    174.6998   1.0726855734e+02   9.6903055345e+00    0.3938126    0.1957141 -54.03  0.001545595    2.825    0.646
        14 -11.6692    167.7804    175.3204   1.1153013430e+02   1.3553809137e+01    0.2281298    0.1731179  57.42  0.001175666    1.374    0.272
        15 -11.8375     26.1295    173.3711   1.4303408277e+02   3.6412123718e+01    0.2604398    0.1789189  84.08 0.0005022378    1.166    0.142
        16 -12.9900     11.4504    206.0394   1.4811675021e+02   3.1073161036e+01    0.3916703    0.2412874  35.76  0.002194243    1.862    0.463
        17 -11.1823    126.9878    250.5830   1.3061493638e+02   7.7949964704e+00    0.1550319   0.09010816  43.93 0.0002256901    1.333    0.250
        18 -12.0782    230.4114    167.2997   9.7670220567e+01   2.6767934226e+00    0.4225121    0.2122215 -50.37  0.001718414    2.931    0.659
        19 -11.0801     28.3943    238.9133   1.4692017786e+02   2.3163596702e+01    0.1408251   0.09167258  83.71 0.0005298936    1.256    0.204
        20 -10.1913     22.4156    205.4041   1.4606639381e+02   3.0107555520e+01    0.1098433   0.08271566  76.92 0.0002298155    1.059    0.056
        21 -11.2932    139.3280    199.9818   1.2177089179e+02   1.4305495885e+01    0.3485975    0.2428611  48.48  0.001339398    1.255    0.203
        22 -12.3617    129.9209    161.1624   1.1727167485e+02   2.3884245565e+01    0.3325692    0.2394959  69.24 0.0005109107    1.578    0.366
        23 -12.0563    188.8624    158.4353   1.0371419488e+02   1.2401417822e+01    0.5451795    0.3280646  23.07  0.001797366    2.292    0.564
        24 -11.6700     17.5778    156.6835   1.4352298581e+02   4.0899746696e+01    0.4884531    0.2254359 -64.72  0.002334249    1.880    0.468
        25 -12.2028    143.4876    156.1734   1.1313870203e+02   2.2269184114e+01    0.3640595    0.2259196  59.14  0.001586587    1.805    0.446
        26 -15.3428    133.3653    145.1294   1.1325038064e+02   2.6693508583e+01      1.80702    0.9586892 -54.68    0.0057443    1.990    0.498
        27 -14.9338    143.9305    143.8406   1.1044552991e+02   2.4802640506e+01     1.172444    0.7702683 -65.56  0.004549061    1.868    0.465
        28 -10.8153    160.5230    247.4198   1.2420272199e+02   2.9506089210e+00    0.3142127    0.1661404  27.60 0.0009852793    2.233    0.552
        29 -10.6795     22.9622    156.0646   1.4223078366e+02   4.0551866372e+01    0.1794066    0.1423706  89.50 0.0004110269    1.032    0.031
        30 -10.6463    176.9848    154.9698   1.0544469032e+02   1.5542060815e+01    0.2191297    0.2093541  55.69 0.0004688919    1.071    0.067
        31 -13.6107    161.3146    152.8459   1.0839793892e+02   1.9270196783e+01    0.4861107    0.4608584  70.79  0.002089724    1.077    0.071
        32 -11.5581     21.5701    237.2836   1.4796495496e+02   2.4193845971e+01    0.1609296    0.1120008  79.52  0.001245715    1.139    0.122
        33 -12.3560    174.2045    148.5197   1.0463302780e+02   1.7385909383e+01     0.360159    0.3380466 -73.07  0.001200638    1.160    0.138
        34 -11.9287     28.0619    145.2582   1.3993535575e+02   4.2532130123e+01    0.3623868    0.2764109 -11.58  0.002018906    2.090    0.522
        35 -11.3349    171.6708    137.9421   1.0278450752e+02   2.0032461880e+01    0.2117995    0.1990014 -47.04 0.0004693627    1.090    0.083
        36 -10.0494     17.3452    200.2259   1.4669945926e+02   3.1654489996e+01   0.08840996   0.08237268 -71.21 0.0002117065    1.545    0.353
        37 -12.9579    160.6966    127.9057   1.0285463913e+02   2.4524204063e+01    0.4968085    0.3890894 -54.92  0.001730731    1.343    0.255
        38 -12.4130     28.5136    126.9175   1.3765983447e+02   4.6746711775e+01    0.4345267    0.3149589  -1.41  0.002570725    2.088    0.521
        39 -12.2949    131.0748    234.7928   1.2809624134e+02   9.6313277049e+00    0.2033465    0.1694728 -70.33 0.0008370807    1.432    0.302
        40 -11.1143    167.4262    112.5637   9.7468995290e+01   2.6101956829e+01      0.34907    0.2523383 -88.19    0.0014383    2.006    0.501
        41 -10.5920     17.3383    223.4565   1.4798620743e+02   2.7154369739e+01    0.1013384   0.07709088  83.22 0.0003065827    1.191    0.161
        42 -10.8109    205.3409    110.2270   8.9161613459e+01   1.7605169889e+01    0.3145134    0.2102667  46.28  0.001000997    1.539    0.350
        43 -11.4697     36.9155    102.0842   1.3141485444e+02   5.1786916826e+01    0.2839278    0.1935486   9.66  0.001585219    2.002    0.500
        44 -10.9309    218.1351    219.4402   1.0963123989e+02  -2.6664842223e+00    0.1848008    0.1434468 -31.89 0.0006781701    1.476    0.322
        45 -10.5028    144.1199     80.8928   9.3985062340e+01   3.7933237027e+01    0.2382925    0.2120095 -78.58 0.0004832314    1.238    0.192
        46 -10.5514     25.0357    185.3912   1.4420332371e+02   3.3942564826e+01    0.1748617    0.1247954 -80.30 0.0001404601    1.242    0.195
        47  99.0000    136.1496    243.2410   1.2814129591e+02   7.4774788496e+00    0.5341327    0.4017368  19.41  0.003372292    1.738    0.425
        48 -12.8848    125.1823    241.0329   1.2991001431e+02   9.5666467740e+00    0.4988543    0.1688478 -54.92  0.002257919    3.607    0.723
        49 -13.1107    166.5876     35.8464   7.4979486732e+01   3.9534449544e+01    0.4584243    0.4198586 -24.27 0.0009269926    1.174    0.148
        50 -11.0889     13.5870     59.9100   1.3102414563e+02   6.3100410867e+01    0.1801107     0.171389  37.38 0.0004624379    1.330    0.248
        51 -10.2140    143.7478     33.7242   7.8565933831e+01   4.5711730140e+01    0.1933814    0.1646202 -80.42 0.0004919615    1.317    0.241
