#   1 NUMBER                 Running object number                                     
#   2 MAG_AUTO               Kron-like elliptical aperture magnitude                    [mag]
#   3 X_IMAGE                Object position along x                                    [pixel]
#   4 Y_IMAGE                Object position along y                                    [pixel]
#   5 X_WORLD                Barycenter position along world x axis                     [deg]
#   6 Y_WORLD                Barycenter position along world y axis                     [deg]
#   7 A_WORLD                Profile RMS along major axis (world units)                 [deg]
#   8 B_WORLD                Profile RMS along minor axis (world units)                 [deg]
#   9 THETA_WORLD            Position angle (CCW/world-x)                               [deg]
#  10 FWHM_WORLD             FWHM assuming a gaussian core                              [deg]
#  11 ELONGATION             A_IMAGE/B_IMAGE                                           
#  12 ELLIPTICITY            1 - B_IMAGE/A_IMAGE                                       
         1 -14.9012    167.1301     47.8785   6.9526195624e+01   3.7361435188e+01     1.394642     1.138976  -5.70   0.00400871    1.372    0.271
         2 -15.2570    185.5014     15.5192   5.6471301648e+01   3.6632313060e+01     2.272258     1.400688  73.87  0.007336508    1.577    0.366
         3 -11.3879     90.6950    244.7417   1.2567526925e+02   1.5191965846e+01    0.2196125    0.1638413 -37.96  0.001491672    2.329    0.571
         4 -19.7935     69.8922    163.6099   1.2150588976e+02   3.3148773023e+01     15.85439     6.770524 -69.15   0.07216492    2.362    0.577
         5 -12.2265    134.3677    239.7878   1.1753328837e+02   9.5850694165e+00    0.2250224     0.168061 -52.07  0.001136303    1.726    0.421
         6 -10.9202    113.0741    195.1308   1.1622808055e+02   2.0369667091e+01    0.3489312     0.303828 -24.03  0.001655393    1.588    0.370
         7 -11.5016    219.4265    195.6596   9.5442609332e+01   1.6686226424e+00    0.2167557    0.1195283 -38.13 0.0008538794    2.061    0.515
         8 -10.7959    133.9294    196.0818   1.1208650173e+02   1.6739059849e+01    0.1893103    0.1603701  54.89 0.0003832277    1.052    0.049
         9 -10.4643    151.3069    236.3422   1.1409384145e+02   7.4393219909e+00    0.2010055    0.1431788  40.75 0.0007301751    1.109    0.098
        10 -13.2631    104.3684    249.2793   1.2372379941e+02   1.2603732056e+01    0.3002812    0.2519701   5.97  0.002184632    1.945    0.486
        11 -11.7193     36.2419    186.6345   1.3100808504e+02   3.2380190301e+01    0.2658716    0.2132359 -33.65    0.0012755    2.039    0.509
        12 -12.6661    162.6349    181.4552   1.0385419705e+02   1.4182940538e+01    0.3148966    0.2349009 -65.20  0.001537228    1.743    0.426
        13 -13.6172    187.4578    175.0326   9.7662892212e+01   1.0564315474e+01    0.7712929    0.4488353 -48.01  0.002735494    2.060    0.515
        14 -11.3783    186.8585    165.2914   9.5889115791e+01   1.2299170173e+01    0.3330594    0.2567481 -35.16  0.001002467    1.391    0.281
        15 -11.4560    166.9299    176.1848   1.0203181744e+02   1.4292712147e+01    0.2026587    0.1738758  59.25 0.0003243581    1.236    0.191
        16 -12.1536    194.2156    171.7347   9.5698272076e+01   9.8022258866e+00     0.317127    0.3032176 -47.80  0.001234884    1.253    0.202
        17 -13.0803    177.4363    170.4461   9.8804381010e+01   1.3266737464e+01    0.5683864    0.3103542 -63.02  0.002093029    3.729    0.732
        18 -10.6715    114.7373    229.5980   1.1998107934e+02   1.4137065316e+01    0.1332135     0.119739   6.65 0.0009486061    1.565    0.361
        19 -11.5422    240.2261    169.5600   8.6825070603e+01   1.5658976675e+00    0.1833489    0.1089695  31.00 0.0004084226    1.599    0.375
        20 -12.7748    100.7348    245.5568   1.2401912992e+02   1.3676209964e+01    0.3571374     0.249932  69.48  0.002544748    1.348    0.258
        21 -10.9253    140.1665    219.2173   1.1401203022e+02   1.1803277535e+01    0.3537942    0.1637819 -61.45  0.001658265    3.140    0.682
        22 -12.0084    139.7814    162.0308   1.0527208391e+02   2.2084830237e+01    0.2538793    0.1903855  43.06  0.000614837    1.240    0.194
        23 -10.6734    152.4746    219.6512   1.1173980845e+02   9.7111937019e+00    0.2106916    0.1609511  47.32 0.0003558699    1.102    0.092
        24 -11.1782    187.4188    154.2840   9.3524084961e+01   1.4069434894e+01    0.5164912    0.2514462  35.39  0.002092127    2.173    0.540
        25 -10.7366    191.5333    151.5266   9.2109482782e+01   1.3703357074e+01    0.3086242    0.1929695 -52.09 0.0008956933    2.003    0.501
        26 -11.5900    156.3216    217.0032   1.1064992870e+02   9.4756488997e+00    0.2230692    0.1642078  44.38  0.001333176    1.118    0.106
        27 -11.6930    161.8365    149.7056   9.7961117865e+01   2.0137734133e+01    0.2703669    0.1935254 -76.35  0.001217324    2.108    0.526
        28 -10.9204    217.6402    217.8137   9.9532628998e+01  -8.7402668055e-01     0.148054    0.1112474 -39.02 0.0009478961    1.707    0.414
        29 -11.2278    174.6367    149.1812   9.5093729207e+01   1.7604526339e+01    0.2683927    0.1964659  45.28 0.0005869538    1.296    0.229
        30 -10.2573     23.9053    217.0715   1.3525709829e+02   2.7911443589e+01    0.1230882     0.103207  88.42  0.001017826    1.319    0.242
        31 -13.5235      5.3662    112.6686   1.3151917572e+02   5.0798249276e+01    0.4584168    0.4134987  36.50  0.003577992    1.395    0.283
        32 -12.3513    102.2526    240.3957   1.2329030086e+02   1.4257631457e+01    0.2176935    0.1504736  59.96  0.001302456    1.199    0.166
        33 -12.9383    103.9105    236.8129   1.2266233080e+02   1.4582760086e+01    0.2713252     0.171357  57.20  0.001081208    1.313    0.238
        34 -13.3218      2.6719    126.6449   1.3350328288e+02   4.7911246666e+01    0.7983242    0.3050523 -84.65  0.003947767    2.318    0.569
        35 -13.5088      6.7010    120.6013   1.3195335120e+02   4.8968002371e+01    0.4608756    0.3371205  55.88   0.00174269    1.432    0.302
        36 -12.3085     12.7096    138.0089   1.3207499913e+02   4.4737178399e+01    0.1738196    0.1440232 -82.74 0.0005247453    1.109    0.098
        37 -13.5980      7.1451    138.8558   1.3344852297e+02   4.4967506333e+01    0.5613089    0.3691404 -75.40  0.002294228    1.232    0.188
        38 -11.5373      1.8888    139.9997   1.3474429730e+02   4.5091076491e+01     0.180671    0.1301822 -75.53 0.0005661097    1.180    0.153
        39 -10.7422    113.3241    206.2757   1.1759258044e+02   1.8300015934e+01    0.1872835    0.1544027  44.76 0.0007613203    1.146    0.127
        40 -12.8340    160.8883    128.3902   9.3458961710e+01   2.4456560364e+01    0.5274106    0.4036458 -76.04  0.002472299    1.772    0.436
        41 -12.0600    168.4400    113.4253   8.8122286335e+01   2.5675147372e+01    0.4238373    0.3366819 -63.34 0.0008397373    1.501    0.334
        42 -11.0616    231.2836    113.7118   7.6083945972e+01   1.1533103371e+01     0.258806    0.2283736  10.22 0.0007847957    1.118    0.106
        43 -11.0073    205.3693    110.1307   7.9766634379e+01   1.7817481215e+01    0.3303404    0.2184569  43.89 0.0009557455    1.513    0.339
        44 -12.0513    107.7899    203.3844   1.1834139896e+02   1.9684248754e+01    0.2327311    0.1713911 -68.11 0.0006318043    1.499    0.333
        45 -11.1916      1.5443    106.2443   1.3189232878e+02   5.2438863563e+01     0.275452   0.08119716 -71.51  0.001020472    2.464    0.594
        46 -12.9004    101.8834    199.7966   1.1909566986e+02   2.1252576103e+01    0.6433042    0.4358587  77.82  0.003378766    1.625    0.384
        47 -11.7966      9.2417    102.2064   1.2929658377e+02   5.2871581177e+01    0.2710069    0.2179884 -84.96 0.0009334635    1.088    0.081
        48 -12.3898     11.6080    205.9815   1.3680366370e+02   3.1109937971e+01    0.2682552    0.1750795  42.92  0.001642739    1.539    0.350
        49 -10.3941    146.5044     82.5102   8.4756996812e+01   3.6642232602e+01    0.1527281     0.149501  12.67 9.952176e-05    1.006    0.006
        50 -14.2993    155.1484     61.6478   7.6367641533e+01   3.8251064961e+01     1.277083     1.029948  40.42 0.0009326871    1.237    0.192
        51 -10.8644    163.4477    245.6153   1.1306474477e+02   4.2717281830e+00    0.2406961    0.1092047  43.54  0.001313065    1.685    0.406
        52 -13.2058    171.9580     39.7469   6.6062644401e+01   3.7255152528e+01    0.4653618    0.4272198  40.00 0.0008910536    1.089    0.082
        53 -11.0579     13.5293     59.9888   1.2114035492e+02   6.1882707370e+01    0.1784595    0.1571339  61.53  0.000419877    1.415    0.293
