#   1 NUMBER                 Running object number                                     
#   2 MAG_AUTO               Kron-like elliptical aperture magnitude                    [mag]
#   3 X_IMAGE                Object position along x                                    [pixel]
#   4 Y_IMAGE                Object position along y                                    [pixel]
#   5 X_WORLD                Barycenter position along world x axis                     [deg]
#   6 Y_WORLD                Barycenter position along world y axis                     [deg]
#   7 A_WORLD                Profile RMS along major axis (world units)                 [deg]
#   8 B_WORLD                Profile RMS along minor axis (world units)                 [deg]
#   9 THETA_WORLD            Position angle (CCW/world-x)                               [deg]
#  10 FWHM_WORLD             FWHM assuming a gaussian core                              [deg]
#  11 ELONGATION             A_IMAGE/B_IMAGE                                           
#  12 ELLIPTICITY            1 - B_IMAGE/A_IMAGE                                       
         1 -15.2782     16.6293    178.9015   1.1833940191e+02   3.4178867098e+01     6.688323      1.71756 -81.90   0.02007307    5.390    0.814
         2 -13.2865    227.7671     28.9636   3.6236029569e+01   2.5920801077e+01    0.8443065    0.7226391  47.46   0.00561462    1.471    0.320
         3 -11.4970     11.2503     16.3860   8.7337588251e+01   7.0776444098e+01    0.6623524    0.3982604 -34.31  0.004242389    1.354    0.262
         4 -12.0053     18.4795     10.7508   8.0805256142e+01   7.0921779243e+01    0.6650851      0.42449  40.94  0.003998283    2.351    0.575
         5 -13.1848     47.0282     16.6531   7.0008565822e+01   6.6459449558e+01     1.606037     1.016351  39.82  0.007920602    1.648    0.393
         6 -12.4059     32.0345      8.6999   7.2921131558e+01   6.9579890461e+01     0.921981    0.4962844  28.26  0.005364356    1.698    0.411
         7 -11.1901     74.4098      6.6845   5.5475204786e+01   6.2767338063e+01    0.8296995    0.3725708  25.17  0.003573758    2.796    0.642
         8 -12.3165    168.3893      5.1915   3.6730358757e+01   4.1797803180e+01    0.6692425    0.4445216  44.50  0.003810863    1.631    0.387
         9 -10.4183    200.6981      3.3794   3.2959109046e+01   3.4571149468e+01    0.2926216    0.1369893 -54.83  0.001459324    2.138    0.532
        10 -10.5335     91.5145      1.8471   4.8752469053e+01   5.9690539401e+01    0.5110874    0.1708566  62.05   0.00203277    2.992    0.666
        11 -11.2281    132.1046    247.3420   1.0061434569e+02   5.0711843832e+00    0.2269173    0.2001512   3.80 0.0008424324    1.235    0.190
        12 -10.7318    140.1988    249.3951   9.9242322325e+01   3.5415152662e+00    0.2494755    0.1717223  54.73   0.00144875    1.645    0.392
        13 -12.2907    100.8554    247.2611   1.0692013168e+02   9.5671341788e+00    0.5146343    0.3282411  28.96  0.002968764    1.562    0.360
        14 -10.8380      2.2157    248.8731   1.2545724911e+02   2.0808654911e+01    0.4173449    0.1491601 -74.00   0.00233161    2.541    0.607
        15 -10.6912      1.8582    238.1879   1.2504105070e+02   2.2853249571e+01    0.2278213     0.149356  72.23  0.001646379    1.167    0.143
        16 -14.2894     21.6528    201.6231   1.1906078981e+02   2.8566124272e+01     1.592397     1.211019 -72.84  0.005405564    1.255    0.203
        17 -10.2781     83.1532    228.7109   1.0855492101e+02   1.5548774062e+01    0.4071151     0.162654 -59.64  0.001851156    2.612    0.617
        18 -12.7114     64.9195    197.9713   1.0911886508e+02   2.4553900038e+01     1.256129     0.783026  59.21  0.005124424    1.638    0.389
        19 -12.6134     47.1679    183.5414   1.1163468498e+02   3.0041825026e+01    0.7342957     0.474049 -79.36  0.001978747    1.457    0.314
        20 -12.3290    118.0338    230.4182   1.0135911895e+02   1.0204004012e+01     0.491277    0.3151637  36.55  0.002697229    1.383    0.277
        21 -13.2297      3.8942    179.9108   1.2128350419e+02   3.4985021371e+01      1.67272    0.4135869 -76.77  0.006419282    3.400    0.706
        22 -11.2618     54.3146    175.2580   1.0889810635e+02   3.1183431817e+01    0.2816032    0.2447416 -33.87 0.0006819986    1.377    0.274
        23 -10.4740     66.5226    165.0666   1.0435374646e+02   3.2134650100e+01    0.2475661    0.2266351 -62.00 0.0003903619    1.083    0.077
        24 -12.7338     52.0904    161.5964   1.0765401455e+02   3.4770367906e+01    0.5399527    0.3158616 -40.39  0.001608715    2.050    0.512
        25  -8.6824    135.8180    164.5885   8.6318688597e+01   2.1114785867e+01    0.1960623    0.1404085  48.69 0.0003478817    1.485    0.326
        26 -11.7739     75.0264    157.7355   1.0091433347e+02   3.2786564241e+01    0.5532993    0.4944257 -55.46  0.002062406    1.090    0.083
        27 -11.9347     34.5340    157.9130   1.1178878231e+02   3.7556439130e+01    0.3857429    0.2656888  55.08  0.002149169    1.527    0.345
        28 -12.5573     67.9263    143.8120   1.0047419705e+02   3.7214046437e+01     0.746356    0.5030012  64.83  0.003028475    1.853    0.460
        29  -9.7440     91.1324    144.3381   9.3983019193e+01   3.3683484572e+01    0.2895123    0.2525729 -21.97  0.001000587    1.258    0.205
        30  -9.0466     94.4830    141.4522   9.2448244053e+01   3.3850222120e+01    0.1506783    0.1408131 -35.50 0.0001956884    1.070    0.066
        31 -11.5216     78.7271    142.5492   9.7148662196e+01   3.6017857733e+01    0.3260921    0.2503777 -51.13  0.000563595    1.225    0.184
        32 -11.4526     34.6085    140.3356   1.0944743905e+02   4.1892610295e+01    0.3475245    0.1978973 -42.86  0.001694533    1.868    0.465
        33 -10.8642     44.5393    145.3411   1.0737103031e+02   3.9643326405e+01    0.2618058    0.1890437  88.54  0.001393222    1.460    0.315
        34 -13.7585     13.6465    208.5415   1.2119736078e+02   2.7809812947e+01      1.28125    0.6815052  47.48  0.001545825    1.693    0.409
        35 -10.1945    105.5831    131.6467   8.7153788532e+01   3.4330711182e+01    0.4168519    0.3148096 -14.17  0.001292141    1.658    0.397
        36 -10.1288     91.6757    128.5421   9.0457093899e+01   3.7456033679e+01    0.2796853    0.2621036   8.12 0.0006011407    1.126    0.112
        37  -9.1089    103.6897    120.0727   8.4934076005e+01   3.7413976814e+01    0.2103443    0.1846592 -40.34 0.0002605362    1.086    0.079
        38 -11.1500     52.7610    116.8957   9.9929983492e+01   4.5807230542e+01    0.5488887    0.2204138 -71.96  0.001719649    3.943    0.746
        39 -11.3348     38.1588    106.7050   1.0265989976e+02   4.9857639054e+01    0.4556633     0.260278 -35.27  0.002179123    1.851    0.460
        40 -10.1360     32.2719     89.7884   1.0113116595e+02   5.4428834205e+01    0.3223973    0.2549505 -65.63   0.00190065    1.253    0.202
        41  -9.2786     52.7714     89.7794   9.3707144166e+01   5.2272051292e+01    0.1813276    0.1651616 -86.44  0.000661187    1.341    0.254
        42 -10.4391      4.1224     87.6371   1.1091041738e+02   5.6892379762e+01    0.4331562    0.2429406 -11.44  0.002341585    2.184    0.542
        43 -10.3663      9.1126     83.4795   1.0833932744e+02   5.7582785927e+01    0.2528976    0.2246573 -33.32  0.001101349    1.170    0.145
        44  -9.6275     20.4062     82.7798   1.0397461419e+02   5.7011071236e+01    0.3304564    0.1748701 -38.24  0.001679718    1.719    0.418
        45  -9.8456     20.5692     78.7045   1.0300480657e+02   5.7925365070e+01    0.3509113     0.211628 -41.89  0.001935365    1.389    0.280
        46 -10.3648      2.8874     75.2162   1.0909429597e+02   5.9786117984e+01    0.2771868   0.09396796 -46.03  0.001264427    2.209    0.547
        47 -11.1154      2.9464     61.9465   1.0626006640e+02   6.2698303417e+01    0.5873716    0.1698261 -57.05  0.002594941    2.351    0.575
        48 -12.2557    211.9319     43.2394   4.1173343989e+01   2.7535937190e+01    0.5457044    0.3576562 -50.26  0.002996399    1.417    0.294
        49  -8.4803     25.7951    250.0000   1.2144706586e+02   1.8288442315e+01    0.1309992   0.07542929 -82.13 0.0004440718    1.643    0.391
        50 -11.4702    115.4964    243.4993   1.0352427268e+02   8.1638361482e+00    0.2242077    0.1781463  70.56  0.001405961    1.425    0.298
        51  -8.5331     12.6735    244.2804   1.2344860767e+02   2.0681616377e+01    0.1148039   0.05849522  61.40  0.000259022    1.596    0.374
        52 -11.3875     11.1215    233.9264   1.2318442617e+02   2.2826911409e+01    0.4799446    0.2997637  89.02  0.002585296    1.362    0.266
        53  -8.9170     49.4819    234.4655   1.1596250466e+02   1.8663309367e+01    0.2033285    0.1006779 -89.22    0.0010175    2.320    0.569
        54 -10.0301    250.1420     15.8881   3.1689013906e+01   2.2915453437e+01    0.2167945    0.1076609 -44.53  0.001244682    1.662    0.398
        55 -12.6427    127.3979    230.5396   9.9383399225e+01   8.7673904614e+00    0.7138716    0.2749939  41.29  0.003038626    2.285    0.562
        56 -13.5104     49.1467    200.0059   1.1293154341e+02   2.6019528276e+01     1.740309    0.9334903  74.10  0.006174334    2.204    0.546
        57 -14.0969     30.5780    187.9611   1.1595851617e+02   3.0777971887e+01     2.452101    0.9256997  89.49  0.008673125    4.004    0.750
