#   1 NUMBER                 Running object number                                     
#   2 MAG_AUTO               Kron-like elliptical aperture magnitude                    [mag]
#   3 X_IMAGE                Object position along x                                    [pixel]
#   4 Y_IMAGE                Object position along y                                    [pixel]
#   5 X_WORLD                Barycenter position along world x axis                     [deg]
#   6 Y_WORLD                Barycenter position along world y axis                     [deg]
#   7 A_WORLD                Profile RMS along major axis (world units)                 [deg]
#   8 B_WORLD                Profile RMS along minor axis (world units)                 [deg]
#   9 THETA_WORLD            Position angle (CCW/world-x)                               [deg]
#  10 FWHM_WORLD             FWHM assuming a gaussian core                              [deg]
#  11 ELONGATION             A_IMAGE/B_IMAGE                                           
#  12 ELLIPTICITY            1 - B_IMAGE/A_IMAGE                                       
         1 -12.2530    190.5814     31.5595   6.0549175080e+01   3.3473334611e+01    0.8831795    0.8482013  29.26   0.00370729    1.108    0.097
         2 -12.2402    200.0323     19.3819   5.5743909381e+01   3.2456659988e+01    0.8361217    0.6885093  10.45  0.002331049    1.461    0.316
         3  -9.4585     58.8255      3.1693   8.1059765824e+01   6.7086780585e+01    0.1845934    0.1273041  11.58  0.001097763    1.367    0.269
         4  -9.7684     41.4754      2.9746   8.8347289656e+01   6.9708465331e+01    0.1810926    0.1005563 -30.93 0.0008048703    1.594    0.373
         5 -10.7698    124.7550    229.2589   1.1810328992e+02   1.2662922816e+01    0.3105156    0.2103029 -51.68  0.001989781    1.859    0.462
         6 -12.3952    143.3938    245.6888   1.1659029715e+02   7.3606912698e+00     1.014899    0.4228846  30.88   0.00448959    3.150    0.683
         7 -12.8312    123.7518    248.4937   1.2031356545e+02   9.9206676605e+00     1.034996    0.5848192  37.60  0.006429208    1.541    0.351
         8 -19.1556      5.8391    130.9112   1.3309796755e+02   4.6775405562e+01     16.65213     1.677246 -75.88   0.03977248    9.689    0.897
         9  -8.9986     97.2513    239.0934   1.2405048047e+02   1.5169777762e+01    0.1788136    0.1039852  72.73  0.001069456    1.934    0.483
        10  -8.7347     70.6071    228.2617   1.2784149950e+02   2.0555428149e+01    0.1297084   0.09667641 -70.97 0.0005021769    1.521    0.342
        11 -10.5738     86.0335    222.7500   1.2457936895e+02   1.9438804465e+01    0.3307521    0.1701165  88.02  0.001689705    2.718    0.632
        12 -11.4137     95.7918    225.9017   1.2308337442e+02   1.7528470034e+01    0.4174429    0.2719353  55.26  0.002000513    1.234    0.190
        13  -8.9882    115.3949    211.4104   1.1780728070e+02   1.7072409959e+01    0.2570342     0.119269 -65.19  0.001174766    2.750    0.636
        14 -10.9111     77.0228    207.6826   1.2485875826e+02   2.3366194134e+01     0.347607    0.2363068  70.66  0.002238777    1.328    0.247
        15 -10.5409    196.8717    197.5016   9.9908160473e+01   5.3599434236e+00    0.5093566    0.2860777  40.77  0.002650795    1.533    0.348
        16  -9.5267     59.5282    186.9940   1.2634263858e+02   2.9630211761e+01    0.1711528      0.10455 -75.19 0.0004380887    1.559    0.358
        17 -11.7274    102.4120    227.8074   1.2205632537e+02   1.6255210631e+01    0.4442388     0.251681  53.27  0.002678462    1.447    0.309
        18  -8.6512    208.4722    185.5083   9.5593598895e+01   5.0233158269e+00    0.1334586    0.1126367  20.71 0.0008099013    1.019    0.019
        19 -10.6597     76.2914    181.9965   1.2231019796e+02   2.8446974938e+01     0.336006    0.2415152 -44.98  0.001986253    1.854    0.461
        20 -10.3345     80.0958    176.4932   1.2083594006e+02   2.9041421768e+01    0.3311028    0.2438935 -43.33 0.0006800022    1.793    0.442
        21  -8.6790    197.5114    175.0202   9.5692609955e+01   8.6483056650e+00    0.1936862     0.133533 -36.21 0.0005394049    1.572    0.364
        22  -8.3833    114.6833    173.6520   1.1282502838e+02   2.4257356822e+01     0.128265    0.1065844  -9.42 0.0007047979    1.727    0.421
        23 -10.1650     45.1954    172.1732   1.2792004891e+02   3.4352705967e+01    0.2017066    0.1146239  68.12 0.0006927541    1.697    0.411
        24 -12.7600     68.5497    144.5825   1.1923900625e+02   3.7488858768e+01      1.09436    0.6430777  76.21  0.004246938    2.144    0.534
        25 -10.6514     87.8500    166.3707   1.1777735141e+02   3.0027278361e+01    0.3921357    0.2501884  56.33  0.000380117    1.506    0.336
        26 -12.0841     76.6169    161.9350   1.1974372051e+02   3.2591670081e+01    0.5696368    0.5071177 -74.35  0.001253975    1.154    0.134
        27 -10.5880     93.7483    158.8438   1.1531004485e+02   3.0728476020e+01    0.4990665    0.3510638 -33.62  0.001731451    2.028    0.507
        28 -12.1713     49.0168    151.6752   1.2489584521e+02   3.8310765492e+01    0.7946388    0.1953724 -57.31  0.003012942    3.585    0.721
        29  -9.5441    105.9602    142.4391   1.0959243393e+02   3.2284180212e+01    0.5178992    0.2909648 -28.25  0.001863444    3.715    0.731
        30 -10.1416     94.1272    143.0726   1.1263915641e+02   3.4097279136e+01    0.2597766    0.2431412 -51.55  0.000412239    1.179    0.152
        31 -11.8516     44.9940    134.1756   1.2370999293e+02   4.2643893834e+01    0.6159606    0.2093006 -75.24  0.002303493    3.416    0.707
        32 -12.9147     43.6703    130.2949   1.2353353758e+02   4.3658980647e+01    0.7482859    0.4487041 -81.27  0.004110314    1.581    0.368
        33 -11.3767     41.4970    126.5056   1.2358753224e+02   4.4740950340e+01    0.2920803    0.2616183  63.74   0.00200634    1.181    0.153
        34  -8.7572     82.4600    137.4816   1.1461604672e+02   3.7131108033e+01    0.1337718    0.1221588 -87.28 4.408667e-05    1.012    0.012
        35 -12.4216     58.7410    132.4715   1.1992908182e+02   4.1459012070e+01     1.005536    0.3888251 -75.43  0.003667078    3.479    0.713
        36 -10.8576     36.7777    124.9837   1.2462778717e+02   4.5554610417e+01    0.2889367    0.2325534  65.42  0.001320615    1.249    0.200
        37  -9.5439    114.1635    131.8687   1.0546999406e+02   3.3140004413e+01    0.3063442      0.21725 -52.35  0.001260191    1.414    0.293
        38  -8.6686    105.7308    130.5807   1.0735378063e+02   3.4924350840e+01    0.2509732    0.1775006 -81.84  0.001201716    1.752    0.429
        39  -9.2597    101.4870    128.5711   1.0804421840e+02   3.6099726399e+01    0.2657099    0.2320392 -28.35 0.0005228262    1.341    0.254
        40 -12.2521    114.8881    230.4575   1.2004442004e+02   1.3976882289e+01    0.5841056    0.5156357  36.28  0.004312783    1.296    0.229
        41  -8.2798    168.0267    112.7870   8.8051960442e+01   2.5890547781e+01    0.2209244    0.1673499 -61.22 0.0004540045    1.588    0.370
        42  -7.9929    109.5477    120.4724   1.0421995392e+02   3.6474123287e+01    0.1414041    0.1383762 -60.12 0.0001161544    1.049    0.046
        43  -9.9170     69.4842    134.6522   1.1748260268e+02   3.9593981225e+01    0.2419087    0.1702832  33.66  0.001341006    1.583    0.368
        44  -8.0311     73.6576    102.2974   1.1023862999e+02   4.6383595325e+01    0.1379943    0.1026715  76.28 0.0003791908    1.667    0.400
        45  -9.6730    100.7268    232.0569   1.2277849706e+02   1.5803243796e+01    0.1981745    0.1323248 -68.59 0.0004697368    1.739    0.425
        46 -11.3185    181.1069     39.0172   6.4268089803e+01   3.4979337101e+01    0.5408959     0.381495  41.87  0.001468747    1.482    0.325
        47 -10.4056    133.9989    247.2610   1.1840528649e+02   8.5681457591e+00    0.2429241    0.1907655  34.93  0.001398114    1.255    0.203
        48  -9.5836     86.6275    239.2780   1.2592335030e+02   1.6607999915e+01    0.2153261    0.1526046  78.18 0.0008318338    1.362    0.266
        49 -11.9748     99.5086    248.1063   1.2445169278e+02   1.3460666672e+01      1.16992    0.3283223  43.95  0.003788152    2.571    0.611
        50 -10.9075    127.5964    231.1820   1.1779775444e+02   1.1923701479e+01    0.3518237    0.1937396 -57.41  0.002049315    2.252    0.556
