#   1 NUMBER                 Running object number                                     
#   2 MAG_AUTO               Kron-like elliptical aperture magnitude                    [mag]
#   3 X_IMAGE                Object position along x                                    [pixel]
#   4 Y_IMAGE                Object position along y                                    [pixel]
#   5 X_WORLD                Barycenter position along world x axis                     [deg]
#   6 Y_WORLD                Barycenter position along world y axis                     [deg]
#   7 A_WORLD                Profile RMS along major axis (world units)                 [deg]
#   8 B_WORLD                Profile RMS along minor axis (world units)                 [deg]
#   9 THETA_WORLD            Position angle (CCW/world-x)                               [deg]
#  10 FWHM_WORLD             FWHM assuming a gaussian core                              [deg]
#  11 ELONGATION             A_IMAGE/B_IMAGE                                           
#  12 ELLIPTICITY            1 - B_IMAGE/A_IMAGE                                       
         1  -9.3195    187.8625     26.6175   6.2979659659e+01   3.4509963770e+01     0.768816    0.3497088 -82.13  0.002490831    5.171    0.807
         2  -9.6074    196.7142     19.8135   6.0376024159e+01   3.3275008608e+01    0.5236764    0.2411064 -69.62  0.002150497    3.356    0.702
         3 -11.5547    245.4057      5.6669   5.3139259469e+01   2.4611405920e+01    0.6686266    0.5696721  65.39  0.005154215    1.442    0.306
         4  -7.5747     21.5221      8.5189   9.7703757203e+01   6.8343413978e+01    0.1102566   0.08020153   0.57 1.880783e-05    1.028    0.027
         5  -8.4942    208.5890      2.6257   5.5538006485e+01   3.2422337867e+01    0.2313593    0.0600379  58.89 0.0009593774    3.273    0.695
         6  -7.2648    146.1837      1.8478   6.2443756995e+01   4.6195906182e+01    0.1661741    0.1161588  48.51 0.0004709065    1.304    0.233
         7  -8.3107    219.4079    246.7737   1.0529734111e+02  -8.6208737788e+00    0.2094146    0.1140609 -39.90 0.0006293715    1.981    0.495
         8  -7.6626    249.7759    250.4016   1.0036016562e+02  -1.3254922050e+01    0.1632386   0.09279101  19.40 0.0009425365    1.630    0.387
         9  -7.8216    186.6038    250.2129   1.1221991102e+02  -4.2038610613e+00    0.1667539    0.1137044 -25.39 0.0005143199    1.603    0.376
        10  -8.1163     51.9875    250.4831   1.3881453422e+02   1.6038319480e+01    0.1754326   0.06948704  55.79 0.0008099168    2.505    0.601
        11  -8.8099     27.7041    250.1463   1.4312660430e+02   1.8981647412e+01     0.189304    0.1476177  48.73 0.0006402982    1.313    0.239
        12  -9.0629     12.6248    249.6951   1.4566904195e+02   2.0681819021e+01    0.2044218    0.1422912 -59.45   0.00124042    1.739    0.425
        13  -8.7310    235.8091    245.5906   1.0204395398e+02  -1.0757897818e+01    0.1957859    0.1060686  42.19 0.0007749648    2.166    0.538
        14  -7.3500     58.3123    246.6824   1.3729464758e+02   1.5972124461e+01      0.12602   0.07553433  67.64 0.0007035399    1.644    0.392
        15  -7.8564    211.0155    245.3116   1.0664738673e+02  -7.1739259064e+00     0.177608    0.1401211  17.42 0.0005334505    1.082    0.076
        16  -8.4037     46.3412    244.8077   1.3935795545e+02   1.7846313179e+01    0.1608894    0.0939559 -62.82 0.0009403224    1.756    0.431
        17  -9.3200    225.3799    242.2293   1.0339172001e+02  -8.8167421107e+00    0.3096783    0.2215937  -8.27 0.0008868391    1.299    0.230
        18  -9.4179     38.0093    241.5059   1.4061169868e+02   1.9497262650e+01     0.241604    0.1937904 -88.66  0.001031577    1.126    0.112
        19 -10.1287      3.7036    240.6797   1.4660073008e+02   2.3307624951e+01    0.4195395    0.2054949  77.47  0.001790098    1.877    0.467
        20  -8.7181     63.1725    241.7213   1.3588759851e+02   1.6317509138e+01    0.2766368    0.1713364  54.33 0.0007652116    1.442    0.306
        21  -9.0458     29.1241    241.8644   1.4225421655e+02   2.0440581850e+01    0.2630261    0.1533236  21.54  0.001439451    2.746    0.636
        22  -9.1598    249.5144    240.1370   9.8623078749e+01  -1.1834176589e+01    0.3235065    0.1658392 -11.61  0.001551736    2.481    0.597
        23  -7.5776    201.4803    240.5423   1.0768600537e+02  -4.9927454825e+00     0.131913    0.1073518   8.18 2.155564e-05    1.078    0.072
        24  -7.7755     53.9515    239.2653   1.3742123283e+02   1.8004265031e+01    0.1669651    0.1367346  66.14 0.0004714834    1.050    0.048
        25  -8.6258     18.6575    239.1795   1.4391811492e+02   2.2104132825e+01    0.1629624    0.1134726  70.22  0.001056753    1.177    0.151
        26  -8.2452    243.0420    237.5198   9.9317214129e+01  -1.0603559578e+01    0.1813167    0.1077383  30.64  0.001038148    1.610    0.379
        27  -7.9053     45.3597    236.4949   1.3880215907e+02   1.9630089803e+01    0.1961095    0.1010323 -71.15 0.0008484537    1.844    0.458
        28  -8.5433    233.6281    235.5405   1.0068182374e+02  -9.0108906530e+00    0.2192422     0.173163 -21.79 0.0006898345    1.202    0.168
        29  -7.9507      7.0169    235.0060   1.4566938250e+02   2.4106085630e+01    0.1701462    0.1254749  78.97 0.0005458527    1.041    0.040
        30 -10.2049     50.1224    227.5428   1.3702596826e+02   2.0893030357e+01    0.6064146    0.3035043  60.49  0.003040371    2.100    0.524
        31  -7.1928     96.3058    227.6876   1.2754472768e+02   1.4450018936e+01    0.1352232   0.09322684  69.17 0.0004943959    1.618    0.382
        32  -7.7127     11.5340    226.0060   1.4423873667e+02   2.5485527390e+01    0.1651611   0.09189458 -80.44 0.0004289564    1.520    0.342
        33  -8.5167    248.9479    224.8679   9.5983664619e+01  -9.5763400408e+00    0.3839631    0.1392205  26.88  0.001501596    3.570    0.720
        34  -8.3358    238.2708    227.0146   9.8294828297e+01  -8.4015799088e+00    0.3100892    0.1555797  24.63  0.000892147    2.104    0.525
        35  -7.1122    134.5138    220.5194   1.1825569363e+02   9.7193460670e+00    0.1369235    0.1274163  40.08 0.0001396408    1.004    0.004
        36  -7.4930     63.9269    220.3114   1.3344563687e+02   2.0652519075e+01     0.169034    0.1461438  57.70 0.0003752287    1.114    0.103
        37  -9.6377     14.9274    218.0023   1.4299818225e+02   2.6815764925e+01    0.3899071    0.2048986  76.36  0.001639385    1.901    0.474
        38  -8.3977      1.9327    219.2960   1.4550412720e+02   2.7768399804e+01    0.1926968    0.1287594 -76.67    0.0003537    1.266    0.210
        39  -8.0246    241.9088    218.6072   9.6087508173e+01  -7.6435344025e+00    0.2125748    0.1504074  34.43  0.001262811    1.506    0.336
        40  -7.3934    216.9993    219.4948   1.0090398824e+02  -4.0256995443e+00    0.1574973    0.1151096  59.42 0.0004918902    2.206    0.547
        41  -7.8112    228.9296    217.4656   9.8258931887e+01  -5.5427422953e+00    0.1863449    0.1194867  33.76 0.0005178484    1.553    0.356
        42  -7.3326     77.0090    216.9434   1.3026982792e+02   1.9575541026e+01    0.1551983    0.1385814  82.30 0.0004731133    1.027    0.026
        43  -7.7770     46.0531    212.2487   1.3627702525e+02   2.4664860832e+01    0.1705829    0.1410773  67.50 0.0004527854    1.109    0.098
        44  -7.6712    233.7968    210.9775   9.6133163639e+01  -5.2396502312e+00    0.1713478   0.09358234 -35.82 0.0006225479    1.703    0.413
        45  -7.4867    112.5416    210.9826   1.2160009974e+02   1.5388652623e+01    0.1975263    0.1354008 -57.59 0.0004562377    1.517    0.341
        46  -8.4528     99.1968    209.7926   1.2441002937e+02   1.7799273227e+01     0.269835    0.2090924  70.34 0.0008493424    1.383    0.277
        47  -9.3921     27.0475    209.1457   1.3986275993e+02   2.7479643188e+01    0.2836303    0.2214629 -31.37  0.001063146    1.879    0.468
        48  -7.5595     76.0200    199.0219   1.2809560128e+02   2.3690883633e+01    0.1600364    0.1471857  77.47 0.0003851355    1.027    0.026
        49  -7.9049     69.6830    199.7058   1.2962971089e+02   2.4424182778e+01    0.1265903    0.1024653 -29.72 0.0007012117    1.604    0.377
        50  -8.2985     52.9893    198.1977   1.3317817876e+02   2.6951027934e+01    0.2177698      0.16843 -79.03 0.0004449531    1.174    0.148
        51  -8.3324    193.3408    196.8399   1.0129087275e+02   3.9475288123e+00      0.28261    0.1270957 -49.96  0.001088168    2.621    0.618
        52  -7.6455     21.0547    195.8428   1.3982450548e+02   3.1016799864e+01    0.2015109    0.1055633  59.65  0.001053171    2.024    0.506
        53  -8.0793     56.9450    193.5123   1.3169760238e+02   2.7523320127e+01    0.1995132    0.1620854 -76.54 0.0005041357    1.117    0.105
        54  -7.6458     17.2869    191.9250   1.4023632107e+02   3.2250579411e+01    0.2008736   0.07898408  87.22 0.0007022786    4.202    0.762
        55  -8.0459     49.7989    188.2344   1.3264815062e+02   2.9621191026e+01    0.1910587    0.1131407  16.30 0.0008981241    2.532    0.605
        56  -7.6898     23.1680    179.4059   1.3765227633e+02   3.4526219818e+01    0.1583983    0.1046933  50.06 0.0004593661    1.597    0.374
        57  -7.6554      6.4810    170.0065   1.4040363493e+02   3.8120474796e+01    0.1865792   0.09613633 -71.38 0.0005762922    1.552    0.356
        58  -8.2866    243.7356    168.9081   8.6057970212e+01   2.6584003448e-01     0.204134    0.1843122   9.56 0.0005565882    1.158    0.137
        59  -7.6589    244.6938    163.9367   8.4883902999e+01   9.6775416274e-01    0.1892155    0.1488077 -34.37 0.0004827432    1.114    0.102
        60  -7.2986    165.9552    160.9850   9.9721716227e+01   1.6380864651e+01    0.1776451    0.1712526   1.13 0.0009609141    1.017    0.017
        61  -7.3888    245.1010    158.6578   8.3736293984e+01   1.8163865156e+00    0.1734807    0.1201317  28.06 0.0004685728    1.685    0.406
        62  -9.2026    212.4634    157.1214   8.9202185676e+01   7.9702533774e+00     0.235318    0.2295995  -9.43   0.00033145    1.093    0.085
        63  -8.2798    101.4299    156.8425   1.1462172050e+02   2.9569537000e+01    0.2731306    0.2244834  73.67 0.0006250695    1.437    0.304
        64  -9.2023      9.7764    152.0069   1.3761647138e+02   4.1972697868e+01    0.3387088    0.1985166  77.05    0.0017632    2.055    0.513
        65  -7.4712    113.4704    152.5334   1.1059795934e+02   2.8459841615e+01    0.1485633    0.1451146 -56.70 0.0008088235    1.028    0.027
        66  -8.0911     54.7236    149.6878   1.2566120412e+02   3.8108714357e+01    0.2316108    0.1736327 -63.63 0.0004665126    1.207    0.172
        67  -8.2726     85.2727    147.0885   1.1691803026e+02   3.4493415626e+01    0.2558452     0.211546 -80.18 0.0007486714    1.356    0.262
        68  -8.0159     24.9679    147.6947   1.3320799455e+02   4.1713349080e+01    0.1715508    0.1534088 -68.65 0.0005276991    1.071    0.067
        69  -8.3945     34.2738    145.4019   1.3041920527e+02   4.1373138045e+01     0.231342    0.1993332 -83.15 0.0006407315    1.152    0.132
        70  -7.2651     47.3137    140.6515   1.2609272303e+02   4.1111761623e+01    0.1363106   0.09970289  78.60 0.0007046734    1.721    0.419
        71  -8.1670     19.8683    139.6294   1.3337999081e+02   4.4024746802e+01    0.2321596    0.1379854 -56.32 0.0008719117    1.378    0.274
        72  -7.1636    115.0294    138.3093   1.0701401262e+02   3.1429896467e+01    0.2437278    0.1252634  18.44 0.0007043941    4.247    0.765
        73  -7.0505     95.3021    138.7048   1.1240483421e+02   3.4834190429e+01    0.1440271     0.116723  80.86            0    1.576    0.365
        74  -7.5568    131.4678    137.4333   1.0256403318e+02   2.8455418839e+01    0.1502623     0.148708 -62.40 -3.101901e-05    1.058    0.055
        75  -8.3138     75.6396    134.1128   1.1687431293e+02   3.8985673981e+01     0.224197    0.1917361  48.20 0.0002764773    1.297    0.229
        76  -8.4825     31.4677    130.6893   1.2877725536e+02   4.5070467019e+01    0.2554893    0.1898575  75.59 0.0007991572    1.686    0.407
        77  -8.8926      5.7341    124.1491   1.3494914420e+02   4.8599843528e+01    0.1967285    0.1722533 -23.04 0.0006529889    1.307    0.235
        78  -7.3608    125.5286    118.5109   9.9432717713e+01   3.3743992717e+01    0.1495648    0.1470778 -56.04  0.000133074    1.081    0.075
        79  -8.8790     36.8390    115.1428   1.2431029476e+02   4.8101377435e+01    0.3191472    0.2368008  37.70  0.001080696    1.584    0.369
        80  -7.8563     64.4610    115.1544   1.1592788400e+02   4.4880156786e+01    0.2490358    0.1763046  71.22  0.001169348    2.256    0.557
        81  -8.3535     51.3248    113.2646   1.1949477613e+02   4.6955708892e+01    0.2633182     0.209889  41.19 0.0009134971    1.463    0.316
        82  -9.0260      9.1283    109.9278   1.3171297026e+02   5.1542410596e+01     0.292987    0.2126075 -86.58  0.001076969    1.599    0.374
        83  -7.6042     86.5143    105.9464   1.0703195168e+02   4.3591747452e+01    0.2103637    0.1356212 -48.06 0.0004783793    1.502    0.334
        84  -7.5667     72.5282    105.5295   1.1114166168e+02   4.5854609658e+01    0.1400309    0.1273452 -29.84 4.150031e-06    1.024    0.024
        85  -7.9649     12.9006     97.1529   1.2819036430e+02   5.4058482818e+01    0.1724113    0.1555905 -73.90 0.0007165656    1.276    0.216
        86  -7.7935     57.1995     95.3441   1.1335835151e+02   5.0107639993e+01    0.1800523    0.1200077  38.80 0.0005324004    1.718    0.418
        87  -8.6619    173.0115     92.2527   8.1651260745e+01   2.8531673089e+01    0.2232799    0.2020607 -34.86 0.0002905317    1.122    0.109
        88  -8.8309     30.1136     92.1027   1.2146417520e+02   5.3748110105e+01    0.2296885    0.1576039 -57.15  0.001056774    1.371    0.271
        89  -8.2362      1.8614     93.0049   1.3094220465e+02   5.5632340577e+01    0.1838038    0.1418322 -51.87  0.000685219    1.035    0.034
        90  -8.7897    149.1983     86.5432   8.5168965398e+01   3.4897227104e+01    0.2898333    0.1731642 -59.13 0.0007582577    2.335    0.572
        91  -8.9135    228.7476     83.9553   7.0396347997e+01   1.7717687033e+01     0.206724    0.1850969  66.99 0.0005082611    1.187    0.157
        92  -8.2895    233.5125     79.5496   6.8812291443e+01   1.7432269815e+01    0.1306364    0.1151372 -64.72 0.0001353334    1.011    0.011
        93  -7.3073     57.4797     77.4829   1.0837689189e+02   5.3618752221e+01     0.132751    0.1140666 -18.78 0.0001191856    1.017    0.016
        94  -7.7854     35.9917     68.4966   1.1327561787e+02   5.7843764033e+01    0.1616687    0.1000197  48.55 0.0008106546    2.637    0.621
        95  -7.6009     89.6453     64.2988   9.4030911175e+01   5.0876894924e+01    0.1268192    0.1111374  83.80  0.000703614    1.699    0.411
        96  -7.9098    185.5102     60.4860   7.1431182636e+01   3.0751349472e+01    0.1338689    0.1263635  70.97 9.073519e-05    1.053    0.050
        97  -7.4356      2.3114     60.6568   1.2369130768e+02   6.2042867145e+01   0.09890839   0.08815955  87.65 0.0007045948    1.702    0.412
        98  -8.8352    155.0563     56.7208   7.5813060017e+01   3.8267260034e+01    0.3857788    0.2124095  80.28  0.001437377    3.240    0.691
        99  -8.5617    128.6175     52.4647   8.0128992479e+01   4.4782139450e+01    0.2295432    0.2055362  43.66   0.00028219    1.040    0.038
       100  -8.5890    174.0058     52.4850   7.1308603345e+01   3.4499496860e+01    0.2149483    0.1245131  60.45 0.0007183062    1.611    0.379
       101  -7.8070    133.4729     46.0776   7.7174676912e+01   4.4557171321e+01    0.1909547    0.1337931 -27.99   0.00102071    1.559    0.359
       102  -8.7475    206.2767     41.1895   6.3978388822e+01   2.8682597390e+01     0.219163    0.2032867  78.79 0.0005079914    1.126    0.112
       103  -8.9897    224.1126     35.5484   6.0728902528e+01   2.5540894904e+01    0.2264732    0.1953823 -49.51 0.0006404347    1.224    0.183
       104  -7.0336    111.6996     36.6691   7.9204782251e+01   5.0393415545e+01    0.1363948   0.09019386  23.31 0.0002297855    1.647    0.393
       105  -7.5503     76.2927     36.6434   8.8833684496e+01   5.7195848211e+01    0.1120283     0.101935 -65.43 0.0007030074    1.690    0.408
       106  -7.9934     13.3356     35.7093   1.1177197060e+02   6.5526358210e+01   0.09261091   0.08815772  16.05 0.0006913894    1.637    0.389
       107  -8.6361    214.8961     33.4120   6.1282023260e+01   2.7764657077e+01    0.2435479    0.1848447  69.11 0.0006054593    1.242    0.195
       108  -7.7617    153.5227    249.5048   1.1873656058e+02   1.1690511306e+00    0.1293668    0.1125454  31.55 2.331519e-06    1.004    0.004
       109  -8.0047    172.5870     26.7516   6.5061236316e+01   3.7948709378e+01    0.2896736    0.1639426 -77.67  0.001182352    2.541    0.606
       110  -9.7755    229.8162     20.3530   5.7132106477e+01   2.6140839617e+01    0.3477581    0.2149689 -74.25  0.001736499    1.545    0.353
       111  -7.4808     66.0074    249.0379   1.3606774054e+02   1.4501802601e+01    0.1436708    0.1202534  74.87 0.0005575169    1.048    0.045
       112 -10.0943     34.6792    247.7508   1.4171824650e+02   1.8654393723e+01    0.3082488    0.2087435  42.81  0.001304466    1.464    0.317
       113  -9.5184     21.3928    248.3978   1.4409371196e+02   2.0009573211e+01     0.255722    0.2030695  40.01 0.0006635141    1.481    0.325
       114  -8.6902    240.1823    246.9812   1.0148856028e+02  -1.1542061036e+01    0.2947452    0.1519321  -0.56  0.001319301    2.910    0.656
