#   1 NUMBER                 Running object number                                     
#   2 MAG_AUTO               Kron-like elliptical aperture magnitude                    [mag]
#   3 X_IMAGE                Object position along x                                    [pixel]
#   4 Y_IMAGE                Object position along y                                    [pixel]
#   5 X_WORLD                Barycenter position along world x axis                     [deg]
#   6 Y_WORLD                Barycenter position along world y axis                     [deg]
#   7 A_WORLD                Profile RMS along major axis (world units)                 [deg]
#   8 B_WORLD                Profile RMS along minor axis (world units)                 [deg]
#   9 THETA_WORLD            Position angle (CCW/world-x)                               [deg]
#  10 FWHM_WORLD             FWHM assuming a gaussian core                              [deg]
#  11 ELONGATION             A_IMAGE/B_IMAGE                                           
#  12 ELLIPTICITY            1 - B_IMAGE/A_IMAGE                                       
         1 -11.8829     17.9589     23.8259   1.0757064678e+02   6.9077773567e+01    0.3352835    0.2589223 -55.03  0.001399753    1.385    0.278
         2 -11.7893      7.3151     18.0801   1.1076601949e+02   7.0882333453e+01    0.2512929    0.1683811 -41.41 0.0003128588    1.115    0.103
         3 -11.7758    190.3763     20.3179   5.6043733713e+01   3.4919908614e+01    0.3153054    0.2542805  23.20 0.0002760343    1.460    0.315
         4 -10.9159     43.0748     16.8206   9.2654250805e+01   6.7652742488e+01    0.4014047    0.3058358  37.33   0.00257892    1.598    0.374
         5 -10.7304    131.8043     16.8423   6.4521679545e+01   5.0289892652e+01    0.4833548    0.1707291  40.67  0.001626963    3.228    0.690
         6 -11.4487    219.5106     14.9282   5.1234888127e+01   2.8182411115e+01    0.2368678    0.1731572  -5.32 0.0004920628    1.726    0.421
         7 -10.7739    115.7794     15.8146   6.7678801517e+01   5.4239244945e+01    0.3669045    0.2072426  27.48  0.001277657    2.039    0.510
         8 -11.6829     80.2640     14.9256   7.7287216277e+01   6.1917601896e+01    0.2939875    0.2577117  -4.42 0.0009019624    1.084    0.078
         9 -11.9803     25.3917     13.0226   9.9299202967e+01   7.0282299251e+01    0.3185107    0.2588428  17.46 0.0008012066    1.385    0.278
        10 -11.8407    208.6226     14.0758   5.2126027826e+01   3.0963579555e+01     0.381534    0.2099898  47.84  0.001760094    2.003    0.501
        11 -12.6204    209.9973      6.0441   4.9822668884e+01   3.1443567372e+01    0.6169086    0.2900268 -54.93  0.001046593    2.276    0.561
        12 -10.1511     62.2112     12.4697   8.2567943384e+01   6.5450849081e+01    0.1733268    0.1558138 -19.63 0.0002477669    1.257    0.205
        13 -11.0020     74.8304      8.7261   7.6186932961e+01   6.3686975765e+01     0.267115    0.2238942  34.78  0.001686898    1.199    0.166
        14  -9.9263     66.5477     11.9698   8.0687651928e+01   6.4783166117e+01     0.193041    0.1135414 -25.56  0.001026638    1.588    0.370
        15 -11.7229    176.8861      7.1407   5.3812919499e+01   3.9761762338e+01    0.2611581    0.2038981  42.71 0.0007618623    1.329    0.248
        16 -11.6858     45.4821      7.9733   8.7240671423e+01   6.8613629526e+01    0.3538935    0.3134735  31.31  0.001833469    1.437    0.304
        17 -11.6756     51.5863      6.1703   8.3680054315e+01   6.7954645540e+01    0.3621556    0.2256877  -8.44  0.001136851    1.594    0.373
        18 -10.3356     13.9807      4.6470   1.0133644109e+02   7.2682322705e+01    0.1847844    0.1378491 -47.26 0.0005019951    1.510    0.338
        19 -10.2456     13.9813     10.1688   1.0394385008e+02   7.1784173477e+01    0.2179673    0.1046696 -35.83  0.001249109    1.651    0.394
        20 -10.6336     18.3317      7.4155   1.0031134480e+02   7.1858188704e+01    0.3038349    0.1628447   5.47  0.001705214    2.245    0.554
        21 -10.6075      5.7827      9.7004   1.0823033789e+02   7.2465428683e+01     0.380518    0.3098765 -12.17  0.001853828    1.224    0.183
        22 -11.6694    185.3252      8.4504   5.3164271568e+01   3.7458861444e+01    0.3755678    0.1578049  67.90  0.001416225    2.157    0.536
        23 -12.0721    190.9874      5.5807   5.1666824897e+01   3.6282995219e+01    0.2965407    0.2802372 -27.71 0.0003250976    1.159    0.137
        24 -11.2907    194.6502      3.6955   5.0728941771e+01   3.5527706839e+01    0.2121745    0.1805018  58.32 0.0007804665    1.177    0.150
        25 -10.7838    106.3474      8.7304   6.7032932640e+01   5.7148622985e+01    0.3618766    0.1575844  45.68  0.001560543    2.046    0.511
        26  -9.7515    128.2849      8.3453   6.1999400629e+01   5.2017444785e+01    0.1472333   0.09416007  29.48 0.0005362906    1.646    0.392
        27 -10.4184     87.0552      7.3161   7.1640211080e+01   6.1448682738e+01     0.232445      0.14871 -32.58 0.0006348797    1.662    0.398
        28 -11.5048     24.7363      6.8949   9.6675032182e+01   7.1313475988e+01    0.2245505     0.154268 -36.83 0.0004856633    1.315    0.240
        29  -9.8368     62.1625      6.7421   7.9750499287e+01   6.6179306003e+01    0.1872373    0.1367422 -63.31 0.0008358475    2.796    0.642
        30 -10.7053     39.6691      5.3310   8.8510051114e+01   6.9768379868e+01    0.2955739    0.2767287  64.95  0.001767233    1.826    0.452
        31 -10.6332     38.0060      2.3323   8.7691521081e+01   7.0390250669e+01    0.2449441    0.1511317  19.69 0.0002449431    1.605    0.377
        32 -10.6466    111.9665      4.7284   6.4015720050e+01   5.6247039552e+01    0.1892608    0.1561197  45.60 0.0003593627    1.096    0.088
        33 -11.9620    160.7247      3.1514   5.4699853749e+01   4.4299849401e+01    0.5083663    0.2838046  76.95  0.002040006    1.803    0.445
        34 -11.0049    217.8372      2.0885   4.8067896411e+01   2.9902386829e+01    0.2623426    0.1940667 -56.51  0.001506627    1.267    0.211
        35 -11.1917     73.9695      2.1174   7.3239811078e+01   6.4569647493e+01    0.2793722     0.223324  29.44   0.00176232    1.122    0.109
        36 -11.7150    180.8292      2.6081   5.1951220457e+01   3.9164390771e+01    0.4026301    0.2141956  57.20  0.001883309    1.718    0.418
        37 -10.5226     50.4148      2.0186   8.1987326712e+01   6.8647241763e+01    0.2115526    0.1403404  19.61 0.0002999686    1.413    0.292
        38  -9.9041      9.8843      1.3172   1.0199984610e+02   7.3546840806e+01    0.1786694   0.08728755  32.03  0.001028645    2.511    0.602
        39 -11.6528    219.5335    231.2131   1.0046065525e+02  -3.0697313901e+00    0.2262272    0.2077442   5.99 0.0006645875    1.321    0.243
        40  -9.5969    207.6839    250.3024   1.0526771999e+02  -3.4503791305e+00    0.1466395    0.1067767 -42.94 0.0008291117    1.943    0.485
        41 -10.3545    210.3306    246.7268   1.0432234628e+02  -3.4464420071e+00     0.199974    0.1345065  33.50 0.0005870888    1.144    0.126
        42 -10.7919    206.4938    245.9988   1.0487132006e+02  -2.7926098987e+00    0.2172616    0.1642849  11.15  0.001551067    1.263    0.208
        43 -11.4584    129.0512    248.7556   1.1870428848e+02   8.6372020901e+00    0.2649559    0.2028191 -13.35  0.001735232    2.226    0.551
        44 -12.2934    121.6148    241.3270   1.1924505846e+02   1.0842708436e+01    0.5557792    0.1846963  37.09  0.002445701    2.829    0.647
        45 -12.1429    110.9893    244.6541   1.2146084094e+02   1.1893870638e+01    0.4057296    0.3322234  78.40  0.003059045    1.274    0.215
        46 -11.7384    116.4336    248.3570   1.2086652262e+02   1.0547673952e+01     0.378157    0.3233122   7.06   0.00278125    1.715    0.417
        47 -10.4434    121.0954    247.5150   1.1996958159e+02   9.9922998850e+00    0.1721598    0.1337002  49.32  0.000594171    1.030    0.029
        48  -9.9790     94.9635    246.9526   1.2445920885e+02   1.3800510523e+01    0.2280307   0.09911275  56.84   0.00122366    2.134    0.531
        49 -10.4166     98.7529    249.0234   1.2398620668e+02   1.2957322077e+01    0.1935404    0.1256546  46.79 0.0004443727    1.199    0.166
        50 -12.5805     40.9357    202.8621   1.3066908466e+02   2.8405752827e+01    0.6616627    0.5212679   3.39  0.004110359    2.320    0.569
        51 -11.8175     39.0312    211.8876   1.3166038353e+02   2.6904942122e+01    0.3170525    0.2013975  52.88 0.0003690955    1.302    0.232
        52 -11.9382     46.6705    229.5172   1.3147830863e+02   2.2856402185e+01    0.3715565    0.2390559  77.46   0.00154346    1.307    0.235
        53 -13.5514      8.2620    214.1647   1.3718792848e+02   2.9590910963e+01    0.6798069    0.3755409 -85.01  0.002393513    1.521    0.342
        54 -12.7630     39.1399    218.2092   1.3206023351e+02   2.5727080568e+01    0.3289143    0.2578649  34.21  0.001635842    1.626    0.385
        55 -12.2709     20.1606    216.5678   1.3527843193e+02   2.8018969848e+01    0.2255857    0.1721218  89.19 0.0003625069    1.229    0.186
        56 -13.5665     33.7727    229.5358   1.3367476087e+02   2.4295445211e+01     0.860557     0.694994  18.38    0.0051225    2.068    0.517
        57 -11.8539     16.9265    232.3908   1.3659332730e+02   2.5544005507e+01    0.2360528    0.1442099  70.59 0.0003984232    1.188    0.158
        58 -14.1008     14.2538    247.4388   1.3765273216e+02   2.3301450877e+01     0.615475    0.4382288  89.32  0.004231939    1.335    0.251
        59 -12.1962     44.3403    237.0493   1.3234386055e+02   2.1829541773e+01     0.298858    0.2430801  83.40 0.0006928138    1.252    0.201
        60 -12.6724     28.2583    218.9499   1.3401245297e+02   2.6763049062e+01    0.4411936    0.2578847  30.05 0.0005098415    2.196    0.545
        61 -12.4145     31.2461    212.7461   1.3311759190e+02   2.7586661934e+01    0.4298028    0.2575583 -55.44  0.002773435    2.253    0.556
        62 -12.7167     21.7189    238.0839   1.3608850538e+02   2.4096497317e+01    0.3989809    0.2703878  44.41  0.002846951    1.470    0.320
        63 -14.5548     35.9777    243.8996   1.3409859095e+02   2.1620724714e+01    0.7882993    0.5563798  68.79  0.004606576    1.044    0.042
        64 -13.1830     24.0890    247.8632   1.3616443450e+02   2.2239447608e+01    0.5413945    0.3223739 -76.38  0.003391037    1.732    0.423
        65 -13.7330     10.8185    231.9707   1.3755213636e+02   2.6209277242e+01    0.5022867    0.3307711  48.93  0.001555945    1.374    0.272
        66 -13.1579      2.2841    228.5299   1.3876681863e+02   2.7593156022e+01    0.3148007    0.2095554  82.03   0.00154865    1.169    0.145
        67  -9.8461    183.2512    233.0310   1.0710988011e+02   2.3965314083e+00    0.1561075    0.1325648  28.23  0.001101394    1.085    0.079
        68 -10.6266    156.0143    232.7799   1.1201563845e+02   6.7905818427e+00    0.1778752    0.1426159  41.48   0.00121518    1.009    0.009
        69 -10.9076    152.3426    230.6433   1.1241500215e+02   7.6900688507e+00    0.3453524    0.2029869 -67.37  0.001472328    2.779    0.640
        70 -11.6430    144.1172    232.3853   1.1414803893e+02   8.7387180358e+00    0.4127847     0.164965  42.14  0.001444548    1.989    0.497
        71 -11.8221     58.6757    231.2670   1.2951768950e+02   2.1124680568e+01    0.3156395     0.197326  75.54  0.001896322    1.418    0.295
        72 -10.8827     55.5687    228.5184   1.2986473949e+02   2.1979878886e+01    0.1552311    0.1211172 -77.53 0.0001594223    1.403    0.287
        73 -10.5152     81.1150    231.8933   1.2560031727e+02   1.8135719088e+01    0.1677031    0.1263958  63.35  0.000403297    1.050    0.048
        74 -10.3753     74.5362    231.4915   1.2674073065e+02   1.9077018867e+01    0.1846675    0.1498263  68.07 0.0004845038    1.093    0.085
        75 -11.5968     73.9618    227.0854   1.2647945337e+02   1.9912628413e+01    0.3350692    0.1546867  61.22  0.001101716    2.099    0.523
        76 -11.6319    242.3263    228.7271   9.6228396127e+01  -6.1917098504e+00    0.3057252    0.2464894 -52.46  0.001599966    2.298    0.565
        77 -10.7540    234.8700    229.2840   9.7557139528e+01  -5.1591236989e+00    0.3362805    0.2295102  34.67  0.002245518    1.290    0.225
        78 -11.0257    107.1087    227.9970   1.2049087055e+02   1.5121564392e+01    0.2700953    0.1746079  64.73 0.0009976698    1.512    0.339
        79 -10.7419    111.2673    227.1979   1.1963400093e+02   1.4635941805e+01    0.2006505     0.159519  59.20 0.0006478993    1.066    0.062
        80 -11.2305     95.1746    228.5488   1.2274699224e+02   1.6758778805e+01    0.3168627    0.2133801  73.88   0.00204716    1.495    0.331
        81 -10.1460     63.8101    229.2241   1.2846524518e+02   2.0842892836e+01    0.1289869    0.1086278  53.20  0.000277807    1.266    0.210
        82 -10.9021    249.5389    226.9645   9.4759759673e+01  -7.0423575292e+00    0.1818042    0.1361547  33.90 0.0004098365    1.369    0.270
        83 -11.1327    178.0525    223.8069   1.0673244388e+02   4.4963827835e+00    0.2623416    0.2079535  22.07  0.001208161    1.199    0.166
        84  -9.4508    164.6883    225.6798   1.0946926381e+02   6.4209063131e+00    0.1197477    0.0867391  14.82  0.000661254    1.648    0.393
        85 -10.4178    122.5337    223.2645   1.1707736665e+02   1.3568241595e+01    0.2435826    0.1690868 -71.50  0.001000555    1.751    0.429
        86  -9.6907    125.6793    221.3105   1.1624801914e+02   1.3399735030e+01    0.1611184    0.1188815  87.97 0.0001524503    1.659    0.397
        87 -11.7302    124.8647    216.6521   1.1583488158e+02   1.4309023784e+01    0.2528045    0.2021971  36.68 0.0007023337    1.227    0.185
        88 -11.4774     78.8689    222.6811   1.2520207245e+02   2.0033429520e+01    0.3050921    0.1629029 -69.66  0.001805535    2.016    0.504
        89 -11.7081    173.7954    228.1372   1.0813415703e+02   4.5849801544e+00    0.2282688    0.1624017  36.48 0.0002475456    1.135    0.119
        90  -8.6831     54.0364    222.5661   1.2970788294e+02   2.3218186053e+01    0.3061101    0.2180342 -24.02  0.001706276    3.564    0.719
        91 -13.4457      3.6378    245.6911   1.3918443560e+02   2.4601462270e+01    0.8174887     0.376204 -80.15  0.005868734    1.986    0.496
        92 -12.1334     47.0579    218.8830   1.3069404592e+02   2.4706624872e+01    0.3216337    0.1858145 -89.49  0.001396337    1.616    0.381
        93 -10.4743    158.5647    222.0459   1.1011014484e+02   7.9658689008e+00    0.2267644    0.1409445  50.61 0.0008112112    1.490    0.329
        94 -11.5564    106.7235    218.1840   1.1950630396e+02   1.6851170127e+01     0.369479    0.1858259 -56.57  0.000780159    2.292    0.564
        95 -10.4828    250.1716    220.3888   9.3566878027e+01  -6.4296119802e+00    0.2165183    0.1340179  53.52  0.001172718    2.727    0.633
        96  -9.8765    188.5239    219.9810   1.0423571084e+02   3.3019491036e+00    0.1536744    0.1216125 -32.91 0.0003358977    1.487    0.328
        97 -10.0719     62.9427    219.9839   1.2789975643e+02   2.2589102154e+01    0.1784048   0.09959598  64.81 0.0005051384    1.590    0.371
        98  -9.4573    203.6043    218.8394   1.0131816343e+02   9.7585024271e-01    0.1395903    0.1166093 -45.33  0.000391126    1.598    0.374
        99 -10.8056    134.8526    218.9622   1.1420375800e+02   1.2325669136e+01    0.2936808    0.1537715  37.04  0.001531422    1.728    0.421
       100 -10.4428    223.5496    218.4862   9.7736586843e+01  -2.1794943176e+00    0.2688749    0.1001372  40.85  0.001247796    2.301    0.565
       101 -10.6392    217.4763    217.4531   9.8627360157e+01  -1.0888326645e+00    0.2321494    0.1851877  41.25  0.001540143    1.340    0.253
       102 -11.3969    173.1203    216.2439   1.0653314361e+02   6.4097257995e+00    0.3422167    0.2633146 -88.46  0.001980483    2.112    0.527
       103 -11.1970    100.4154    216.3433   1.2051430884e+02   1.8114856611e+01    0.3749521     0.238514  87.68  0.002164051    1.896    0.473
       104 -10.1011     80.5761    210.4782   1.2373291728e+02   2.2013553978e+01    0.1847267    0.1441356  62.22 0.0001713139    1.038    0.036
       105 -10.7294     84.7719    210.6032   1.2293274147e+02   2.1408192816e+01    0.3634572     0.156473  59.87 0.0008339593    2.595    0.615
       106 -11.2379     83.5490    215.6590   1.2366984804e+02   2.0652267848e+01    0.2906558    0.2586306  42.06  0.001519029    1.327    0.247
       107 -11.2886     87.4450    215.5384   1.2291540631e+02   2.0130242675e+01    0.3323379    0.2100146  74.71  0.001989234    1.645    0.392
       108  -9.8971     75.5494    212.5498   1.2489781686e+02   2.2312049613e+01    0.1739754   0.08723612  50.90 0.0006719778    1.660    0.398
       109 -10.4614     76.7692    216.7363   1.2505456783e+02   2.1381223390e+01    0.2334035    0.1476918 -88.95 0.0006357928    1.642    0.391
       110 -11.2560     72.8381    216.7795   1.2579669598e+02   2.1896523826e+01     0.211911    0.1889933  61.88 0.0008446917    1.229    0.187
       111 -10.4410    142.3666    217.0511   1.1251117953e+02   1.1415089143e+01    0.2423084    0.1332644  42.44   0.00112943    1.508    0.337
       112 -10.8445    146.4849    215.0701   1.1144893531e+02   1.1056573868e+01    0.2705813    0.1893863  62.71  0.001283988    1.590    0.371
       113 -10.7591    197.4146    215.7263   1.0194332196e+02   2.4113501081e+00    0.1617468    0.1125009 -18.15 0.0009542216    1.678    0.404
       114 -10.4270    194.2388    216.4083   1.0263239240e+02   2.8459693760e+00    0.1677652    0.1018635  45.46 0.0003326803    1.527    0.345
       115 -10.7929    156.0889    214.4960   1.0951841572e+02   9.5445467696e+00    0.2649977    0.1974052 -77.70  0.001225051    1.942    0.485
       116 -13.1100     15.1297    224.8704   1.3653861063e+02   2.7026650838e+01     0.926015    0.2591232  42.41  0.004814891    2.610    0.617
       117 -11.2849    111.7130    213.6535   1.1802430855e+02   1.6885623675e+01    0.2556407    0.2000245  58.88  0.001044457    1.098    0.089
       118 -10.0511     59.7601    214.9345   1.2807905820e+02   2.3907962713e+01    0.1784798     0.134591  41.93  0.001247313    1.393    0.282
       119 -10.4498     58.0027    211.3603   1.2811644725e+02   2.4789009012e+01    0.1872962    0.1479894 -60.93  0.001325711    1.574    0.365
       120 -11.0870    118.1907    212.7212   1.1664775204e+02   1.6040607992e+01    0.3461607    0.2109151  29.70   0.00185886    1.897    0.473
       121  -9.5113    164.1582    213.3608   1.0780537290e+02   8.3605175522e+00     0.174275   0.09988505  48.02 0.0001287807    1.577    0.366
       122 -10.2501    230.5500    212.4977   9.5523061155e+01  -2.5526427985e+00    0.1225084   0.09656209  16.34  0.000107082    1.008    0.008
       123 -10.4160    219.5422    211.9931   9.7355541086e+01  -7.3189770509e-01    0.2765324    0.1912004  46.85  0.001053349    1.584    0.369
       124 -10.2513     70.6512    210.1750   1.2561473167e+02   2.3403635705e+01    0.2544498    0.1295838 -63.59  0.001208133    2.066    0.516
       125 -12.2349     66.9574    207.4474   1.2607604622e+02   2.4398076060e+01    0.2192375    0.1636669  64.59 0.0002894192    1.083    0.077
       126  -9.9420     25.0110    211.9041   1.3417449954e+02   2.8388825077e+01    0.1755246   0.08762696  65.76  0.000674352    1.649    0.394
       127  -9.8274     13.7601    211.0402   1.3609655312e+02   2.9651556025e+01    0.1400149     0.110936 -89.42 0.0005070694    1.265    0.210
       128 -10.0120      7.4172    195.8095   1.3643991556e+02   3.3103010592e+01    0.2737135   0.07107572  34.21  0.001334433    3.534    0.717
       129 -12.1959     19.2334    201.8118   1.3462430591e+02   3.0862079348e+01    0.3490516    0.2161155 -71.13  0.002434239    1.596    0.374
       130 -12.3300     13.5864    196.8362   1.3537077522e+02   3.2350601665e+01    0.3113036    0.1827879  87.68  0.002136583    1.366    0.268
       131 -10.5061     16.5291    191.0428   1.3448488882e+02   3.3209251165e+01    0.1874827    0.1358591  51.30  0.000520006    1.326    0.246
       132 -11.0230     19.0949    210.9146   1.3516045567e+02   2.9162011732e+01    0.2371687    0.1982872 -26.24 0.0003238912    2.229    0.551
       133 -11.4786     15.3564    206.2203   1.3556600205e+02   3.0397745637e+01    0.3786709    0.1478928  64.25  0.002102851    2.234    0.552
       134 -10.5201    214.6952    209.3283   9.7765433727e+01   4.0464408396e-01    0.3269905    0.1828695 -14.25  0.001620944    2.408    0.585
       135 -10.2055    183.7437    209.9995   1.0356532474e+02   5.5288003292e+00    0.1627284    0.1472727  23.44  0.000248258    1.099    0.090
       136 -11.0757    180.6546    206.9806   1.0366718769e+02   6.5094725620e+00    0.2372257    0.1629316  38.76 0.0003977902    1.236    0.191
       137 -11.6809    183.4706    203.8462   1.0262049279e+02   6.4938586408e+00    0.2424532    0.2220823   0.61 0.0003246572    1.157    0.136
       138 -12.0898    128.7830    208.6127   1.1403738729e+02   1.5059518823e+01    0.3685445    0.2927336  57.61  0.002342612    1.143    0.125
       139 -10.1048     98.5144    205.5552   1.1968218446e+02   2.0356980400e+01    0.1759336    0.1574622 -69.29 0.0007400666    1.287    0.223
       140 -10.2198    237.8914    208.3032   9.3543968292e+01  -3.1960553874e+00    0.1757917    0.1299059  23.16 0.0008575383    1.111    0.100
       141 -10.3233    188.1531    207.3318   1.0230460765e+02   5.1640336659e+00    0.1898356    0.1626174  -7.25 0.0004695221    1.249    0.199
       142  -9.9593     84.9854    221.2947   1.2393929295e+02   1.9443953729e+01    0.1650786     0.117339  52.51 0.0005034646    1.144    0.126
       143 -11.7505     52.4062    206.6491   1.2879031290e+02   2.6356712990e+01     0.267868    0.1938603  68.16 0.0005267782    1.099    0.090
       144  -9.9133    117.0060    207.4503   1.1622547849e+02   1.7160805730e+01    0.1914685    0.1055835  43.54 0.0005091464    1.547    0.354
       145 -10.9568    151.8474    206.6142   1.0919688663e+02   1.1537771812e+01    0.1950791    0.1019664  49.62 0.0009511069    1.780    0.438
       146  -9.2662    230.6482    204.2858   9.4081997429e+01  -1.5503079077e+00    0.1093119   0.09666784  57.55 0.0007021297    1.662    0.398
       147 -11.0734    195.3398    203.6514   1.0034470056e+02   4.4611075668e+00    0.2030195    0.1796063  46.02  0.001318131    1.257    0.205
       148 -10.2134      3.5087    205.9735   1.3762505375e+02   3.1522303345e+01    0.2575396     0.107488  51.54  0.001263061    1.866    0.464
       149 -10.7014    121.5372    203.3506   1.1478696396e+02   1.7172174992e+01    0.2760609     0.186156  46.79 0.0005453252    1.271    0.213
       150 -10.8644    121.2760    199.0677   1.1426401343e+02   1.7995727194e+01    0.2322464    0.1923569  55.19 0.0004717959    1.048    0.046
       151 -10.6944    160.6488    202.3784   1.0681791150e+02   1.0715592533e+01    0.2273275    0.1714931  44.09 0.0006181825    1.154    0.133
       152 -11.1830     96.1383    208.9915   1.2054074693e+02   2.0073471340e+01     0.342601     0.246506  78.62  0.001720867    1.409    0.290
       153 -10.7729     31.2928    202.8397   1.3247297444e+02   2.9451619877e+01    0.3541164    0.1224556  54.68  0.001630506    2.464    0.594
       154 -11.1165     25.1765    195.7168   1.3314735868e+02   3.1458184735e+01    0.3799676    0.1558205 -79.25  0.001756636    2.168    0.539
       155 -11.5429     22.0215    191.9123   1.3349775384e+02   3.2516586318e+01    0.2013979     0.148673  85.18 0.0003759752    1.088    0.081
       156 -10.0573     71.7211    202.5609   1.2468692171e+02   2.4708635173e+01    0.1577001   0.09250122  52.12 0.0003211322    1.449    0.310
       157 -11.0906     53.1802    199.9691   1.2808989228e+02   2.7552836531e+01    0.3953898    0.1913946  80.93  0.001709035    2.377    0.579
       158 -12.1733    239.8622    200.8255   9.1883447348e+01  -2.5935761855e+00    0.4472141     0.215061  41.15  0.001775851    1.937    0.484
       159 -11.6684    239.2829    197.6330   9.1403720159e+01  -2.1032078569e+00    0.2084061    0.1898701  22.28 0.0008378739    1.315    0.239
       160 -10.6418    190.9407    201.0036   1.0072478359e+02   5.6156228084e+00     0.191507    0.1652911  27.14  0.000326715    1.027    0.027
       161 -11.1820     95.9738    200.2096   1.1957150179e+02   2.1742465075e+01    0.2266071     0.169203 -69.19 0.0005277226    1.420    0.296
       162 -11.3866    207.9835    199.2865   9.7246895582e+01   2.9022757512e+00    0.2936779    0.2278744  17.43  0.001535144    1.166    0.143
       163 -10.3317    169.9721    198.4305   1.0434758479e+02   9.7185616018e+00    0.3109896    0.2077611 -63.18  0.001606236    2.185    0.542
       164 -10.8416    145.9758    199.2599   1.0926784528e+02   1.3794758613e+01     0.199505    0.1850286 -30.41  0.000210555    1.264    0.209
       165 -10.5501     89.6992    199.9510   1.2081397941e+02   2.2714521628e+01    0.3466707    0.1547698  35.78  0.001207029    2.289    0.563
       166 -10.7892      4.8642    199.9983   1.3710761792e+02   3.2525736782e+01    0.1695569    0.1182194  51.02 0.0003812919    1.353    0.261
       167  -9.6678    177.2914    199.3210   1.0306235405e+02   8.2784992312e+00    0.1873029    0.1093433  47.38 0.0004874477    1.604    0.377
       168  -9.5634    174.3013    198.6807   1.0353921521e+02   8.9100821498e+00    0.1355807    0.1158609  29.68 0.0002123885    1.044    0.042
       169 -11.7071    109.6241    197.9630   1.1650562244e+02   2.0074382424e+01    0.2538937    0.1999669  66.37 0.0003406776    1.186    0.157
       170 -10.7466    108.7270    194.3161   1.1621463045e+02   2.0909549934e+01    0.1901331    0.1583975  68.58 0.0001812283    1.106    0.096
       171 -12.3965    217.7042    194.4932   9.4618256916e+01   1.9000395158e+00    0.3387934    0.2716843  52.29  0.002059554    1.543    0.352
       172 -12.8847    229.3352    195.3001   9.2696518104e+01  -1.7563273813e-01    0.4113867    0.2511363  18.54 0.0008058335    1.681    0.405
       173 -11.0263    227.2131    189.6545   9.2026008383e+01   9.3770675612e-01    0.2570001    0.1899325 -39.19 0.0005773407    1.607    0.378
       174  -9.9179    161.8434    197.8802   1.0586859508e+02   1.1249949522e+01    0.1705261     0.143623  61.98 0.0003742752    1.295    0.228
       175 -10.3804    137.1494    197.1537   1.1074506121e+02   1.5685306796e+01    0.2755173    0.1761957  64.68 0.0008360851    1.888    0.470
       176 -10.3787    139.9792    194.5640   1.0977635630e+02   1.5662565912e+01    0.2014914    0.1856789 -62.89 0.0003757428    1.224    0.183
       177  -9.9980    132.8047    198.2052   1.1178639170e+02   1.6235240383e+01    0.1713283    0.1449912  22.92 0.0004384486    1.339    0.253
       178 -11.7248    188.8977    196.2727   1.0030329468e+02   6.6910403168e+00      0.29318     0.209728  40.34 0.0003211742    1.240    0.194
       179  -9.7768    193.3451    194.3150   9.9110825292e+01   6.1974819965e+00    0.2189339    0.1183223  36.52  0.000834134    1.652    0.395
       180 -10.5424     57.8944    190.6190   1.2631036913e+02   2.8835995298e+01    0.2686039    0.1812268 -76.84  0.001701786    1.393    0.282
       181 -11.3299     57.0447    195.0944   1.2689826337e+02   2.8044659402e+01    0.2437803    0.1642949  72.82 0.0004052604    1.302    0.232
       182 -12.0715     52.5410    192.7969   1.2759251953e+02   2.9047089833e+01    0.2784789     0.194874  55.55 0.0002607061    1.236    0.191
       183  -9.7812     82.3625    196.1775   1.2188466783e+02   2.4495500331e+01    0.1585387    0.1054827 -83.93 0.0003801389    1.550    0.355
       184 -10.7653     62.7286    196.0245   1.2584701244e+02   2.7151908018e+01    0.1865726    0.1419749  58.82 0.0003991899    1.125    0.111
       185  -9.9190    130.3870    195.2245   1.1185007049e+02   1.7185713510e+01    0.1667914    0.1227977 -72.71 0.0003123596    1.618    0.382
       186  -9.9205     95.2816    195.0220   1.1909359316e+02   2.2844795504e+01    0.1661182    0.1450996  68.95 0.0003914221    1.044    0.043
       187 -11.0586    241.5936    193.2373   9.0202689590e+01  -1.9209278721e+00    0.1685399    0.1057397 -15.37 0.0004418512    1.598    0.374
       188 -10.5417    164.3306    192.2977   1.0445531236e+02   1.1743362470e+01    0.2919548    0.2094563   9.40  0.001523038    1.847    0.459
       189 -10.4567     40.5553    191.9710   1.2990689181e+02   3.0587064214e+01    0.2306013    0.1254016  73.67  0.001336084    1.727    0.421
       190  -9.8116    148.2228    192.5595   1.0777204838e+02   1.4576985547e+01    0.1929994    0.1155215  32.12 0.0009462282    1.723    0.419
       191 -12.7993     66.5978    190.8854   1.2455499660e+02   2.7681573011e+01    0.2826536    0.2687603 -76.95 0.0007229723    1.322    0.244
       192  -9.3631      1.5893    192.5116   1.3733054390e+02   3.4237398497e+01    0.1050931   0.07564151  79.77 0.0001481184    1.032    0.031
       193 -10.9822    192.0303    190.5257   9.8689065840e+01   7.0149111297e+00    0.1897839    0.1501046  33.35 0.0003594075    1.108    0.097
       194 -10.5338    193.5018    187.5136   9.7861222204e+01   7.2161944392e+00     0.196356    0.1711466  24.40  0.001178346    1.005    0.005
       195 -11.3414    120.9286    189.6937   1.1301885131e+02   1.9810412667e+01     0.394107    0.3035337  -7.66  0.002122333    2.074    0.518
       196 -11.2767     81.4648    189.6740   1.2133677509e+02   2.5912484806e+01    0.3797946    0.1837895  54.76  0.001408953    1.984    0.496
       197 -10.4494     34.4140    191.0388   1.3104214003e+02   3.1436194092e+01    0.2053097    0.1538865  71.20 0.0008827445    1.056    0.053
       198 -11.1668    248.0903    190.1626   8.8536780163e+01  -2.5777981142e+00    0.1929327    0.1400686   9.70 0.0003560896    1.208    0.172
       199 -11.1580    104.7490    188.7134   1.1630432794e+02   2.2625698895e+01    0.3050902     0.188189 -83.69  0.001534921    2.078    0.519
       200 -10.3284     60.8176    187.7979   1.2543601213e+02   2.9044224574e+01    0.1714101    0.1153247  72.21 0.0006851266    1.348    0.258
       201 -10.1376      3.6912    188.0061   1.3671782713e+02   3.4938901605e+01    0.1447022    0.1008527  85.43 0.0002734757    1.094    0.086
       202 -10.2723    110.4921    186.9809   1.1484534495e+02   2.2050050833e+01    0.1810864    0.1080653  89.91 0.0008103134    2.544    0.607
       203  -9.7640     48.6099    186.7546   1.2784737773e+02   3.0730155643e+01    0.2021681    0.1296729  88.05  0.001249554    1.408    0.290
       204 -10.5318      4.3649    182.5672   1.3630024243e+02   3.5957999995e+01    0.2233223    0.1191497 -89.36   0.00129683    1.486    0.327
       205 -10.1161     18.4686    178.4940   1.3329523301e+02   3.5552184070e+01    0.1804868   0.07741983  46.74 0.0007636343    2.053    0.513
       206 -11.8020     15.6909    183.1815   1.3415507169e+02   3.4853399186e+01    0.3260999    0.2522898 -44.55  0.002093814    1.920    0.479
       207 -11.3019      8.8382    186.8882   1.3569335235e+02   3.4720913004e+01     0.213423    0.1610752 -56.56 0.0004102924    1.729    0.422
       208 -10.3684      8.6133    183.2024   1.3552469046e+02   3.5473512690e+01    0.1702256     0.135771  58.02 0.0002202664    1.263    0.208
       209 -12.0961     91.7841    188.6114   1.1903744168e+02   2.4630907064e+01     0.336291    0.2052629 -67.29  0.001008382    1.703    0.413
       210 -11.0324    232.1815    185.3778   9.0345160594e+01   6.7219635346e-01     0.215219    0.2088787  18.13 0.0007463521    1.361    0.265
       211 -11.9601    229.5880    180.2893   8.9821356730e+01   1.8190971395e+00    0.2781866    0.2554473   9.09 0.0003638505    1.181    0.153
       212 -10.5946    188.3057    190.9744   9.9487985711e+01   7.6184170316e+00    0.1828873    0.1663464  -4.46 0.0008998672    1.141    0.124
       213 -10.1892    128.0509    186.0099   1.1096201394e+02   1.9307551788e+01    0.2006001     0.176894  56.06 0.0003850408    1.018    0.018
       214 -10.5880     34.9921    185.5391   1.3050329072e+02   3.2484459997e+01    0.2776094    0.1037111  33.98  0.001371868    2.780    0.640
       215 -10.1723    225.8108    183.7028   9.1149047550e+01   2.0001592436e+00    0.2092094     0.139171  23.97 0.0006425668    1.417    0.294
       216 -10.5177    177.4907    183.4833   1.0027469445e+02   1.0817677258e+01    0.2547632    0.2264159  69.51 0.0008693571    1.352    0.260
       217 -10.7560    173.0447    182.7328   1.0103450006e+02   1.1771692599e+01    0.2799352    0.1872348  42.70 0.0005821568    1.350    0.259
       218 -12.3117     59.6172    181.6916   1.2506839838e+02   3.0449489151e+01    0.4558238    0.3137216  50.65  0.001370661    1.327    0.247
       219 -12.0698     29.4876    180.7784   1.3124182315e+02   3.4024632895e+01    0.4258102    0.2460659 -86.38  0.001733896    1.486    0.327
       220 -10.9350     31.9771    176.5047   1.3039080571e+02   3.4657317213e+01    0.2136819    0.1566586  81.49 0.0006489999    1.096    0.087
       221  -9.8237    190.5085    182.5311   9.7523763704e+01   8.5548938621e+00    0.2207214    0.1258928 -26.06  0.001018555    2.166    0.538
       222  -9.8624    123.1575    182.8503   1.1152436020e+02   2.0754397824e+01    0.1749842    0.1524897  24.60 0.0004144127    1.307    0.235
       223 -10.9154    103.7924    183.2893   1.1576899836e+02   2.3854873337e+01    0.2163404    0.1414676  56.30 0.0007739775    1.442    0.307
       224 -10.9885     46.5931    182.3605   1.2786472090e+02   3.1864086875e+01    0.3091606    0.2124839  14.14  0.001608213    2.418    0.586
       225 -11.5907     72.8007    177.4840   1.2176539989e+02   2.9615276577e+01    0.4814037    0.2340519  31.87  0.001829724    2.392    0.582
       226 -10.2765     87.7136    182.5464   1.1914644125e+02   2.6459346305e+01    0.2273648    0.1657649  59.91 0.0009055117    1.242    0.195
       227 -10.2115     83.7388    180.7141   1.1977670485e+02   2.7413968258e+01    0.2568464    0.1547144 -86.94  0.001318199    1.921    0.479
       228 -10.7754     80.1407    178.1816   1.2024536254e+02   2.8453250914e+01    0.2854968    0.2453756  70.50 0.0008355899    1.023    0.022
       229 -12.0590     83.8244    175.8203   1.1913467316e+02   2.8420494671e+01    0.4807045    0.3340452  14.74  0.002398399    2.318    0.569
       230 -11.3145     78.9986    174.4669   1.2003063186e+02   2.9394406078e+01    0.3966576    0.2528321  78.78  0.001947823    1.727    0.421
       231  -9.7445    132.2761    180.3523   1.0916664283e+02   1.9657001688e+01    0.1287416    0.1061993  -7.68 0.0004371801    1.643    0.391
       232 -10.0243    157.6290    180.7915   1.0385799053e+02   1.4978341122e+01    0.1703396    0.1304464 -60.46            0    1.559    0.359
       233  -9.6318    209.2382    178.9903   9.3268021690e+01   5.6500159281e+00    0.1596838    0.1094897 -32.03 0.0003475486    1.524    0.344
       234 -10.6381    104.0794    178.2918   1.1500010097e+02   2.4820825400e+01    0.2070706    0.1793009 -82.48 0.0005361335    1.153    0.133
       235 -10.3059     12.2582    178.5918   1.3453584519e+02   3.6087858999e+01     0.223086      0.15236 -29.10  0.000998236    2.808    0.644
       236 -10.7889    147.1006    177.1084   1.0543800149e+02   1.7601383883e+01    0.2215263    0.1881034 -63.05 0.0002897323    1.322    0.243
       237 -10.5944    118.8127    177.8089   1.1169005505e+02   2.2488387155e+01    0.1963908    0.1814846  24.95 0.0008370019    1.236    0.191
       238 -11.8163     47.7484    177.1072   1.2713013221e+02   3.2826047110e+01    0.2221611    0.1791628  44.65            0    1.336    0.252
       239 -10.0310    109.1948    176.8378   1.1365902954e+02   2.4289357516e+01    0.1695413    0.1514091 -41.07 0.0006608948    1.346    0.257
       240 -10.1118      6.3167    175.5708   1.3552144711e+02   3.7205561508e+01    0.2843802   0.05776395 -70.46  0.001205023    3.578    0.720
       241 -11.3713    136.9345    175.2856   1.0731695683e+02   1.9804926456e+01    0.4134447    0.2401432 -36.85  0.001510269    2.218    0.549
       242 -10.8601    135.0302    171.7117   1.0712067529e+02   2.0848185870e+01    0.2096874    0.1761674  64.34 0.0003465476    1.200    0.167
       243  -9.5937    219.0064    174.9417   9.0671036980e+01   4.4729755239e+00    0.1600777    0.1390892   4.64 0.0006882757    1.041    0.039
       244 -11.1552     21.9334    173.6934   1.3224726138e+02   3.6222483187e+01     0.382819     0.182733  79.17  0.001564471    2.032    0.508
       245 -10.5573    191.2932    173.9914   9.5745516475e+01   9.7970937868e+00    0.4041403    0.1558308  40.87  0.001535309    2.409    0.585
       246 -10.2306     98.1793    172.9244   1.1553574992e+02   2.6863376041e+01    0.2921125    0.1259277 -60.61 0.0009690712    2.405    0.584
       247 -10.2096    100.9292    170.3245   1.1453251799e+02   2.6973003064e+01    0.2201644    0.1925597  61.21 0.0003911665    1.048    0.046
       248 -10.1462     36.1492    172.5793   1.2917881862e+02   3.5050751725e+01    0.2646032    0.1373627 -44.49  0.001297681    3.070    0.674
       249  -9.3342      2.5265    173.5828   1.3615178093e+02   3.7915489155e+01    0.1070127   0.08102454  84.10 0.0001448693    1.054    0.051
       250 -10.6579    174.5853    172.1325   9.8751426585e+01   1.3315660706e+01    0.2402149    0.1556598  37.50 0.0007326825    1.437    0.304
       251 -10.9264     62.4803    170.1378   1.2318240351e+02   3.2529552045e+01    0.3913383    0.1759544  53.69  0.001793046    2.222    0.550
       252 -10.2858     68.6206    171.5556   1.2198016537e+02   3.1430486561e+01    0.4420249    0.1401083  50.42   0.00157652    3.269    0.694
       253  -9.4312     65.7928    167.9824   1.2218376386e+02   3.2568541567e+01    0.1888057    0.1625932  86.67 0.0005990993    1.043    0.042
       254  -9.7306    199.7811    171.4140   9.3582375033e+01   8.6010606119e+00    0.1822175     0.118706  31.30 0.0002218901    1.479    0.324
       255 -11.1269     48.7240    167.0975   1.2591130433e+02   3.4845126154e+01    0.3642721    0.2157048 -52.38  0.001936095    1.940    0.484
       256 -10.4238     31.7459    169.8476   1.2987845882e+02   3.6080162119e+01    0.2204796    0.1601345 -69.98  0.001481283    1.325    0.246
       257 -10.0397     13.4605    169.7070   1.3370482841e+02   3.7812020547e+01    0.1809633    0.1302601  34.55 0.0008039513    1.649    0.394
       258 -11.7116    114.7183    168.3941   1.1110434006e+02   2.5099883717e+01    0.3000368    0.2236021  41.95 0.0005204576    1.292    0.226
       259 -10.9277      2.8951    169.0187   1.3581078291e+02   3.8820117400e+01    0.2688916    0.1497342  28.52 0.0007587707    2.206    0.547
       260  -9.8275    207.4978    168.5077   9.1523611334e+01   7.5974898917e+00    0.1393619    0.1209878  13.65 -1.446244e-05    1.042    0.040
       261 -11.0003     74.1901    165.2885   1.1993019625e+02   3.2029812919e+01    0.4688092    0.1770756 -50.46  0.001723893    3.076    0.675
       262 -11.9825     81.0610    166.3431   1.1849386200e+02   3.0836060647e+01    0.3320667    0.2218558  37.95  0.001079029    1.549    0.355
       263 -11.2439    157.8870    173.4491   1.0248681813e+02   1.6268709388e+01    0.5435129      0.20777  38.14  0.002031031    2.617    0.618
       264  -9.4911     55.4910    164.9825   1.2416123699e+02   3.4508044357e+01    0.1855061    0.0917016  83.82 0.0008105426    2.644    0.622
       265  -9.0523     37.3160    165.6769   1.2829249670e+02   3.6400523649e+01    0.1268264   0.07327065  69.56 0.0005529333    1.665    0.399
       266 -11.3754     24.4309    164.1686   1.3096834256e+02   3.7997729195e+01    0.2248355    0.1582049  54.15 0.0008187377    1.348    0.258
       267 -10.0485    203.1813    163.6732   9.1361264666e+01   9.2012483828e+00    0.2687881    0.1027044 -39.68  0.001028511    2.725    0.633
       268 -10.3102     62.1691    164.5610   1.2259309313e+02   3.3775023753e+01    0.1761329    0.1673113 -31.73 0.0009002454    1.403    0.287
       269  -9.3951     95.3360    163.6858   1.1481053069e+02   2.9267382990e+01    0.1417654   0.09484554  71.48 0.0007046679    1.691    0.409
       270 -11.3953    140.8170    161.2057   1.0393453534e+02   2.1860928106e+01    0.2875591    0.2185601  42.99 0.0003927932    1.241    0.194
       271 -11.9995     52.4832    158.2858   1.2407799816e+02   3.6332655732e+01    0.3364408    0.1846584 -62.40 0.0004965064    1.689    0.408
       272  -9.9843    224.0014    159.0061   8.6511309894e+01   5.9427617563e+00    0.1865338    0.1693064 -71.96 0.0003651861    1.550    0.355
       273  -9.5902    104.9492    165.9167   1.1293624244e+02   2.7251554365e+01    0.1524568    0.1397436  73.74            0    1.016    0.016
       274 -11.8926    107.3232    158.1189   1.1110641081e+02   2.8519630720e+01    0.2408914    0.2221468  81.48 0.0002374792    1.024    0.023
       275 -12.0926     34.4534    157.9521   1.2818445672e+02   3.8369666854e+01    0.4224987    0.1817242  53.80  0.002095558    2.323    0.569
       276  -9.8125    114.3239    158.5412   1.0953399181e+02   2.7233931836e+01    0.1749308    0.1321156  33.50 0.0008534275    1.416    0.294
       277  -9.4622     11.5352    158.4021   1.3330016988e+02   4.0355331003e+01    0.1100074   0.08795726 -84.83 8.561905e-05    1.125    0.111
       278 -10.7295    163.5880    156.0868   9.7894545017e+01   1.8412826591e+01     0.413791    0.2742352  10.22   0.00175078    2.378    0.580
       279 -11.1396    139.6812    156.6774   1.0332649812e+02   2.2988171737e+01    0.3402805    0.2449296  79.58            0    1.914    0.478
       280  -9.2105    124.6395    156.2861   1.0671822964e+02   2.5876245142e+01    0.1469159    0.1053618  71.60 0.0007022003    1.683    0.406
       281  -9.6144    154.5322    155.4822   9.9754653030e+01   2.0333966137e+01    0.1431654    0.1357031  41.94 5.900735e-05    1.006    0.006
       282 -10.5154      3.9886    153.9566   1.3461236126e+02   4.1889638097e+01    0.2851621    0.2041412 -58.87  0.001062924    1.536    0.349
       283  -9.9473    113.6916    154.3943   1.0894996454e+02   2.8229013819e+01    0.2175163    0.1573754  75.48 0.0006394926    1.645    0.392
       284  -9.6132     71.1647    154.5592   1.1918111130e+02   3.4802698023e+01    0.1551007    0.1273233  22.46 0.0003699344    1.550    0.355
       285  -9.6744     15.3456    152.8741   1.3203162924e+02   4.1229429572e+01    0.2353828   0.08838826 -84.97  0.001088449    2.529    0.605
       286 -11.0360    249.1077    151.1032   8.0535882616e+01   2.4767416228e+00    0.2130532    0.1770193 -26.27 0.0002995669    1.195    0.163
       287 -10.9931    225.1123    150.1635   8.4421628107e+01   7.0891292869e+00    0.3829196    0.2910008  -3.22   0.00104273    1.348    0.258
       288 -10.6754     46.0895    158.9188   1.2562779364e+02   3.6924192041e+01    0.1859749    0.1518877  83.77 0.0005121605    1.023    0.023
       289 -10.2817     27.5657    158.2160   1.2976061498e+02   3.8984942418e+01    0.1774527   0.09763148 -77.13 0.0005571771    1.529    0.346
       290 -10.4831     79.8473    149.9462   1.1639300138e+02   3.4620775544e+01    0.2266326    0.1744003  62.58            0    1.273    0.215
       291  -9.9085     18.7169    160.6435   1.3191825207e+02   3.9268857724e+01    0.1441245   0.09122121  49.35 0.0009270564    1.529    0.346
       292 -10.1007    174.2905    147.9686   9.3882085453e+01   1.7762311910e+01    0.2031297    0.1873643 -14.44 0.0003752559    1.108    0.098
       293  -9.8632      4.3941    144.1438   1.3381034061e+02   4.3967067957e+01    0.3030382   0.09517511 -71.70  0.000928029    2.394    0.582
       294 -10.1437     84.9386    143.7579   1.1412987471e+02   3.5263850841e+01     0.180368    0.1603913  73.75            0    1.069    0.064
       295  -9.3941    117.6819    143.6690   1.0597476115e+02   2.9835003249e+01      0.14206    0.1147231 -11.64 0.0007047592    1.688    0.408
       296  -9.4840     52.5271    143.5281   1.2222466292e+02   3.9632921242e+01    0.1280227    0.1077768  89.78 0.0001728035    1.027    0.026
       297 -10.3209    242.0662    142.3356   7.9795548345e+01   5.0358010967e+00    0.1824469    0.1644661  15.76 0.0003866924    1.108    0.098
       298 -11.6858    132.2810    140.6434   1.0182273405e+02   2.7740087826e+01    0.2570575    0.2446816  87.06 0.0003109897    1.060    0.057
       299 -10.4618    109.0448    140.5014   1.0748777835e+02   3.2069428410e+01    0.2517025    0.1908723 -40.08 0.0005076909    1.473    0.321
       300 -10.7958     65.2395    139.2671   1.1840673682e+02   3.9043576988e+01    0.3532411    0.2259667  16.55 0.0009068375    2.346    0.574
       301 -10.1394    242.0217    138.0087   7.8847542761e+01   5.6857336763e+00    0.2040495    0.1782482  -5.25 0.0003349934    1.009    0.009
       302 -10.6583     49.3702    137.0774   1.2214936595e+02   4.1464009636e+01     0.398903    0.1480255 -46.40  0.001511337    3.602    0.722
       303 -11.0110     34.4045    137.5007   1.2599105358e+02   4.2932039264e+01    0.2300112    0.1911856  66.27  0.001101472    1.190    0.160
       304  -9.4862    205.6071    137.4679   8.5189362205e+01   1.3085048144e+01    0.1438409    0.1324273  -2.33 0.0001244005    1.023    0.023
       305 -10.7632     98.0397    136.7834   1.0955332766e+02   3.4772314885e+01    0.4437713    0.2191492  57.63   0.00164368    2.682    0.627
       306  -9.8345      6.5971    137.2156   1.3274619928e+02   4.5321136578e+01    0.1729924   0.07826944 -66.44 0.0009550679    1.786    0.440
       307  -9.9796    121.9880    135.7574   1.0330377314e+02   3.0758205981e+01    0.1947175    0.1824598  58.56 0.0002484384    1.048    0.045
       308  -9.8160     18.8863    137.9148   1.2986295195e+02   4.4226092161e+01    0.1572384    0.1119673  79.44 0.0003389828    1.242    0.195
       309 -11.3210     26.0425    129.9877   1.2723152956e+02   4.5405131673e+01    0.1694723    0.1383263 -65.88 0.0003492179    1.180    0.152
       310 -10.5141     61.8515    130.9335   1.1798282530e+02   4.1392587981e+01    0.1937095    0.1707755 -76.47 0.0002702519    1.030    0.029
       311 -10.9755     62.4696    127.5543   1.1726529698e+02   4.2096123200e+01    0.2154984    0.1790265 -75.35 0.0007623099    1.072    0.067
       312  -9.9008     48.5288    130.8931   1.2149880557e+02   4.2977847364e+01    0.1911239    0.1093052 -66.33 0.0005526723    1.514    0.340
       313 -11.2038     28.6859    132.3007   1.2682455701e+02   4.4646167862e+01     0.256456     0.181315  80.09  0.000272445    1.323    0.244
       314 -10.2985     33.9600    130.3747   1.2523660562e+02   4.4596236881e+01    0.3427268    0.1301739 -51.28  0.001506887    2.700    0.630
       315  -9.4534    122.0170    130.0471   1.0206861197e+02   3.1996298279e+01    0.1733561    0.1611038 -59.05 0.0003462068    1.071    0.066
       316  -9.6215      1.7694    129.6188   1.3326816842e+02   4.7318474383e+01    0.1365602   0.09367596  50.13 0.0003426303    1.544    0.352
       317 -11.0402     91.8330    126.9243   1.0925041090e+02   3.8020708049e+01    0.2272204    0.2219212 -31.11 0.0003518337    1.145    0.127
       318 -10.3262     21.2275    126.4553   1.2806850596e+02   4.6611381060e+01    0.2101284    0.1352367  44.40  0.001295083    1.678    0.404
       319 -11.0128     57.1252    124.7505   1.1825092634e+02   4.3405548735e+01    0.2502705    0.2010164  32.92 0.0007645797    1.432    0.302
       320  -9.5725     11.9489    125.0355   1.3030406435e+02   4.7642948152e+01    0.1372858      0.10936 -84.45 0.0002928777    1.024    0.024
       321 -10.6179      3.6691    124.8699   1.3238556427e+02   4.8245034585e+01    0.1644112    0.1361931 -67.23  0.000282559    1.218    0.179
       322 -10.8426     83.3062    120.5627   1.1028420455e+02   4.0814035746e+01     0.452684    0.2677189 -85.80  0.001840262    2.659    0.624
       323 -10.8641     64.0044    122.5002   1.1598185414e+02   4.3072449398e+01    0.2445908    0.1204524  41.16 0.0006483662    2.129    0.530
       324 -10.1168     14.1282    121.8427   1.2940605501e+02   4.8202839520e+01     0.156645    0.1159863 -57.84 0.0004477829    1.319    0.242
       325 -10.9560     41.7242    120.8996   1.2186634414e+02   4.6010561056e+01    0.2116011    0.1953477 -34.66 0.0004213453    1.306    0.235
       326 -11.6400     19.7905    118.4038   1.2751036546e+02   4.8554340210e+01    0.2969451    0.1685157  37.50   0.00153343    1.967    0.492
       327 -10.3084      5.4910    121.0675   1.3156764876e+02   4.8972888028e+01    0.1754799   0.09068865 -78.00 0.0003683854    1.519    0.342
       328 -11.0477    116.3622    120.0257   1.0126013425e+02   3.5271015031e+01    0.2485784    0.2093953  43.10 0.0002399162    1.209    0.173
       329 -10.3021    100.9858    119.5736   1.0524508846e+02   3.8162837492e+01    0.2080851    0.1834536 -61.90 5.202972e-05    1.090    0.083
       330  -9.7984     94.0832    119.2376   1.0704772978e+02   3.9407315794e+01    0.3581077     0.147388  31.97  0.001281606    3.098    0.677
       331 -10.1876     92.2898    116.6530   1.0698138805e+02   4.0291640866e+01    0.2277462    0.1780939 -58.26 0.0007053636    1.212    0.175
       332 -10.5192     54.9335    117.8271   1.1769687426e+02   4.5274169106e+01    0.1911334    0.1690928 -80.59 0.0004410406    1.038    0.037
       333  -9.7545     48.8267    116.8507   1.1925367056e+02   4.6195989669e+01    0.1743251    0.1317195 -87.37 0.0002392162    1.293    0.227
       334 -11.6435      2.6601    114.0162   1.3161740904e+02   5.0723387589e+01    0.4691516    0.1773255 -58.40  0.002411605    2.158    0.537
       335  -9.5678    138.5640    115.5924   9.4537198804e+01   3.1771202793e+01    0.1477279    0.1462018  29.17 8.790747e-05    1.015    0.015
       336 -10.3572    107.7229    113.9150   1.0213008852e+02   3.8234949143e+01    0.2274414    0.1979412  29.64 0.0002163287    1.248    0.198
       337 -11.8232    120.6999    112.2635   9.8265893326e+01   3.6133609533e+01    0.2561357    0.2495651 -82.91 0.0002508374    1.031    0.030
       338 -12.1957     74.6305    111.9768   1.1096984193e+02   4.4074392346e+01    0.2461892    0.2234569  63.82 0.0003063719    1.160    0.138
       339 -10.2161     37.9782    111.7396   1.2151910722e+02   4.8503162147e+01    0.1873531    0.1542267 -75.27  0.001201852    1.034    0.033
       340 -10.9642     37.5757    107.7697   1.2100102243e+02   4.9460514771e+01    0.6281434    0.2765191 -78.04  0.002664656    2.610    0.617
       341 -10.9083     29.5353    112.3681   1.2402244639e+02   4.9133537610e+01    0.3594447    0.2196486  37.25  0.002084706    1.845    0.458
       342 -10.6430    149.9544    111.2076   9.0659203263e+01   3.0217068520e+01    0.2411661     0.213782 -42.62 0.0002872881    1.130    0.115
       343 -10.6251     86.0307    109.7677   1.0722022445e+02   4.2870828793e+01    0.3720833    0.2492145  86.12  0.001484578    2.206    0.547
       344 -11.3618     20.3631    109.8001   1.2626739697e+02   5.0472358699e+01    0.2958693    0.1739339 -46.05  0.001479918    1.782    0.439
       345 -10.9599      2.5383    104.5012   1.3065658256e+02   5.2857974604e+01     0.302856     0.128068 -73.47  0.001598767    1.802    0.445
       346 -12.1360    161.0992    102.7571   8.5833074381e+01   2.9379433290e+01    0.2713457    0.2689967  42.55 0.0003145478    1.030    0.029
       347  -9.6126    123.6943    103.2845   9.5183647284e+01   3.7468254012e+01    0.1481529    0.1198636  88.35 0.0002024032    1.562    0.360
       348 -10.2222     74.7484    103.3623   1.0907770296e+02   4.6041891349e+01    0.1813143    0.1343735  22.73 0.0009478551    1.625    0.384
       349 -10.3043     70.1966    102.4557   1.1023818707e+02   4.6892539013e+01    0.3073278    0.1475764 -45.02  0.001318022    2.084    0.520
       350 -11.3786     43.4539    101.9215   1.1823656367e+02   5.0230807513e+01     0.359661    0.2584672 -61.72  0.001118893    1.178    0.151
       351 -11.9736     52.7567    100.9450   1.1521395972e+02   4.9445816217e+01     0.490297    0.3549311  11.47   0.00177493    1.820    0.451
       352 -11.4019     55.5015     97.0205   1.1356204885e+02   5.0030427154e+01    0.2220263    0.2025118  55.84 -0.000304372    1.223    0.182
       353 -10.0661     29.1890    103.1723   1.2274537580e+02   5.1279936464e+01     0.177515    0.1399145 -58.83 0.0003219591    1.133    0.118
       354  -9.7252     18.9469    103.3191   1.2579597774e+02   5.2058383322e+01    0.1910944   0.05545323  46.67 0.0003710093    4.508    0.778
       355 -10.0777      8.7731    102.9842   1.2870813848e+02   5.2826456912e+01    0.1824212     0.111255 -50.16 0.0002393361    1.577    0.366
       356 -10.0178      9.0286    100.0000   1.2826227637e+02   5.3484058402e+01     0.182876    0.1187011  71.91 0.0005608909    1.666    0.400
       357 -10.7163    135.1831    101.5450   9.1739869212e+01   3.5423307588e+01    0.2988908    0.2342587 -21.12 0.0002557549    1.466    0.318
       358 -11.6034     82.2830     94.0301   1.0458196276e+02   4.7028193706e+01    0.4921969    0.2738553 -34.89 0.0008927779    2.165    0.538
       359 -10.2693     85.3586    100.2759   1.0520270193e+02   4.5136435048e+01    0.2328238    0.2256708  66.32 0.0006334103    1.097    0.088
       360 -10.6688     86.5920     97.1715   1.0407141090e+02   4.5637885561e+01    0.3289398    0.2191048  31.16  0.001160983    1.696    0.411
       361 -12.9103    106.4292     97.6804   9.8426551521e+01   4.2060436396e+01    0.3210872    0.2855436  41.17 0.0007546517    1.172    0.147
       362 -11.1226     36.5119     98.5190   1.1974766341e+02   5.1697118324e+01    0.2733257    0.1607384 -76.92  0.001186326    1.674    0.403
       363 -10.0405      4.2731     98.7856   1.2950345353e+02   5.4040407215e+01    0.1895127    0.1208134  87.44  0.001177013    1.471    0.320
       364 -10.9854     62.6906     95.9826   1.1109652183e+02   4.9379577958e+01    0.2371078    0.1977959  67.95 0.0003701133    1.371    0.271
       365 -10.0446     47.1590     94.8482   1.1572774633e+02   5.1472853108e+01     0.177446    0.1320142 -44.36  0.001030818    1.303    0.232
       366 -11.3333     24.6032     90.7677   1.2212717742e+02   5.4494141985e+01    0.2376517    0.1516172 -85.19  0.001030659    1.617    0.381
       367 -10.4934    106.4758     91.4720   9.6729792989e+01   4.3394021463e+01    0.3704153    0.2280404  61.41  0.001257537    2.236    0.553
       368 -10.5446    114.0055     90.9545   9.4455007902e+01   4.2039977409e+01    0.2227255    0.2203433 -32.83 0.0004066622    1.027    0.026
       369 -10.9328      7.0473     90.0449   1.2754209881e+02   5.5843846181e+01    0.3065655    0.1870536  72.58  0.001459507    1.898    0.473
       370 -12.3212      9.4580     85.8302   1.2617491894e+02   5.6648635531e+01     0.229039    0.1863433 -63.36 0.0002784354    1.070    0.066
       371 -10.4235     88.0956     89.2922   1.0157440380e+02   4.7142437577e+01    0.3285198     0.208788 -25.25   0.00143822    2.118    0.528
       372 -11.8773     77.8865     88.1421   1.0443056674e+02   4.9020667836e+01    0.2666851    0.2090584 -51.05 0.0003252485    1.165    0.142
       373 -10.8843     63.4406     87.0483   1.0876357896e+02   5.1310747234e+01    0.2520638    0.2155335 -36.17 0.0005699604    1.160    0.138
       374 -10.2445    154.4485     86.2645   8.2741636422e+01   3.4089249376e+01     0.312912    0.2169947 -12.44  0.001319547    1.902    0.474
       375 -10.4454     30.0000     86.5202   1.1961579267e+02   5.5021907288e+01    0.3471583    0.1525465 -61.21  0.001693556    1.801    0.445
       376 -10.5160     26.5714     84.4933   1.2036411667e+02   5.5762982293e+01    0.4274848    0.1969074 -77.82  0.001610755    2.513    0.602
       377 -10.7027    128.4466     86.1633   8.9149983023e+01   4.0021374773e+01    0.3542682    0.1659729  34.73  0.001224603    2.753    0.637
       378 -10.3658     42.6619     80.0092   1.1400665628e+02   5.5315221027e+01    0.3501121    0.3036504  46.39   0.00166189    1.357    0.263
       379 -10.1794     47.8467     85.6394   1.1354090759e+02   5.3499988947e+01    0.2198544    0.1822179  45.28 0.0003912448    1.396    0.284
       380 -11.3499     50.0201     83.2135   1.1226198055e+02   5.3807372340e+01    0.3500289    0.1939049  36.51  0.001578178    2.043    0.511
       381 -10.6076     53.3128     82.6535   1.1102780185e+02   5.3555627744e+01    0.2557355    0.1718961 -78.46  0.001043081    1.809    0.447
       382  -9.9485    118.4791     84.4881   9.1345153846e+01   4.2473668232e+01    0.1492211    0.1449725 -36.70  5.64559e-05    1.025    0.024
       383 -10.3380     98.2296     84.0468   9.7046856248e+01   4.6512570323e+01    0.2143181     0.185393 -21.76 0.0004748445    1.205    0.170
       384 -10.4968    132.4192     82.6435   8.7067153470e+01   3.9847939491e+01    0.3221841    0.1780711  47.50  0.001157483    1.832    0.454
       385 -10.0824     19.9817     81.9776   1.2209508716e+02   5.6828497627e+01    0.1832808    0.1496821 -65.13 0.0005304543    1.028    0.027
       386 -11.1845     77.1008     80.9362   1.0274137732e+02   5.0725567219e+01     0.214448    0.1884881 -35.57  0.000614268    1.079    0.074
       387  -9.3647    101.4731     79.4446   9.4724216522e+01   4.6878143553e+01    0.1451088     0.138237 -32.38 5.670292e-05    1.013    0.013
       388 -10.0974     68.1824     78.8077   1.0507535943e+02   5.2497172008e+01    0.1928458    0.1765108 -61.34 0.0005206455    1.114    0.102
       389 -10.1989     96.5058     77.5507   9.5653695106e+01   4.8191483709e+01    0.2561217    0.1378516  29.26 0.0009692133    2.365    0.577
       390 -11.9052     52.0253     74.8449   1.0951609061e+02   5.5440802014e+01    0.4290685    0.3449028 -25.90  0.002579503    1.305    0.234
       391  -9.9018      3.6283     77.1324   1.2676372945e+02   5.8907972609e+01    0.1782762   0.07504161 -60.71 0.0009445479    1.714    0.416
       392  -9.9703    131.0746     75.3085   8.5173197201e+01   4.1564141288e+01    0.2068924    0.1871356  48.60 0.0002805992    1.131    0.116
       393  -9.9465     81.0555     74.6378   9.9650375140e+01   5.1455948706e+01    0.2032977    0.1710603  63.78 0.0007253122    1.461    0.316
       394  -9.6565     69.0518     73.9759   1.0343502174e+02   5.3421526519e+01     0.200321    0.1638725 -88.85 0.0006693952    1.596    0.373
       395 -11.2927     59.3971     73.8606   1.0669911228e+02   5.4754591641e+01    0.3128991    0.2290245  40.98  0.001212148    1.567    0.362
       396  -9.8564    152.1843     73.1338   7.9334846945e+01   3.7037610425e+01     0.204817    0.1828678 -82.96 0.0005816476    1.284    0.221
       397  -9.8668     35.7092     72.1520   1.1460757848e+02   5.7739876582e+01     0.160441    0.1572104 -81.27 0.0005959363    1.194    0.162
       398  -9.7194    106.7542     70.3981   9.0347639037e+01   4.7680844129e+01    0.2072634    0.1366014  31.25 0.0006574229    1.697    0.411
       399 -10.9707     53.1197     69.6608   1.0774523035e+02   5.6441351986e+01    0.2345234    0.1866372 -55.08 0.0002874246    1.149    0.130
       400 -10.9548     44.7019     69.3602   1.1068074829e+02   5.7457166072e+01    0.4024296    0.2229068 -28.11  0.001504967    2.290    0.563
       401 -10.9049     47.8690     63.1018   1.0780750299e+02   5.8454341379e+01    0.2124992    0.1609238 -52.77 0.0003726545    1.173    0.148
       402 -10.3657     87.9610     69.0621   9.5705258105e+01   5.1456013454e+01    0.2187035     0.194884 -15.82  0.000476277    1.112    0.101
       403 -10.2125     79.9767     69.3841   9.8409191287e+01   5.2727519548e+01    0.1872556    0.1756075 -14.99 0.0005271856    1.062    0.058
       404  -9.6903     58.4948     69.4924   1.0579507933e+02   5.5813029025e+01    0.1352204    0.1161609 -39.52 -2.615939e-05    1.032    0.031
       405  -9.9398     14.4816     65.5209   1.2086369650e+02   6.0846745794e+01    0.2120801    0.1306798  57.05  4.20692e-05    2.272    0.560
       406 -11.0454     22.0264     67.5517   1.1851746768e+02   5.9887345744e+01    0.3437688     0.242691  85.56  0.001139499    1.787    0.440
       407  -9.8423     17.4788     66.9649   1.2006031580e+02   6.0335732435e+01    0.1723271   0.09541958 -61.53 -6.674525e-05    1.419    0.295
       408  -9.7683     75.4643     66.5116   9.9024186392e+01   5.4034665406e+01    0.1392143    0.1246585 -32.37 4.940851e-05    1.006    0.006
       409 -10.8604      1.3816     65.9814   1.2573458544e+02   6.1464116750e+01    0.1744356   0.08751941 -69.25 0.0004003679    1.555    0.357
       410  -9.7837    112.2359     65.5699   8.7180012103e+01   4.7490855609e+01    0.2014365     0.136752  31.59 0.0005628165    1.619    0.382
       411  -9.9057     52.2973     65.5990   1.0689941309e+02   5.7410055696e+01    0.1303189    0.1002313 -88.40 0.0006996866    1.818    0.450
       412  -9.6692    102.3795     62.7816   8.9147427868e+01   5.0015563720e+01    0.2140631    0.1308185 -29.53  0.000945336    1.729    0.422
       413 -10.5947      9.6036     62.9171   1.2214679165e+02   6.1705445414e+01    0.1912656    0.1751111 -75.54 0.0005660435    1.210    0.173
       414 -11.4983      6.1983     59.2826   1.2270279496e+02   6.2675330109e+01    0.2442793     0.211035  -6.74 0.0007364376    1.398    0.285
       415 -10.1135     77.5251     61.9782   9.6868981165e+01   5.4627675467e+01    0.2144574    0.1268231 -45.24  0.000538459    1.560    0.359
       416 -10.4747     16.3211     61.1902   1.1924584127e+02   6.1668054723e+01    0.2479179    0.1626511  89.40  0.001419581    1.963    0.491
       417  -9.6596    169.4868     60.9526   7.1872320288e+01   3.4813355064e+01    0.2176939     0.149654 -32.39 -9.006567e-05    1.459    0.315
       418 -10.9841     68.6829     60.7760   9.9542033745e+01   5.6230840578e+01    0.3643945    0.2348625  36.82  0.001533259    1.704    0.413
       419 -10.0488     39.1169     60.1838   1.1027045883e+02   6.0003737390e+01     0.204095    0.1491965 -37.27  0.000761929    1.226    0.184
       420 -10.4306     48.1494     58.8544   1.0645529587e+02   5.9314300788e+01    0.1830616    0.1693415 -61.24 0.0004759187    1.207    0.171
       421  -9.9580     31.3887     59.1592   1.1295726115e+02   6.0947449570e+01    0.1672316    0.1053842 -66.99 0.0004114707    1.607    0.378
       422 -12.0371     27.4794     55.8273   1.1359554041e+02   6.1987234724e+01      0.46548    0.2590919 -29.41  0.001130886    1.970    0.492
       423 -10.9438     21.8510     57.3050   1.1619256534e+02   6.2115127091e+01    0.2535614    0.1961457  40.43  0.001425498    1.632    0.387
       424  -9.9117    110.8803     57.1821   8.4721433631e+01   4.9311197708e+01    0.2138532    0.1987529 -64.67 0.0004741547    1.243    0.195
       425 -10.7243    103.1137     56.0145   8.6596386114e+01   5.1119994365e+01    0.3629718    0.2591338   8.34  0.001483276    1.779    0.438
       426 -10.1220     78.9613     56.4524   9.4518977567e+01   5.5477561664e+01     0.219643    0.1716143 -36.05 0.0005999646    1.170    0.146
       427 -10.8049     52.7605     56.3869   1.0395155924e+02   5.9274626598e+01    0.2918674    0.1664596 -63.54 0.0005975686    2.205    0.546
       428  -9.7744    225.8637     55.8314   6.1216502603e+01   2.1556983274e+01    0.1895559    0.1545347 -63.31 0.0002790243    1.261    0.207
       429  -9.4047    181.5170     55.9963   6.8100345715e+01   3.2530058103e+01    0.2053027    0.1164517 -54.57 0.0004158462    2.167    0.539
       430 -10.6091    132.7648     55.9383   7.8423814292e+01   4.4640804882e+01    0.2382965    0.2113411  47.81 0.0004007003    1.129    0.114
       431  -9.7564     58.4766     56.6070   1.0188355715e+02   5.8500034444e+01    0.1316187    0.1141219 -28.99 -0.0001507184    1.034    0.033
       432 -10.7970    119.8340     53.1951   8.0830507535e+01   4.8060400166e+01    0.4687771    0.2641812  16.41  0.001575065    3.488    0.713
       433 -12.0319     40.3678     52.7032   1.0759148971e+02   6.1434829496e+01    0.3683868     0.293859  -7.86   0.00233726    1.344    0.256
       434 -10.6001     83.2440     51.4041   9.1281402082e+01   5.5699085791e+01    0.1862136    0.1328575  50.95 0.0009485767    1.668    0.400
       435 -10.4619     65.6824     49.9464   9.6953813061e+01   5.8801480748e+01    0.2912957     0.155922 -50.48  0.001217858    1.896    0.472
       436  -9.5710    128.9695     49.9885   7.7321889266e+01   4.6501915089e+01    0.1779424    0.1677181  -8.87 0.0004007288    1.041    0.039
       437 -11.0291     98.1166     49.8058   8.5892392155e+01   5.3215361994e+01    0.2769341    0.2377964  87.12  0.000766519    1.605    0.377
       438 -11.1961     12.5368     50.6765   1.1828169801e+02   6.4145961055e+01    0.2420897    0.1257998  10.02  0.001349223    2.445    0.591
       439 -10.5270     16.3128     48.0337   1.1604764050e+02   6.4454306111e+01    0.3309971    0.1108523 -44.76  0.001524102    2.366    0.577
       440 -11.2553     12.2452     46.0618   1.1723522380e+02   6.5124069742e+01    0.2861249    0.2143691 -79.72 0.0007143819    1.548    0.354
       441 -10.0405     60.9442     51.5062   9.9258109427e+01   5.9178074186e+01     0.216295    0.1557545 -40.28 0.0009391715    1.222    0.182
       442 -10.4726    122.7692     46.1402   7.7540381377e+01   4.8546546613e+01    0.2426726    0.2294834  -0.96 0.0005593319    1.024    0.023
       443 -11.4828     61.7639     44.7408   9.6535934807e+01   6.0350749856e+01    0.2384181    0.1982174 -26.20 0.0002927104    1.044    0.042
       444 -10.3114     21.6427     44.9648   1.1294778810e+02   6.4702196580e+01    0.1744234    0.1206731 -53.42 0.0005853547    1.195    0.164
       445 -10.2980     80.8909     43.1978   8.9026291998e+01   5.7575379780e+01    0.2345943    0.1803237 -18.78 0.0002848163    1.256    0.204
       446 -11.4555     56.3628     41.7043   9.7492878238e+01   6.1667330399e+01    0.4042973    0.2167335 -29.43  0.001121117    1.947    0.486
       447  -9.7543     34.1405     44.3897   1.0749259385e+02   6.3736844915e+01    0.1589886    0.1099942  39.87 0.0009396643    1.835    0.455
       448  -9.4068    199.7090     43.7019   6.1543129697e+01   2.9651586283e+01    0.1442008    0.1103428  27.77 0.0002007617    1.560    0.359
       449  -9.8065    163.4950     43.0235   6.7375444733e+01   3.9026397717e+01    0.2099635    0.1475076 -28.75 0.0003173334    1.458    0.314
       450 -10.6680    141.4979     42.4254   7.1703697760e+01   4.4648350534e+01    0.2460774    0.2373617  28.28 0.0001059253    1.010    0.010
       451  -9.9854     70.1809     41.7879   9.2281339878e+01   5.9613390319e+01    0.1823294    0.1401088 -14.99  0.000477626    1.271    0.213
       452 -10.2863     92.6931     41.0091   8.4277343842e+01   5.5760956059e+01    0.2058361     0.176995 -14.54  0.001172389    1.084    0.077
       453 -10.3968     20.0463     41.1435   1.1249672824e+02   6.5594363416e+01    0.2640483    0.1627654  24.35   0.00137811    1.920    0.479
       454  -9.7882     24.1962     39.6152   1.1020478267e+02   6.5572584586e+01    0.2101355    0.1161168  15.60 0.0008618381    2.158    0.537
       455 -11.5115      9.6674     39.3421   1.1653825614e+02   6.6650961486e+01    0.3128688    0.2110052 -27.13  0.001805779    1.434    0.303
       456  -9.5569     39.3913     40.2116   1.0386402449e+02   6.4015286808e+01    0.1217332   0.08269574 -12.82 0.0006829615    1.614    0.380
       457 -11.1229    103.6304     38.8563   8.0102033860e+01   5.3889906268e+01    0.2312961    0.2277744  19.53   0.00037141    1.148    0.129
       458 -10.8800      4.6962     37.0861   1.1813801554e+02   6.7381019052e+01    0.2665851     0.175416 -73.04  0.001191969    1.619    0.382
       459  -9.6539     41.2595     36.7238   1.0180474084e+02   6.4468037481e+01    0.2685953    0.1844014 -73.63  0.001357974    2.618    0.618
       460  -9.7215    239.3507     36.3150   5.4642309386e+01   2.0969093539e+01    0.1349512     0.101273  29.86 0.0007046773    1.729    0.422
       461 -11.0222    193.8481     35.2685   5.9956059578e+01   3.2247235420e+01    0.2348326    0.2208938 -28.46 0.0003127129    1.105    0.095
       462 -10.1294    130.1298     36.3780   7.2162921923e+01   4.8270853777e+01    0.3925109    0.1368835  56.71  0.001345203    2.828    0.646
       463 -10.9597    119.8468     34.3194   7.3922308111e+01   5.0976555986e+01    0.2890624    0.2547477 -67.82  0.001182417    1.392    0.282
       464 -10.3410     60.8293     34.2468   9.2831429701e+01   6.2359903063e+01     0.226023    0.1589484 -42.38 0.0008807548    1.398    0.284
       465 -10.3290     29.2943     34.3835   1.0616917253e+02   6.6138724680e+01    0.2389986    0.2034355 -84.45 0.0008486006    1.735    0.424
       466 -10.6415     25.2459     30.8625   1.0673321286e+02   6.7168383600e+01    0.3896594    0.1701719  19.54   0.00193917    2.770    0.639
       467 -11.5711    139.8771     32.8572   6.8689866883e+01   4.6373212930e+01     0.497422    0.3520593  50.70  0.001423552    1.336    0.251
       468 -10.1379     91.9567     33.5518   8.1551677974e+01   5.7078619106e+01    0.2076201    0.1737415 -18.59 0.0005813348    1.126    0.112
       469 -11.5897     77.5843     33.2145   8.6199685831e+01   5.9814218765e+01    0.3032466     0.250184  61.04  0.001023925    1.644    0.392
       470 -10.7992     55.7090     34.1106   9.4802497377e+01   6.3118600989e+01    0.2395608    0.1828692  48.94 0.0009618506    1.753    0.430
       471 -10.9245    206.4742     31.5306   5.7183611527e+01   2.9507784938e+01    0.2399993    0.2199367  78.70 0.0005591902    1.068    0.064
       472 -11.5354    107.0844     30.2930   7.5750695332e+01   5.4403716242e+01    0.4094775    0.2845955   0.33   0.00113466    1.653    0.395
       473  -9.8209     86.6284     37.7322   8.4954396816e+01   5.7449058635e+01    0.1858378    0.1216224 -41.56 0.0003741314    1.570    0.363
       474 -10.4645     34.0935     30.4505   1.0255071566e+02   6.6397019149e+01    0.2487867     0.233983 -85.30  0.001744327    1.544    0.352
       475 -10.3330     37.2790     27.0119   9.9746290045e+01   6.6668082304e+01    0.2127727    0.1773492 -46.68  0.001060794    1.342    0.255
       476 -10.2922    158.9853     29.9867   6.3924681477e+01   4.1907760174e+01    0.2164399    0.2089226  43.26 0.0003379213    1.021    0.020
       477  -9.7532     19.2715     29.3645   1.0897785381e+02   6.7946503066e+01    0.1473983    0.1271344 -56.03 0.0004963404    1.321    0.243
       478 -11.4989    130.0919    241.3045   1.1772744011e+02   9.5731990402e+00    0.2203418    0.1740395  71.69  0.001193583    1.362    0.266
       479  -9.9964     71.2101     28.3042   8.6415265540e+01   6.1682393081e+01    0.2674461    0.1062281  35.79  0.001080847    2.759    0.638
       480 -10.9465     99.4525     26.9042   7.6549264516e+01   5.6505333573e+01    0.6662155    0.2070012  48.42  0.002385989    2.992    0.666
       481 -10.1584    101.5388     23.5260   7.4550801272e+01   5.6509687867e+01    0.2003649    0.1279034 -12.87 0.0009676223    1.689    0.408
       482 -10.9498    246.6223     31.1786   5.2658564511e+01   1.9940793750e+01    0.2367205    0.2109663 -22.38  0.000604791    1.222    0.182
       483 -10.7897    242.9749     25.2715   5.1578674747e+01   2.1467465607e+01     0.214878    0.1722385 -40.41  0.000705883    1.157    0.135
       484 -12.0191      1.9020     25.5002   1.1607303972e+02   6.9802300923e+01    0.2662185     0.132852 -57.27 0.0002887347    1.577    0.366
       485 -10.9575      9.9682     22.9518   1.1120411593e+02   6.9815848836e+01    0.1910011    0.1394688 -40.96 0.0007026267    1.043    0.041
       486 -10.1339      5.8077     23.2397   1.1338922891e+02   7.0019234127e+01    0.1803054    0.1279069 -41.42  0.001267049    1.047    0.045
       487 -12.1043    137.3829    246.2017   1.1696761876e+02   7.7554527956e+00    0.4356437    0.2883312  45.90   0.00193037    1.165    0.141
       488 -11.2207    131.6129     23.3538   6.7006625263e+01   4.9596750555e+01    0.4511297    0.2228222 -33.54  0.001926426    2.061    0.515
       489  -9.8978     89.9885     24.5234   7.8411935162e+01   5.8769085017e+01    0.1967435    0.1296331  47.76 0.0006147579    1.541    0.351
       490 -12.0101    117.9693     22.6317   6.9870033386e+01   5.2939927850e+01    0.3987803    0.2430571  45.95 0.0001907093    1.525    0.344
       491 -10.2325     66.0988     22.5319   8.5783066064e+01   6.3405739103e+01    0.1980611    0.1539081 -20.70 0.0006639507    1.148    0.129
       492  -9.6266     25.8359     22.9030   1.0338345037e+02   6.8564003229e+01    0.1458962    0.1314913 -45.25  0.000629716    1.347    0.258
       493 -12.2189    146.7400    243.1871   1.1496683724e+02   6.7558202409e+00    0.3928558    0.3498541 -53.92  0.001988375    1.442    0.306
       494  -9.8177     78.7092     22.0754   8.1038442296e+01   6.1270049374e+01    0.1828468    0.1506388  -8.73            0    1.093    0.085
       495 -10.4028    143.8261    238.2186   1.1490525699e+02   7.9205079224e+00    0.2116261    0.1612007  28.00 0.0007547824    1.354    0.261
       496 -11.4185     38.6909     21.2480   9.6651916365e+01   6.7486927952e+01    0.3896318    0.2758165  30.61  0.001873869    1.589    0.371
       497 -11.2389     34.6350     18.3977   9.7257845641e+01   6.8423478081e+01    0.3139194    0.2466059 -16.32  0.001158067    1.054    0.051
       498 -10.8847    182.3659     18.8360   5.6668840183e+01   3.7150362304e+01    0.2646241    0.2381697   6.81 0.0008897216    1.246    0.198
       499  -9.1173     52.6663     20.7265   9.0309631059e+01   6.5744447933e+01     0.127725   0.08561654  -1.44 0.0001906956    1.598    0.374
       500 -10.6721    198.3504     18.6407   5.4559779086e+01   3.3063649373e+01    0.2197114    0.1470491 -62.95 0.0006569389    1.600    0.375
       501 -10.6107     92.7839     18.6155   7.5007115955e+01   5.8973292672e+01      0.26267    0.1797959 -29.98  0.001077788    1.471    0.320
       502 -10.9138    139.3867    237.1885   1.1558764081e+02   8.7617036097e+00    0.3336861    0.1807868  48.22  0.001924009    1.515    0.340
       503 -11.1428    101.9789    246.0385   1.2316474171e+02   1.2965621036e+01    0.3785177    0.1348983  53.30  0.001398977    2.590    0.614
       504 -10.2500    175.5403     17.4717   5.7201802757e+01   3.9066591020e+01    0.1413205    0.1316147  59.43 -2.589298e-05    1.046    0.044
       505  -9.9290    158.0121     17.3167   5.9842140480e+01   4.3621182678e+01    0.1964889     0.175714  63.21 0.0004001581    1.053    0.050
       506  -9.9898     87.1098    231.1119   1.2445399011e+02   1.7452887539e+01    0.3407561   0.09854717  46.43 0.0007571232    2.638    0.621
       507  -9.2381     99.7188     17.7092   7.2612235348e+01   5.7623523653e+01    0.1387931   0.09480297  20.60  0.000186588    1.529    0.346
       508 -11.5868     85.4787    245.3384   1.2595547693e+02   1.5342923543e+01    0.2100849    0.1514025  59.55 0.0005418792    1.063    0.059
       509  -9.8304     61.2338     17.6261   8.5406665279e+01   6.4904747194e+01    0.1774876    0.1072669  27.93 0.0009437843    1.685    0.407
       510 -11.7331     92.1036    242.1497   1.2454127356e+02   1.4951170086e+01    0.3673916    0.2576702  17.27  0.002007085    2.464    0.594
       511 -12.4288     94.6165    238.6161   1.2378698213e+02   1.5171091888e+01    0.7921247    0.4345391  66.44  0.004647615    1.917    0.478
       512 -12.6156     83.7815    237.8831   1.2563523112e+02   1.6776242680e+01    0.3745839    0.1780933  49.32 0.0004561812    1.626    0.385
       513 -10.1115    185.5788     13.7429   5.4710278672e+01   3.6861584805e+01    0.1858709    0.1236341 -40.85 0.0002859006    1.520    0.342
       514 -10.1105    139.2903     14.0477   6.2002451038e+01   4.8728175053e+01    0.1866507    0.1772577   7.71 0.0003100346    1.088    0.081
       515  -9.8820     14.0170     15.0000   1.0603377898e+02   7.0958594500e+01    0.1602128   0.06184119  22.28 0.0008025334    2.943    0.660
       516 -10.8121    148.0847     13.2749   6.0131584286e+01   4.6585481053e+01    0.2434304    0.1539578  48.37  0.001176722    1.470    0.320
       517 -10.5002     76.0885    246.0018   1.2760830981e+02   1.6474762440e+01    0.3383201    0.1389667  39.50  0.001512051    2.094    0.522
       518 -12.8624     75.7252    241.1811   1.2730265240e+02   1.7301651989e+01    0.4028978    0.2570831  62.62 0.0007972814    1.270    0.213
       519 -11.3918    200.3018    244.9483   1.0578379696e+02  -1.7389108118e+00    0.2125494    0.1673346  21.67  0.000365602    1.098    0.089
       520 -10.5693    197.5597    240.7297   1.0566787681e+02  -8.1999346231e-01    0.1759292    0.1636855  30.11 0.0004280327    1.302    0.232
       521 -11.5626    202.2881    240.2803   1.0478407604e+02  -1.4927543597e+00    0.3837267    0.1666811  38.90  0.002042592    1.808    0.447
       522 -10.7679    163.9280    245.2888   1.1217244447e+02   3.8128823905e+00    0.3359545    0.1512734  37.47  0.001793889    1.793    0.442
       523  -9.7195    216.2425    244.9710   1.0307353941e+02  -4.1280649270e+00    0.1468869     0.117147  17.98 0.0003421499    1.100    0.091
       524  -9.5177    186.5262    245.4818   1.0823776909e+02   3.0009344726e-01    0.1162962   0.08926717  34.79 0.0008095048    1.039    0.038
       525  -9.7985     66.7393    245.3342   1.2913563158e+02   1.7773166136e+01    0.1480379    0.0896799  76.77 0.0002594032    1.558    0.358
       526 -11.2858     63.0062    243.8473   1.2965864817e+02   1.8478951289e+01    0.2261735    0.1906864  72.58  0.001168684    1.225    0.184
       527 -10.3183    246.5355     10.5347   4.7770086707e+01   2.2304272417e+01    0.1289679    0.1083786 -62.24 1.526175e-05    1.029    0.028
       528 -10.4654    190.9800    241.5648   1.0693077780e+02   9.4181047357e-02    0.2583259    0.1578401 -63.31  0.001298345    3.739    0.733
       529 -11.2491    182.9178    241.6123   1.0835067080e+02   1.3397020915e+00    0.3892269    0.2223499  27.96  0.001244577    1.651    0.394
       530 -10.2226    104.6750    240.5139   1.2217955789e+02   1.3445399526e+01    0.1883197     0.120046  78.23  0.001173164    1.831    0.454
       531 -11.5535    167.8601    238.8006   1.1065112735e+02   4.0680810658e+00    0.2168686    0.1862513  42.37 0.0003969667    1.131    0.116
       532 -10.8775    109.7392    238.9967   1.2113036206e+02   1.2953267201e+01    0.2198999    0.1850697 -44.00 0.0008870243    1.659    0.397
       533  -9.7871    172.4809    239.4843   1.0991539917e+02   3.2490795713e+00    0.1186872   0.09279487  39.34 5.972169e-05    1.052    0.050
       534  -9.4705    180.4631    238.4850   1.0836188494e+02   2.1245680328e+00    0.1515284    0.1101037 -18.22 2.627363e-05    1.753    0.429
       535 -10.8572    178.7437    234.0030   1.0805486085e+02   2.9867837517e+00    0.2657764    0.1555054  50.50 0.0003980115    1.704    0.413
       536 -10.5515    187.5432    236.3832   1.0681561331e+02   1.2803323939e+00    0.1924258    0.1697764   2.26  0.001074991    1.243    0.196
       537 -10.7936    102.2931    234.5611   1.2203366912e+02   1.4741984189e+01     0.237394    0.1880482 -77.65 0.0009895089    1.423    0.297
       538 -10.5581    105.9899    235.1239   1.2142089018e+02   1.4116286870e+01     0.167675    0.1307442  54.26 0.0002875524    1.010    0.010
       539 -10.5766    132.7367    234.9863   1.1654226802e+02   1.0122519069e+01    0.1939397    0.1354345  46.28 0.0005099254    1.133    0.117
       540 -10.2709    231.2906    233.8274   9.8872309027e+01  -5.1295257255e+00    0.1902909    0.1292156  38.35  0.001260008    1.381    0.276
       541 -10.5799    112.4643     15.5247   6.8361349629e+01   5.5037789975e+01    0.2625175    0.2179385  23.81 0.0005716876    1.131    0.116
       542  -9.1842    212.2926    234.3046   1.0217842285e+02  -2.3220842382e+00    0.1171836    0.0751719  14.80 0.0003633003    1.576    0.365
       543 -10.2867    197.1127    233.5131   1.0471203920e+02   1.3565287772e-01    0.1661986    0.1581624  14.06  0.000457059    1.296    0.228
       544 -10.2531    172.8661    233.7580   1.0908034267e+02   3.9585250766e+00    0.1856137    0.1546896  -2.69  0.001285091    1.406    0.289
