#   1 NUMBER                 Running object number                                     
#   2 MAG_AUTO               Kron-like elliptical aperture magnitude                    [mag]
#   3 X_IMAGE                Object position along x                                    [pixel]
#   4 Y_IMAGE                Object position along y                                    [pixel]
#   5 X_WORLD                Barycenter position along world x axis                     [deg]
#   6 Y_WORLD                Barycenter position along world y axis                     [deg]
#   7 A_WORLD                Profile RMS along major axis (world units)                 [deg]
#   8 B_WORLD                Profile RMS along minor axis (world units)                 [deg]
#   9 THETA_WORLD            Position angle (CCW/world-x)                               [deg]
#  10 FWHM_WORLD             FWHM assuming a gaussian core                              [deg]
#  11 ELONGATION             A_IMAGE/B_IMAGE                                           
#  12 ELLIPTICITY            1 - B_IMAGE/A_IMAGE                                       
         1  -9.4154     39.4527      7.7876   9.7833100259e+01   6.7811744200e+01    0.3067016    0.2442124   8.27  0.001792433    1.128    0.114
         2  -9.1629     35.2023     20.0011   1.0478765046e+02   6.6820054302e+01    0.3067691    0.2199474 -29.72  0.002142679    1.304    0.233
         3 -10.7291     39.2375     29.9762   1.0710481289e+02   6.4958540270e+01    0.6873429    0.3343646 -40.76  0.003755887    1.915    0.478
         4 -11.7120     44.2538     21.2149   1.0165738050e+02   6.5569641430e+01    0.9369348    0.8040226 -62.25  0.006317243    2.129    0.530
         5 -11.9893     82.0859      7.5971   8.3204868738e+01   6.1124873168e+01     1.896668    0.9855804   5.88  0.009161341    2.604    0.616
         6 -11.3004    109.3404      4.1455   7.5088868679e+01   5.5995094737e+01     1.483054    0.3500506  59.60  0.005283351    3.637    0.725
         7 -11.1814    131.8473      3.2367   7.0337545206e+01   5.1104678408e+01     1.276975     0.387431  63.51  0.005008307    2.796    0.642
         8 -11.0832    120.8608      3.8323   7.2590846796e+01   5.3523682331e+01     1.001649    0.6072369  88.89  0.004872316    2.481    0.597
         9 -13.8681    166.0212     10.5284   6.7045346827e+01   4.2389606502e+01     3.376433     1.713024  63.35   0.01655456    1.652    0.395
        10  -9.6662    116.6815     18.4844   7.8465463676e+01   5.3096392990e+01    0.5077937     0.248515 -29.61  0.002454373    2.208    0.547
        11  -9.3379    117.4846     14.4729   7.6908614846e+01   5.3319573779e+01    0.2502881    0.2018576 -15.04  0.000976281    1.363    0.266
        12  -8.9712    113.4985     14.5003   7.7805449005e+01   5.4181542921e+01    0.2382546    0.1962354  40.14 0.0009602938    1.048    0.046
        13 -11.2952    156.0399     20.6216   7.1468764461e+01   4.3771889192e+01    0.9516656    0.3794055  58.17  0.003164318    2.090    0.522
        14  -9.5502     94.0725     17.6999   8.3782503127e+01   5.7858451938e+01    0.4128308    0.3141952  63.01  0.001868822    1.555    0.357
        15 -10.5547    248.9704     15.7511   5.9183727805e+01   2.2297735695e+01    0.4358695     0.307282 -40.11  0.002702646    1.498    0.332
        16  -9.7885    249.9919      4.7338   5.6925395145e+01   2.3366758763e+01    0.5184003    0.1913992 -36.25  0.002468682    2.635    0.620
        17 -10.3992    245.0728      2.7425   5.6907264444e+01   2.4653202564e+01    0.3801831    0.3084215 -56.64  0.002625602    1.235    0.190
        18  -8.6400     20.1412     14.2046   1.0883497064e+02   6.9162837604e+01    0.4168177    0.1698219 -24.67  0.002102977    2.653    0.623
        19  -8.9496     69.6357     13.8266   8.9508171618e+01   6.2700374422e+01      0.28735    0.2147743 -34.96  0.001859462    1.598    0.374
        20  -9.4468    103.6114     12.0745   7.9257371469e+01   5.6497531307e+01    0.3740239    0.3117543  27.83  0.001852508    1.072    0.067
        21 -10.3070     71.3990      5.3420   8.5451416314e+01   6.3239968514e+01    0.5285865     0.317994  40.47  0.002248613    1.429    0.300
        22  -9.8392     60.8246      3.0307   8.7866193057e+01   6.5212299701e+01    0.5115457    0.3784538   4.71   0.00356318    1.167    0.143
        23  -8.4354     54.9479      7.7280   9.1935285442e+01   6.5664960740e+01    0.2769373     0.136945  45.59  0.001077761    2.099    0.524
        24  -9.4384    229.7941      6.0601   5.8824983981e+01   2.7682565176e+01    0.1977084    0.1821288  14.98  0.001342164    1.611    0.379
        25  -8.2854     49.2428      6.6068   9.3524577341e+01   6.6615821407e+01    0.2014357    0.1156663  27.41 0.0008350274    1.549    0.355
        26  -8.6584     52.1861      2.2381   9.0511048525e+01   6.6622956899e+01    0.3145172    0.1795893   0.61  0.001864658    1.826    0.452
        27  -9.6656    213.6550      5.1032   6.0089749226e+01   3.1505212560e+01    0.2597773     0.183796 -82.64  0.001559388    1.230    0.187
        28  -9.6089     10.4506     26.0731   1.1774882083e+02   6.8238843473e+01      0.33357    0.1352782 -43.19  0.001906869    1.902    0.474
        29  -8.5320     26.4166      2.4675   1.0087764801e+02   6.9967763604e+01    0.2284109    0.1430285 -30.82  0.001592121    1.566    0.362
        30 -11.1074    128.2012     17.5893   7.5686097271e+01   5.0625495888e+01    0.9147506     0.589649  46.73  0.004227327    1.366    0.268
        31  -8.4956     16.9421      1.6850   1.0478443670e+02   7.1048830844e+01    0.1594938    0.1238588  21.75 0.0007827049    1.508    0.337
        32  -8.3134     40.2689      1.4427   9.4639209414e+01   6.8382142053e+01    0.2372654    0.0956809  41.42  0.001271145    2.467    0.595
        33  -8.6384     46.6787     61.6786   1.1510925046e+02   5.8819915689e+01    0.3115512    0.1625286 -30.75  0.001344265    1.967    0.492
        34  -8.8129     75.9320     60.6692   1.0473187357e+02   5.5036362993e+01     0.282773     0.206655  12.77  0.001564565    1.488    0.328
        35  -8.0095     15.8667     58.1575   1.2542048057e+02   6.2295303396e+01    0.1664829    0.1022063 -37.75   0.00105314    1.317    0.240
        36  -8.8667    198.1137     54.9907   7.4097599694e+01   2.8926724771e+01    0.2189076    0.2007968 -84.45 0.0005907698    1.021    0.021
        37  -8.1622     65.4741     52.0083   1.0535394240e+02   5.8104626649e+01    0.2572207    0.1574622  52.55  0.001273341    2.426    0.588
        38  -8.2105     34.7531     52.4162   1.1664117741e+02   6.1769947366e+01    0.1944996    0.1096176  29.07   0.00111422    1.979    0.495
        39  -7.9488     22.7951     52.5836   1.2124578058e+02   6.2809671084e+01       0.1374    0.1050812  29.84 0.0009370993    1.617    0.381
        40 -10.4566     83.8172     47.9968   9.7901403805e+01   5.5828325527e+01    0.6315097    0.4884636  65.42  0.003123058    1.898    0.473
        41  -8.6337    110.7695     46.0799   8.9390796725e+01   5.0959460045e+01    0.3798039    0.1639391 -27.84   0.00150964    2.666    0.625
        42  -8.4960     97.4807     43.9181   9.2341796150e+01   5.3935619432e+01    0.1946254    0.1273186 -30.05  0.000981455    1.544    0.352
        43 -10.4317      3.6335     39.6603   1.2507063034e+02   6.6433048482e+01    0.5762349    0.3315251 -37.12  0.003008688    1.311    0.237
        44  -9.0824     12.3355     34.2005   1.1973095357e+02   6.6797804368e+01    0.3754306    0.1780495 -43.86  0.002084109    1.627    0.385
        45  -9.6884    188.8573    246.7145   1.1786962254e+02  -4.3535361113e+00    0.2258335    0.1436721 -24.12  0.001214593    2.088    0.521
        46 -10.1441     51.0104     36.3591   1.0497640069e+02   6.2573787344e+01    0.5901247    0.4128089 -49.90  0.003549111    1.847    0.458
        47  -9.9664    167.9893    241.1964   1.2102696633e+02   9.9194748306e-02    0.2572134    0.1687054 -71.43  0.001303126    2.393    0.582
        48  -9.9310    162.5783    244.1062   1.2249528764e+02   5.6432808671e-01     0.313442    0.1619033  54.82   0.00147807    2.078    0.519
        49 -10.1791    181.7216    245.8367   1.1908803166e+02  -3.0096937632e+00    0.2561125    0.2009473  76.16  0.001512267    1.783    0.439
        50  -8.6430     69.5600     37.0704   9.8627743374e+01   5.9810449937e+01       0.2535    0.2049492 -10.55  0.001624936    1.100    0.091
        51  -8.4783     27.4694     35.5391   1.1390006015e+02   6.5328919642e+01    0.2043753    0.1623959 -17.21 0.0008635048    1.052    0.050
        52  -9.5212     66.6132     30.5175   9.7156614178e+01   6.1180520951e+01       0.4961    0.2183668 -28.86  0.002362434    2.290    0.563
        53  -9.9152     87.7720     30.7020   9.0439485317e+01   5.7555895733e+01     0.460231    0.2838371  17.91   0.00236466    1.872    0.466
        54 -10.2971    225.1566     29.0539   6.4292549236e+01   2.6015717154e+01    0.4194362    0.2796112  64.82   0.00142939    1.450    0.310
        55  -9.2077    160.4952    240.0732   1.2231471674e+02   1.5971822728e+00    0.1777947     0.130735 -50.06  0.001037214    1.603    0.376
        56 -10.3637    209.2249    224.3829   1.1032583884e+02  -4.4133787987e+00    0.2838584    0.2297316   0.70   0.00154904    1.269    0.212
        57  -9.2631    239.1017    203.4374   1.0088614092e+02  -6.2367915351e+00    0.2565639    0.1718739 -51.31  0.001342357    1.959    0.490
        58 -12.6792    241.0536    133.2820   8.5907636603e+01   5.4444715390e+00     1.565395     1.210481  52.99  0.005200247    1.425    0.298
        59  -9.6397     41.0504    141.8432   1.3424796703e+02   4.1904096875e+01     0.300877      0.20956  46.66  0.001752819    1.588    0.370
        60 -10.8896     12.0564    127.1805   1.3962446508e+02   4.7899471096e+01    0.3940887    0.1917004 -60.97  0.002171172    1.577    0.366
        61  -8.5483     22.8078    125.6865   1.3659949854e+02   4.7395778399e+01    0.1845813    0.1298225 -63.68  0.001145152    1.139    0.122
        62  -8.6287    110.6618     16.3055   7.9092037312e+01   5.4611283734e+01    0.2587194    0.1862241  59.84  0.000890706    1.368    0.269
        63 -11.6439     10.8992    139.8119   1.4147805395e+02   4.5125415921e+01    0.5772772    0.3812697 -73.38  0.003684548    1.167    0.143
        64  -8.0604     19.2715     22.0122   1.1236178819e+02   6.8145608422e+01    0.1945603    0.1178895  -2.02  0.001266493    1.630    0.387
        65 -10.3665     10.0561    117.0720   1.3877553393e+02   5.0313526848e+01    0.3164819    0.2593302  -7.01  0.002229151    1.612    0.380
        66  -9.0284     93.4921    118.4797   1.1548563270e+02   4.0208811553e+01    0.1461513    0.1364181 -62.25  0.000810225    1.018    0.018
        67 -10.0225     17.4023    103.9586   1.3466820830e+02   5.2710470172e+01    0.4664196    0.2251676 -65.58  0.002473563    1.668    0.401
        68  -8.1918     68.6759    106.3445   1.1980528112e+02   4.6813516748e+01    0.1389254    0.1056512  84.58 0.0007050429    1.737    0.424
        69  -9.4682     30.1808    101.9961   1.3050099156e+02   5.2119635305e+01    0.2867776    0.1866576 -49.64  0.001428419    1.291    0.225
        70  -9.0137    104.7043     25.8426   8.3951045830e+01   5.4836346719e+01    0.4176084    0.2045474  57.29  0.001928999    2.106    0.525
        71  -8.9909     64.2742     16.1273   9.2230973501e+01   6.3322287334e+01    0.2066486    0.1810562  32.94 0.0007915674    1.316    0.240
        72  -8.9810      2.3063     89.0206   1.3666387930e+02   5.6895790367e+01     0.324205     0.165397 -71.84  0.001836826    1.732    0.423
        73  -8.9656    226.5177     14.8308   6.1002399499e+01   2.7439660099e+01    0.4202304    0.1529327  81.28  0.001602858    3.186    0.686
        74 -11.7484     43.4079     82.2739   1.2193154540e+02   5.5106802619e+01    0.9799592    0.7648393 -13.74  0.004792321    1.387    0.279
        75  -8.9442     19.9158     88.3520   1.3099940683e+02   5.5913746064e+01    0.2332724    0.1827568 -71.27  0.001558272    1.260    0.206
        76  -8.5779    125.0164     29.0076   8.0142153509e+01   5.0101184517e+01     0.277363    0.2038451 -29.39  0.001548698    1.477    0.323
        77  -9.3994    227.8171     78.5396   7.5413434561e+01   1.8031650906e+01    0.3889643    0.3181235  -5.16  0.002026922    1.710    0.415
        78  -9.9806     24.5021     65.3427   1.2413981029e+02   6.0265868002e+01    0.6169665    0.1992001 -50.12  0.002842818    2.299    0.565
        79 -11.3724     14.0117     73.5278   1.2981495790e+02   5.9406744370e+01    0.8269294    0.6863022 -42.45  0.006051727    1.083    0.077
        80 -10.3799      3.4891     75.7966   1.3385662046e+02   5.9576840352e+01    0.5342394    0.3181224 -59.18  0.002719566    1.283    0.220
        81  -7.8094     71.3046     80.6684   1.1234904848e+02   5.1949480597e+01      0.12893    0.1073474 -87.02 0.0007037243    1.658    0.397
        82  -7.7229    204.3073     76.6303   7.8609801140e+01   2.3929473314e+01    0.1606588    0.1071646 -69.18 0.0007034761    1.759    0.432
        83  -8.7932     82.3393     70.2191   1.0571342277e+02   5.2273766389e+01    0.4808983     0.233958  21.63  0.001730743    3.582    0.721
        84  -8.6443     97.1281     28.6460   8.6991548220e+01   5.6028624787e+01    0.5432594    0.2685266  -9.42  0.002173047    3.284    0.696
        85  -9.5100     74.0944     68.6611   1.0787640539e+02   5.3871115075e+01    0.4740382    0.3480031   8.04  0.002596149    1.549    0.354
        86  -8.1155     33.7301     68.5481   1.2169126667e+02   5.8838642067e+01    0.2074889     0.118458  16.07  0.001142587    2.087    0.521
        87  -9.0963     16.5629     64.0966   1.2669011435e+02   6.1106390518e+01    0.2764563    0.1554173 -64.57  0.001576543    1.831    0.454
        88  -9.0766     49.8364     62.1631   1.1413262563e+02   5.8364559981e+01    0.2686641    0.2023219 -19.35  0.001656708    1.260    0.206
