#   1 NUMBER                 Running object number                                     
#   2 MAG_AUTO               Kron-like elliptical aperture magnitude                    [mag]
#   3 X_IMAGE                Object position along x                                    [pixel]
#   4 Y_IMAGE                Object position along y                                    [pixel]
#   5 X_WORLD                Barycenter position along world x axis                     [deg]
#   6 Y_WORLD                Barycenter position along world y axis                     [deg]
#   7 A_WORLD                Profile RMS along major axis (world units)                 [deg]
#   8 B_WORLD                Profile RMS along minor axis (world units)                 [deg]
#   9 THETA_WORLD            Position angle (CCW/world-x)                               [deg]
#  10 FWHM_WORLD             FWHM assuming a gaussian core                              [deg]
#  11 ELONGATION             A_IMAGE/B_IMAGE                                           
#  12 ELLIPTICITY            1 - B_IMAGE/A_IMAGE                                       
         1 -12.4298      4.2768    155.6548   1.4131462185e+02   4.2148659611e+01     1.767983    0.4406009 -76.10  0.006726004    3.240    0.691
         2 -11.9833     68.5818     26.2315   8.7377503633e+01   6.3085596893e+01    0.9626477    0.4829542  30.23  0.004436995    2.128    0.530
         3 -11.3109    242.9607     16.7894   5.3488757616e+01   2.3214497011e+01     1.565696    0.2791782  63.16   0.00552392    4.690    0.787
         4  -9.9759     77.2010     10.6682   7.7415404774e+01   6.3194901514e+01    0.2664748    0.1715265 -17.01  0.001496746    1.659    0.397
         5 -10.1967    248.6939      3.3714   5.0405345926e+01   2.3508881936e+01    0.3272813    0.2496542 -70.56 0.0006647765    1.017    0.016
         6  -8.1409     46.8066      6.3685   8.6661698469e+01   6.9216181493e+01    0.1754693   0.09160252  33.72 0.0009523712    1.692    0.409
         7  -8.6560     80.9683      3.1771   7.2906036661e+01   6.3088198014e+01    0.1664539    0.1371387 -46.07  0.001042994    1.581    0.368
         8  -8.5504     41.1459      2.3461   8.7055332168e+01   7.0542193929e+01     0.238389   0.08319949  37.28  0.001090355    2.561    0.610
         9  -7.1606    147.2832      1.2807   5.9059397557e+01   4.7599301009e+01    0.1297716   0.08611811  46.55 0.0006927878    1.514    0.340
        10  -9.9053     99.0668    226.2887   1.2624149341e+02   1.4571392732e+01    0.2768665    0.1957754  -4.68  0.001322344    2.714    0.631
        11 -12.2641    238.9730    245.4841   1.0095674176e+02  -1.0297141612e+01    0.6966387    0.3494608  30.99  0.004040034    1.719    0.418
        12  -8.9743     12.2007    218.9427   1.4372849446e+02   2.7297748309e+01    0.2584798    0.1254118 -74.62  0.001484025    1.879    0.468
        13 -10.0430      5.4365    229.2821   1.4552863818e+02   2.5859972670e+01    0.3238138    0.1493267  87.95  0.001875148    1.869    0.465
        14  -8.4902    102.6922    215.6563   1.2413879382e+02   1.6152492173e+01    0.1275337    0.1067958 -11.30 0.0007043591    1.694    0.410
        15  -9.4880    249.6092    211.7077   9.3345384363e+01  -7.3683647160e+00     0.290097    0.1333725 -28.75  0.001466812    2.056    0.514
        16  -9.5174     13.4276    207.7888   1.4284601889e+02   2.9528357139e+01    0.2949359    0.1735239 -58.89  0.001745737    1.973    0.493
        17  -7.9249    124.0046    205.9939   1.1794471468e+02   1.4583811821e+01    0.1952213    0.1765901  45.06  -0.01509786    1.037    0.036
        18 -11.2793     11.4185    192.9615   1.4234103844e+02   3.2961736726e+01    0.7258421    0.2236147 -64.29  0.003220582    2.894    0.654
        19 -11.2616      2.0694    179.6244   1.4353931620e+02   3.6763189602e+01    0.9463015     0.194989 -77.28   0.00343088    3.919    0.745
        20  -8.7630     12.7556    249.0306   1.4511238205e+02   2.1323808504e+01    0.2176609   0.09989679  56.99  0.001332532    1.601    0.375
        21 -10.2239    212.6222    156.3965   8.9094228841e+01   7.5471053883e+00    0.2558235    0.2423351  21.01 0.0004395841    1.098    0.090
        22  -7.8029     98.1979    148.7922   1.1457375716e+02   3.2269163641e+01    0.1965956    0.1730318 -32.12 0.0002671087    1.293    0.226
        23  -8.2066    109.4810    190.4949   1.1898081935e+02   2.0440973092e+01    0.1454046     0.130522  60.04 6.368762e-05    1.020    0.020
        24  -8.6480    231.9499    138.9131   8.1845992350e+01   6.9502711477e+00    0.2033189    0.1820668 -23.24  0.000370032    1.029    0.029
        25  -7.7250    217.5668    137.7500   8.4074516989e+01   9.9555401811e+00    0.2011166    0.1274378 -47.61 0.0009369593    1.594    0.373
        26 -11.3297      3.9337    198.0750   1.4423618544e+02   3.2505197432e+01    0.5973501    0.3915538 -70.72  0.003890046    1.483    0.326
        27 -10.0907    101.0071    176.0034   1.1875414941e+02   2.5226625583e+01    0.2076633    0.1918223  66.89   -0.0213525    1.003    0.003
        28  -9.2055    243.9002    168.2588   8.6010772082e+01  -5.0128880619e-02    0.2977377    0.2068017  40.91 0.0008115892    1.587    0.370
        29  -9.2711    244.6027    163.3142   8.4890975327e+01   6.2574940168e-01    0.2744995    0.2252451  17.52 0.0005141544    1.251    0.201
        30 -10.8708      3.8342    191.3043   1.4386696044e+02   3.4000584926e+01    0.4992557    0.3235434 -63.50  0.003165205    1.618    0.382
        31  -8.9544    244.8125    158.3714   8.3844213393e+01   1.3885795493e+00    0.2470521    0.1922955  42.43 0.0004905629    1.455    0.313
        32  -7.8161     30.9647    117.5229   1.2921327686e+02   4.9268056245e+01    0.2962661    0.1076539 -41.37  0.001049452    3.543    0.718
        33  -9.0352    248.8296    112.9368   7.3593677252e+01   8.1300981075e+00    0.1993826    0.1711715 -16.72 0.0005400872    1.247    0.198
        34  -8.2526     47.9917    102.0172   1.2050192232e+02   5.1289101587e+01    0.2629986    0.1064099 -43.68 0.0009662902    2.533    0.605
        35  -7.6811    173.1331     91.8662   8.1283188385e+01   2.8550170274e+01    0.1985956    0.1821499  12.10  0.000251684    1.251    0.200
        36  -7.8895     66.0011     91.9846   1.1165059634e+02   5.1285356143e+01    0.2776696    0.1337623 -34.02  0.001026186    2.714    0.632
        37  -7.7740     56.4736     90.0089   1.1457209113e+02   5.3067555034e+01    0.2161254     0.127012 -53.21  0.001017788    1.553    0.356
        38  -9.5579    229.1570     83.5045   6.9720494976e+01   1.6926352139e+01    0.2425479    0.2361861 -85.20 0.0004191156    1.136    0.119
        39  -9.1137    233.9030     79.2378   6.8107026125e+01   1.6585051408e+01    0.2660777    0.1993349  32.24  0.001056761    1.852    0.460
        40  -8.8600     52.5820     81.0304   1.1361864577e+02   5.5603920776e+01    0.3860088    0.1858638 -35.81  0.001593338    2.332    0.571
        41  -9.6779     39.3560     79.1665   1.1827032593e+02   5.7557898920e+01    0.4077558    0.2331494  62.78  0.001640549    3.470    0.712
        42  -8.5310    115.8799     73.9002   8.9830677534e+01   4.5685387551e+01    0.2164949    0.2086462  24.64 0.0002997094    1.014    0.013
        43  -7.8926     67.6177     69.6416   1.0443328466e+02   5.5892880317e+01    0.2823642    0.1217841 -42.81   0.00113436    2.213    0.548
        44  -8.3136     60.8386     69.2414   1.0689936146e+02   5.7005514640e+01    0.2712411    0.1607516 -25.64  0.001221129    2.016    0.504
        45  -7.8955    182.9573     77.4642   7.5486961919e+01   2.8714859216e+01    0.2203427    0.1304439  86.81 0.0008095378    2.638    0.621
        46  -7.6879     81.3541     68.8321   9.9151427472e+01   5.3724825449e+01    0.2128615    0.1264625 -33.77 0.0008000053    1.749    0.428
        47  -9.0190    173.7630     65.9938   7.4002893617e+01   3.2916771037e+01    0.3352318    0.2418956  63.66  0.001624055    1.346    0.257
        48  -7.5600     90.7737     67.2136   9.5373592466e+01   5.2259120320e+01    0.2355934    0.1125239 -31.70 0.0007238443    2.487    0.598
        49  -8.0424     56.5798     64.2420   1.0695266287e+02   5.8634408391e+01    0.1985008    0.1144594 -37.37  0.000948278    1.653    0.395
        50  -8.7852    247.0160     60.5107   6.2402263426e+01   1.6646710681e+01     0.184878    0.0990574 -79.74 0.0008104771    2.568    0.611
        51  -7.6007     74.6999     60.6487   9.8733254270e+01   5.6476048716e+01    0.1467939    0.1041875  -7.10 0.0007037537    1.694    0.410
        52  -9.5120     44.6430     57.6905   1.0972034559e+02   6.1510875543e+01    0.2417947    0.2022794 -77.04  0.001416618    1.674    0.403
        53  -9.1138    248.4303     54.4269   6.0948225206e+01   1.7219864841e+01    0.2680146    0.1191245  66.43  0.001254981    2.384    0.581
        54  -7.5579     79.3213     53.9956   9.4649435631e+01   5.6849978488e+01    0.2279608    0.1071259 -21.09 0.0007042102    4.225    0.763
        55 -11.5435     60.3069     49.6425   1.0027274276e+02   6.0854837558e+01    0.7823852    0.4604079 -10.73  0.003431016    2.478    0.596
        56  -7.1801    128.9628     51.9834   7.9131208917e+01   4.6353086492e+01    0.1752612    0.1575565  52.43 0.0003429183    1.042    0.040
        57 -10.8473     53.0492     47.9542   1.0264397796e+02   6.2237691308e+01    0.5146478    0.2466847 -36.37   0.00237278    2.015    0.504
        58  -8.7696    227.0256     48.1390   6.1790320012e+01   2.2729238466e+01    0.2131173    0.1440518  42.25  0.001091286    2.027    0.507
        59  -8.0875     91.0156     47.2365   8.8120193083e+01   5.5685454124e+01    0.2918882    0.1733784  -7.55  0.001180209    2.642    0.622
        60  -8.0164     70.0000     46.9133   9.5411272737e+01   5.9732684938e+01     0.220594    0.0741398 -39.99 0.0008055461    2.964    0.663
        61  -7.4966     21.6402     44.6715   1.1585926687e+02   6.6430505223e+01    0.1347261   0.07461587 -25.79 0.0007042178    1.791    0.442
        62  -9.8591    249.4619     41.4366   5.8096404838e+01   1.8779221998e+01    0.2885833    0.1598998 -28.58  0.001467254    2.082    0.520
        63  -8.5489     76.6463     41.2345   9.0707118856e+01   5.9446793942e+01    0.3184011    0.1825884  15.63  0.001332311    2.565    0.610
        64 -10.4707     67.7682     36.5668   9.2111230521e+01   6.1771620879e+01    0.4769343    0.1967612 -42.68  0.001984279    2.710    0.631
        65  -9.4976    224.0345     34.9680   5.9079762368e+01   2.5169531119e+01    0.3300912    0.2276465 -41.04  0.001035865    1.397    0.284
        66  -8.7230    239.0173     33.5077   5.7338530191e+01   2.2025861950e+01    0.1789484    0.1143818  78.46 0.0004563109    1.522    0.343
        67  -9.8920    249.2772     27.8083   5.5279307422e+01   2.0563597738e+01    0.2787966    0.2170079 -15.46  0.001717065    1.864    0.463
        68 -10.3018    200.4793    245.3247   1.0797348153e+02  -4.8921779984e+00    0.3544277    0.2636634 -38.48  0.002281569    1.625    0.385
        69  -7.7842    196.9192     28.1578   6.0361003745e+01   3.2445952591e+01    0.1764488    0.1470415  58.90 0.0003724581    1.291    0.225
        70  -9.8964      3.4973    243.9318   1.4650817274e+02   2.3212264431e+01     0.436896    0.1736096  83.97   0.00241405    2.262    0.558
        71  -9.5694      1.8202    237.4763   1.4653860046e+02   2.4604148424e+01     0.228678    0.1387442  84.21 0.0005977129    1.322    0.243
        72  -9.0919    150.3950    222.8033   1.1464690769e+02   6.7617804357e+00    0.2345638    0.2004099  30.90 0.0004041574    1.052    0.050
        73  -9.3278      2.0268    221.8566   1.4582139931e+02   2.7672728357e+01    0.2910995    0.1324877 -80.29  0.001686663    1.900    0.474
        74 -10.7223     88.7049    240.9012   1.3000628279e+02   1.3307387381e+01    0.4239524    0.2417412 -45.99  0.002189656    2.524    0.604
        75  -9.8543      2.2824    214.0189   1.4540177576e+02   2.9258613297e+01    0.3525102    0.1625279 -76.76  0.002023894    1.891    0.471
