#   1 NUMBER                 Running object number                                     
#   2 MAG_AUTO               Kron-like elliptical aperture magnitude                    [mag]
#   3 X_IMAGE                Object position along x                                    [pixel]
#   4 Y_IMAGE                Object position along y                                    [pixel]
#   5 X_WORLD                Barycenter position along world x axis                     [deg]
#   6 Y_WORLD                Barycenter position along world y axis                     [deg]
#   7 A_WORLD                Profile RMS along major axis (world units)                 [deg]
#   8 B_WORLD                Profile RMS along minor axis (world units)                 [deg]
#   9 THETA_WORLD            Position angle (CCW/world-x)                               [deg]
#  10 FWHM_WORLD             FWHM assuming a gaussian core                              [deg]
#  11 ELONGATION             A_IMAGE/B_IMAGE                                           
#  12 ELLIPTICITY            1 - B_IMAGE/A_IMAGE                                       
         1 -11.4205     80.9973     30.2213   4.2265413989e+01   5.9622192119e+01    0.6004018    0.2430726 -38.85  0.002529483    2.587    0.613
         2 -11.3682     38.9724     19.6464   5.4117148710e+01   6.7631089238e+01     0.637794    0.3916502  51.31  0.003280902    3.048    0.672
         3 -10.3462     38.8447     13.8561   5.1507264676e+01   6.8467851960e+01    0.1884776    0.1507682 -18.82            0    1.169    0.145
         4 -10.8660     35.3026     12.0429   5.2273742211e+01   6.9157949003e+01    0.2648303    0.1989993 -42.24 0.0004175912    1.697    0.411
         5 -10.9243      2.3188      6.0675   6.6599201598e+01   7.3160433240e+01    0.2855963     0.201619 -53.60  0.001759876    1.795    0.443
         6 -11.0498     14.3483     16.8243   6.4806542177e+01   7.0582039095e+01    0.3496142     0.185137 -49.00  0.001137443    1.854    0.461
         7 -10.4448     11.5869     11.7851   6.4062997298e+01   7.1598415006e+01    0.2011159    0.1345025 -37.04  0.001397299    1.266    0.210
         8 -10.9095      7.9331      8.8760   6.4733443428e+01   7.2329876996e+01    0.2921407    0.2451769 -72.49 0.0004221766    2.266    0.559
         9 -11.2067     26.0370     13.1121   5.7233016909e+01   7.0062875302e+01     0.248842    0.1916161 -13.03 0.0009222002    1.026    0.026
        10 -10.7380    203.5164     11.5542   1.1630347392e+01   3.2942918089e+01    0.2285122    0.2142597  60.78 0.0006288718    1.224    0.183
        11 -10.1408    185.1655     12.2040   1.3869458131e+01   3.7401405982e+01    0.1944538    0.1700922  64.15  0.000481326    1.136    0.120
        12 -11.3115    125.9504     10.9149   2.2750455923e+01   5.2186682647e+01    0.2440527     0.219833 -66.83            0    1.291    0.225
        13 -10.0714    123.4953      6.4447   2.1626800592e+01   5.3175921447e+01    0.2267149    0.1281757 -24.51 0.0007444678    1.940    0.485
        14 -10.3997    124.7112      3.3390   2.0268957423e+01   5.3155375811e+01    0.1934602    0.1839879 -12.71 0.0005936794    1.186    0.157
        15 -10.8349     91.0436     10.3430   3.0843363011e+01   6.0026227740e+01    0.3494849    0.3344704 -30.49   0.00168039    1.283    0.221
        16 -10.1489     96.0214     10.3058   2.9465247165e+01   5.8990558758e+01    0.2725426     0.219564  42.79  0.001116068    1.111    0.100
        17  -9.6983     54.4958      4.9950   4.0554853901e+01   6.7299416155e+01    0.1695042    0.1050247 -20.30 0.0007225623    1.519    0.342
        18 -11.4195     52.6981     11.3368   4.4348454465e+01   6.6851504502e+01    0.2750695    0.2219139  41.35  0.001558669    1.503    0.335
        19 -12.4404     55.8320      9.4527   4.2196994113e+01   6.6587189968e+01    0.2524485    0.1935503  10.19 0.0003152725    1.085    0.079
        20  -9.5471    164.8038     10.8523   1.6155343654e+01   4.2640242782e+01    0.1846939    0.1452731 -69.65 0.0004757868    1.337    0.252
        21  -9.7794    100.8871     10.8252   2.8406243083e+01   5.7898518501e+01     0.163885    0.1468262  67.63  0.000352713    1.282    0.220
        22 -10.7095     43.9398     10.5643   4.7661333197e+01   6.8223227086e+01    0.2671867    0.2117253  32.86  0.001821455    1.434    0.303
        23 -10.0040    133.0811     10.3334   2.1161897449e+01   5.0535069595e+01    0.1909879    0.1580198  64.24 0.0003863457    1.116    0.104
        24 -10.0490    116.4820      8.5601   2.3857191215e+01   5.4621317699e+01     0.241104    0.1304885 -20.48  0.001173598    2.039    0.510
        25 -11.8903     29.6408      6.6864   5.2350504286e+01   7.0552234977e+01    0.3496582    0.2021826 -33.33  0.001253156    1.582    0.368
        26 -10.3464     38.9834      3.7282   4.6453138067e+01   6.9738268369e+01    0.3103039    0.1123947  42.03  0.001460834    2.960    0.662
        27  -9.8802     36.2467      8.0251   4.9875150743e+01   6.9570767424e+01    0.2079315    0.1203155 -32.01 0.0009210412    1.602    0.376
        28  -9.9831     34.5975      4.3964   4.8815826683e+01   7.0236067198e+01    0.2418442    0.1516515  46.72  0.001178557    2.357    0.576
        29 -12.2901     19.8271      2.7984   5.5355530184e+01   7.2143759080e+01    0.4141023    0.1965129 -19.78  0.002103687    2.171    0.539
        30 -10.1122    247.1485      5.9100   6.5330296525e+00   2.3482346848e+01    0.1817421    0.1285617 -67.27 0.0003046984    1.169    0.144
        31 -11.1132    222.5293      5.3635   8.3412975487e+00   2.9075130910e+01    0.2940398    0.2302235  19.58  0.001729314    1.935    0.483
        32  -9.9103    151.2367      6.1728   1.6710551419e+01   4.6467735345e+01    0.2245201    0.1468083  42.34 0.0007715788    1.550    0.355
        33  -9.6411    111.7403      6.4006   2.4073602869e+01   5.5900827823e+01    0.1940746    0.1003835  49.50 0.0009422153    1.632    0.387
        34 -11.1154    194.0252      4.7583   1.0885482653e+01   3.5963515283e+01    0.2125441    0.1949003 -76.79 0.0002693572    1.102    0.093
        35  -9.8583    190.3634      3.7510   1.1009700994e+01   3.6961620676e+01    0.1767085    0.1610847 -53.84 0.0004675056    1.179    0.152
        36 -10.6278    104.5488      4.3289   2.4901681262e+01   5.7693451183e+01    0.2125571     0.188068  52.65 0.0002853432    1.127    0.112
        37  -8.7740     79.4444      5.5024   3.2132915399e+01   6.2818285409e+01    0.1261994    0.1046748  22.36 0.0008080286    1.006    0.006
        38 -10.3937     70.8102      4.9642   3.4640185115e+01   6.4499796520e+01    0.1865735    0.1347325  17.65 0.0002454433    1.226    0.185
        39 -10.6775     48.2755      4.4255   4.2780798982e+01   6.8327414507e+01    0.4023641      0.24896 -22.30  0.001946286    1.497    0.332
        40 -10.3137     44.0358      4.2088   4.4466678095e+01   6.8975957458e+01    0.2334412    0.1459238  28.24  0.001452949    1.446    0.309
        41 -10.0524     84.4079      2.8040   2.9468528421e+01   6.2085089935e+01    0.2223611    0.1454585  -2.00  0.001264719    1.594    0.373
        42 -10.0302     12.9887      2.8571   5.9070390191e+01   7.2794354936e+01    0.2154446    0.1558883  41.39  0.001450942    2.299    0.565
        43  -9.9443    210.6006      2.2524   8.6516427113e+00   3.2203446145e+01    0.1472843    0.1252374 -19.94 0.0002014405    1.470    0.320
        44 -11.1055    148.5539      2.3874   1.5913962970e+01   4.7462685607e+01    0.2434107    0.2109822  76.84 0.0004725003    1.077    0.072
        45  -9.9584    138.0840      1.6856   1.7329894500e+01   5.0084806557e+01    0.1833909    0.1503798  58.27 0.0004534502    1.055    0.052
        46 -10.5498      7.9076      1.4708   6.1219032260e+01   7.3424669509e+01    0.1393573   0.09976166   0.05 0.0003579447    1.230    0.187
        47 -10.1978    245.0806      1.4226   5.7400646406e+00   2.4419629644e+01    0.1686062    0.1034383  80.95 0.0005045982    1.489    0.329
        48 -10.7511     29.9060      1.3598   4.9485987730e+01   7.1192183614e+01    0.2055042   0.09421315  32.49 0.0006267025    2.118    0.528
        49  -9.8240      1.0000    104.8995   9.1421514349e+01   5.3287538042e+01    0.1965558   0.05304627 -72.01    0.0003451    2.828    0.646
        50 -11.4400     24.4523    248.9021   9.7811116892e+01   2.0235174291e+01     0.322588    0.1334731  64.32  0.001871363    1.978    0.494
        51 -11.7623     17.8809    248.3942   9.8850101026e+01   2.1034577875e+01    0.3412479    0.2345022  20.12  0.002251563    2.702    0.630
        52 -11.9687      2.2733    233.3014   1.0068144104e+02   2.5368324666e+01    0.4974285    0.2615161 -83.69  0.002123292    1.582    0.368
        53 -11.2970      2.6269    247.9425   1.0124130921e+02   2.2667403239e+01    0.3727773    0.2483029  52.02  0.002524759    1.350    0.259
        54 -12.5582      9.8947    245.4366   9.9991204354e+01   2.2393030022e+01    0.5677198    0.2462139 -75.34  0.002994749    2.110    0.526
        55 -11.4680      4.6212    243.2335   1.0073344211e+02   2.3315994069e+01    0.3693607     0.147512  59.33  0.001461489    1.843    0.457
        56 -12.0212      6.5297    239.9848   1.0028681216e+02   2.3719602085e+01    0.3092988    0.2106814 -88.91  0.001882694    1.278    0.218
        57  -9.4326     67.9321    104.0081   7.0467717946e+01   4.7260135183e+01    0.1641585    0.1538124 -52.75 0.0003706091    1.043    0.041
        58 -10.7807    247.8112    102.1181   2.8020579522e+01   9.6858567290e+00    0.2191099    0.1739876 -52.19  0.001221352    1.211    0.174
        59 -11.3204     19.7025     99.5801   8.4942068238e+01   5.3345545802e+01     0.496768    0.2631232  58.94  0.002399978    2.678    0.627
        60  -9.8098     20.9985     92.4886   8.3294586216e+01   5.4889405256e+01    0.1906264    0.1361601 -35.46 0.0005664023    1.444    0.307
        61  -9.9231     24.2360     90.3809   8.1825110823e+01   5.5129643485e+01    0.1928584    0.1444667 -48.98 0.0003185765    1.155    0.134
        62  -9.8101     61.2779     99.3495   7.1501831520e+01   4.9242416568e+01    0.1445477   0.09578007 -34.17 0.0007008545    1.641    0.390
        63  -9.4325    217.8176     98.3806   3.1782837145e+01   1.6768993467e+01     0.199293    0.1363212  43.68 0.0005704922    1.618    0.382
        64 -10.0703     37.5313     97.0879   7.8739745643e+01   5.2432787459e+01    0.2025288     0.110897 -62.07 0.0005438555    1.543    0.352
        65 -12.4861     57.7290     92.0739   7.0929997716e+01   5.1376971107e+01    0.3599538    0.2875587 -59.56 0.0004134553    1.164    0.141
        66  -9.9032     43.5252     94.4971   7.6221397244e+01   5.2438745148e+01    0.1339179    0.1131952 -53.70 0.0002246709    1.009    0.009
        67 -10.3556     17.7394     94.6120   8.4734177927e+01   5.4633532670e+01    0.3008277    0.1652759 -75.91  0.001586916    1.717    0.418
        68 -11.0538    125.2931     92.9966   5.0395029556e+01   3.9466983475e+01    0.2613765    0.2222469  42.75 0.0002258934    1.196    0.164
        69 -10.1425    114.1814     91.5362   5.3071934505e+01   4.2115317104e+01    0.2925731     0.222115  10.44  0.001151564    1.698    0.411
        70 -10.9878    105.3010     91.6999   5.5703681114e+01   4.3848853372e+01     0.335847    0.2100509  48.10  0.001483299    1.716    0.417
        71 -11.8581    159.6478     89.3773   4.0766942265e+01   3.2289147516e+01    0.3720414    0.2847388  27.90 0.0001000832    1.535    0.348
        72 -10.9029     66.7123     91.6119   6.7833281113e+01   5.0301153105e+01    0.2423472    0.2125624 -43.18 0.0002646453    1.031    0.030
        73 -10.3288      7.8345     91.1960   8.7384547254e+01   5.6040307420e+01    0.1697834    0.1373373 -71.69 0.0004855915    1.093    0.085
        74  -9.7656      1.4297     89.9971   8.9270096736e+01   5.6652843251e+01    0.2463562   0.06758312 -61.78  0.001090308    2.360    0.576
        75  -9.5895     46.5172     90.5189   7.4328214131e+01   5.3039232500e+01    0.1352671    0.1137585 -48.04 0.0008098576    1.037    0.036
        76 -13.8026     65.4094     81.8702   6.5669957926e+01   5.2658963563e+01    0.4456133    0.4256784 -68.27 0.0008547296    1.167    0.143
        77 -10.4134      6.8709     83.4634   8.6436020928e+01   5.7837199943e+01    0.2406199    0.2177574  70.44    0.0017627    1.333    0.250
        78 -11.4809      6.1060     73.8943   8.4988745970e+01   5.9996102077e+01    0.6462304    0.1253127  24.20  0.002511813    5.103    0.804
        79 -10.7129      9.6470     79.9641   8.4862151520e+01   5.8462458717e+01    0.2524695    0.1751709  46.74  0.001582349    1.847    0.459
        80 -11.1711     11.3986     76.7747   8.3642038045e+01   5.9067067553e+01     0.232312    0.1522028 -24.69  0.001046091    1.688    0.407
        81  -9.3079     80.3522     83.2733   6.1055040984e+01   5.0113991041e+01     0.144596    0.1078165 -10.87 0.0002311392    1.637    0.389
        82 -10.3653     48.0785     79.4462   7.1075620347e+01   5.5361665574e+01    0.2344959    0.1696174 -58.13 0.0004707915    1.282    0.220
        83  -9.6141     85.0579     79.3211   5.8349079393e+01   5.0180819360e+01    0.2517482     0.154342  -9.45 0.0009548083    2.912    0.657
        84  -9.3713     24.2995     79.6739   7.9629561672e+01   5.7546489687e+01    0.1994406    0.1042297 -65.71 0.0003115156    1.705    0.413
        85  -9.7604     22.5129     76.4996   7.9582757139e+01   5.8386144118e+01    0.1815945    0.1069712 -72.85  0.000595022    1.762    0.433
        86 -10.9252     75.0197     76.8331   6.0936975569e+01   5.2334913480e+01    0.2400131    0.1825872 -47.40 0.0003175443    1.233    0.189
        87 -11.3979    179.7538     76.3783   3.2841563628e+01   2.9759636893e+01      0.48707    0.2573139  50.28  0.001963739    1.897    0.473
        88 -10.2138     52.9653     75.6070   6.8297955707e+01   5.5633671436e+01    0.3289523    0.1631114  33.37  0.001538831    2.237    0.553
        89  -9.8698    116.8848     72.1205   4.6374865214e+01   4.5478686187e+01    0.4417472    0.2510932  17.64  0.001113883    3.585    0.721
        90  -9.5692    151.7655     70.9845   3.7147291058e+01   3.7623282551e+01    0.1974313     0.128515 -36.13  0.000422605    1.559    0.358
        91 -10.8781    131.1719     69.2118   4.1588644409e+01   4.2835226283e+01    0.3824105    0.2768219  -1.05   0.00135885    1.874    0.466
        92 -10.9434    128.5655     64.0301   4.0593943458e+01   4.4359571794e+01    0.3035024    0.2292368 -55.60 0.0006325552    1.525    0.344
        93  -9.4646    105.5664     71.6253   4.9504803117e+01   4.7930676561e+01    0.1434443    0.1378965   3.04 0.0001320469    1.028    0.027
        94 -10.4830     75.8003     70.3552   5.8678316275e+01   5.3556754829e+01    0.3381681    0.2461527  -1.12  0.001712209    1.672    0.402
        95 -12.4779     81.0944     66.9061   5.5766089789e+01   5.3383766164e+01    0.3141524    0.2544008 -30.68  0.000413338    1.150    0.131
        96 -10.0656     39.4953     70.4793   7.1838390253e+01   5.8222945268e+01    0.2083435     0.116725 -65.90 0.0005768068    2.002    0.501
        97  -9.1721    166.3576     70.3249   3.3784282948e+01   3.4141497851e+01    0.1614388    0.1189302  21.78  0.000704461    1.775    0.436
        98 -10.1855     90.4932     69.4661   5.3495620547e+01   5.1238186275e+01    0.2947741    0.2185847 -89.99 0.0008390917    2.363    0.577
        99 -10.7957     10.3440     69.6095   8.2584339801e+01   6.0695657717e+01    0.2328153    0.1692666 -32.92 0.0009569651    1.328    0.247
       100 -11.5990    211.9835     67.3114   2.4863977182e+01   2.3376639046e+01    0.2494573    0.2185956 -48.02 0.0003210046    1.086    0.079
       101  -9.4036     45.0000     67.9945   6.9084374584e+01   5.8174234114e+01    0.2152372   0.06501632 -54.03 0.0005604358    2.878    0.653
       102 -11.8892     16.7907     64.6764   7.9032275582e+01   6.1354060098e+01    0.3295699    0.2622175 -33.56 0.0004103068    1.168    0.143
       103 -13.3957     21.1032     58.3223   7.5726698200e+01   6.2383925693e+01    0.4022437    0.2199265 -47.69 0.0007531172    1.423    0.297
       104 -11.2480      7.9066     62.8446   8.2061117562e+01   6.2281237138e+01     0.285546    0.2130941  -5.55 0.0003026815    1.544    0.352
       105 -11.8074     11.6968     59.6904   7.9845772923e+01   6.2728825487e+01    0.2201713    0.1922028 -29.03 0.0002979546    1.182    0.154
       106  -9.8636     27.1472     66.0534   7.5366713790e+01   6.0291736795e+01    0.1400452    0.1381022  86.72 0.0004216059    1.274    0.215
       107  -9.3555     58.9766     65.0515   6.2991460757e+01   5.7088874233e+01     0.157424     0.137911 -27.87 0.0003412469    1.013    0.013
       108 -10.2969    179.4917     63.5435   2.9255935293e+01   3.1991493289e+01    0.2509821    0.2409397 -73.02 0.0001755409    1.018    0.018
       109  -9.2156    166.4792     64.4926   3.2038127418e+01   3.5098703400e+01    0.1500465    0.1464587  53.21 6.240593e-05    1.041    0.040
       110 -10.2295     51.8568     63.8106   6.5259075962e+01   5.8249402863e+01    0.2163199    0.1636335 -44.06 0.0002833733    1.165    0.142
       111 -10.3811     49.8903     59.7854   6.4749695906e+01   5.9300536750e+01    0.2472826    0.1741176 -57.22 0.0005441139    1.523    0.343
       112  -9.3667    119.9301     62.4921   4.2385395676e+01   4.6578910264e+01    0.1981463    0.1431258  44.97 2.430703e-05    1.364    0.267
       113 -10.1089     98.0266     60.7985   4.8206626792e+01   5.1460912098e+01    0.2051475    0.1964299  71.28 0.0006431284    1.237    0.191
       114 -10.3051     42.0866     59.7135   6.7758181406e+01   6.0201391546e+01    0.2056671    0.1587607 -54.69 0.0003370266    1.297    0.229
       115 -11.2457     58.3478     58.9624   6.1265410579e+01   5.8387408955e+01    0.2239633     0.184438  18.41 0.0002053913    1.274    0.215
       116  -9.8566     38.1233     59.5493   6.9267744004e+01   6.0646668370e+01    0.1630865    0.1123298  -4.27 0.0004249299    1.650    0.394
       117 -10.0072     71.7931     56.9705   5.5653574088e+01   5.6806749800e+01    0.2273832    0.1812978  73.76  0.000681219    2.011    0.503
       118  -9.8683    229.1785     56.3560   1.9753544919e+01   2.1015172540e+01    0.1866214    0.1608828 -82.11 0.0005376277    1.114    0.102
       119 -10.3840     33.7758     55.4224   6.9764163594e+01   6.1905936362e+01    0.3103336    0.1750136  -6.09  0.001355464    2.399    0.583
       120 -12.9118    115.2625     53.1936   4.0507921700e+01   4.9190329524e+01    0.3317019    0.2944075   3.05 0.0006348138    1.135    0.119
       121  -9.3518    182.4585     54.4414   2.6134375229e+01   3.2675337338e+01     0.146405     0.138976  88.24 0.0001078836    1.007    0.007
       122 -10.8972     66.6099     52.5946   5.5999343606e+01   5.8416360539e+01    0.5555834    0.2610561  22.90  0.002200512    3.034    0.670
       123 -12.5373     62.0844     49.7373   5.6666940412e+01   5.9606080943e+01     0.285287    0.2175029 -34.61 0.0004249631    1.188    0.158
       124  -9.3288    148.7720     52.0380   3.1907506967e+01   4.1500623869e+01     0.189252    0.1231867 -33.93 0.0005526383    1.587    0.370
       125  -9.4084      3.3672     52.3134   8.1466431896e+01   6.4707614428e+01     0.127334   0.06145734 -37.66  0.000703785    1.769    0.435
       126 -10.6207    138.3521     50.3181   3.3681488349e+01   4.4307481907e+01    0.2429301    0.2255975   5.48 0.0004979643    1.119    0.106
       127  -9.6539     98.0891     51.1238   4.4787205302e+01   5.3136155587e+01    0.1741323    0.1660506 -59.96            0    1.251    0.201
       128  -9.8800     83.7784     50.7398   4.9264237294e+01   5.5911143199e+01    0.1694096    0.1623279 -61.61 0.0003805206    1.300    0.231
       129 -11.5180     14.1272     48.7365   7.6000261174e+01   6.4816221303e+01    0.2684059    0.1581151 -48.77 0.0002035849    1.303    0.232
       130 -10.5092     10.1304     46.9048   7.7208548977e+01   6.5430759780e+01    0.1955569     0.156338 -41.16 0.0004788072    1.053    0.051
       131 -10.9701     78.3021     50.0588   5.0890350525e+01   5.6987197495e+01    0.2333777    0.1921488  30.02   0.00029822    1.228    0.185
       132  -9.9272     74.5493     47.4552   5.1249656998e+01   5.8069571873e+01     0.199919    0.1809448 -13.49 0.0001040955    1.070    0.066
       133  -9.9896    159.2612     48.7080   2.8697078546e+01   3.9389030918e+01    0.2032281    0.1295603 -88.28 0.0001940299    2.286    0.563
       134  -9.6711    155.5355     47.3051   2.9000970344e+01   4.0529257018e+01    0.2992333    0.1265844  53.55  0.001132061    2.180    0.541
       135 -11.0580    103.4754     44.5427   4.0771469627e+01   5.3093448789e+01    0.5500377     0.214453 -34.87  0.002111378    2.579    0.612
       136  -9.9926    239.2164     46.0735   1.6137437245e+01   2.0212717702e+01    0.1816376    0.1745732 -44.53 0.0003457067    1.213    0.175
       137  -9.6322    129.6587     46.0209   3.4299249867e+01   4.7028890036e+01    0.1919566    0.1816712  -1.21  0.001086773    1.072    0.067
       138 -10.5222     79.2169     45.3719   4.8831890837e+01   5.7625952518e+01    0.2314573    0.1859915   1.83 0.0006661942    1.222    0.182
       139 -10.1365      1.9347     45.6432   8.0422604670e+01   6.6122169848e+01    0.1684032    0.1179909 -21.80  0.001159695    1.400    0.285
       140 -10.0057     17.3513     44.6604   7.3411544465e+01   6.5397067775e+01    0.2125538    0.1765453  86.07  0.001412351    1.818    0.450
       141 -11.6538     91.3139     40.0814   4.2804843635e+01   5.6230826264e+01    0.3583135    0.2449787 -44.82 0.0003356756    1.669    0.401
       142 -10.6626     85.8342     42.8989   4.5655390182e+01   5.6835652906e+01    0.2146191    0.1817566  23.69 0.0003629304    1.124    0.110
       143 -11.4519    184.2665     40.2532   2.1814005286e+01   3.4261401407e+01    0.5937013    0.3129737  77.94  0.002416851    2.239    0.553
       144 -11.2402     37.6090     41.4892   6.3544423766e+01   6.4186685184e+01      0.33463    0.2320301  35.80  0.001787801    1.746    0.427
       145 -10.6953     26.9733     42.4956   6.8499925554e+01   6.5040652294e+01    0.2869219    0.1142533  24.47  0.001378485    2.795    0.642
       146 -10.2650    116.6579     40.7367   3.5725975432e+01   5.0797367087e+01    0.2856766    0.2016303 -55.93 0.0009415755    1.840    0.456
       147 -10.3130     68.9929     41.4348   5.0976889532e+01   5.9989406647e+01    0.2516542    0.1751496  56.18  0.001297986    2.095    0.523
       148 -10.5876     66.8495     37.1786   5.0101422980e+01   6.1020541884e+01    0.2465623    0.1701995 -24.73 0.0005150395    1.351    0.260
       149  -9.5842    110.0229     40.5163   3.7430378720e+01   5.2298829108e+01    0.1964348    0.1282044  78.58 0.0008103716    2.658    0.624
       150 -12.2949    121.4773     37.1109   3.3195284759e+01   5.0208328939e+01    0.4408849    0.2646816 -33.14  0.002084332    1.729    0.422
       151 -10.6004     81.2948     38.7676   4.5582637784e+01   5.8313791812e+01    0.2326965    0.1925349  20.80 0.0002251353    1.134    0.118
       152 -12.0565    141.6479     41.1606   2.9913748002e+01   4.4847147272e+01    0.2870442    0.2289555  64.48 0.0003287192    1.245    0.197
       153  -9.9532     21.0718     37.5387   6.9449160474e+01   6.6462908174e+01    0.1545747    0.1094729  13.81 0.0007088443    1.534    0.348
       154 -10.0104     66.2100     46.9660   5.4103780926e+01   5.9485549664e+01    0.1899993    0.1661739 -32.24 0.0005098222    1.166    0.142
       155  -9.7802    207.8371     34.6400   1.7020103085e+01   2.9137688058e+01    0.2242906    0.1513296 -40.30 0.0006074135    1.447    0.309
       156  -9.6847    112.5948     34.7340   3.4606455288e+01   5.2543401757e+01    0.1755822    0.1296737 -38.88 0.0002680511    1.468    0.319
       157 -10.3191     31.8357    247.8224   9.6535903555e+01   1.9604559112e+01    0.1537061    0.1247737  74.18 0.0007023246    1.223    0.182
       158 -11.4345    212.9831     31.9224   1.5707196318e+01   2.8239287242e+01    0.2159114    0.1870796 -88.51            0    1.055    0.052
       159 -10.0099    145.2951     32.6026   2.6328249258e+01   4.5087531441e+01    0.2578861    0.1343384  65.71 0.0008482924    1.951    0.487
       160  -9.0811     55.2613     32.6870   5.2776276405e+01   6.3480948238e+01    0.1098814   0.09913494 -53.06 0.0001831486    1.536    0.349
       161 -10.5659     45.7090     33.8080   5.7171716795e+01   6.4580297712e+01    0.2494401    0.1856023 -42.90    0.0007649    1.410    0.291
       162 -10.4171     87.5933     31.4817   4.0619354314e+01   5.8200473555e+01    0.3299059    0.1186113  45.28  0.001298719    2.620    0.618
       163 -12.5334     10.5910     29.6417   7.1629804309e+01   6.8673472081e+01    0.3891755    0.2102613  34.21  0.002287995    2.449    0.592
       164 -10.1295     69.6792     29.4767   4.5913909184e+01   6.1724318510e+01    0.2239393    0.1104893 -33.85  0.001070311    1.956    0.489
       165 -10.1948     39.4034     29.9004   5.8315878215e+01   6.5987651872e+01    0.2298767    0.1393681   7.13 0.0007095119    1.852    0.460
       166 -11.0643    135.6888     29.1012   2.7123746563e+01   4.7876545058e+01    0.2447568     0.190841  58.26 0.0002929059    1.196    0.164
       167  -9.5963    131.8669     26.5761   2.7064543307e+01   4.9102751582e+01    0.2055126    0.1311389  60.55 0.0007338807    1.481    0.325
       168  -9.5961    242.2315     28.4523   1.1822420858e+01   2.1887232598e+01     0.173697    0.1106837 -86.41 0.0004991263    1.569    0.363
       169  -9.7689    201.7135     28.3412   1.6150211828e+01   3.1443367509e+01    0.1461684    0.0931343 -63.84 0.0003637578    1.640    0.390
       170 -10.1377    165.0598     26.9505   2.0969872950e+01   4.0824387863e+01    0.2106271     0.191163  63.62 0.0003051848    1.042    0.040
       171  -9.8478    144.0494     27.4827   2.4882776802e+01   4.6024801230e+01    0.2033579    0.1311549  63.58 0.0003534243    1.463    0.317
       172 -10.7332     90.9936     26.1487   3.7408843170e+01   5.8240986763e+01    0.2863589    0.1759299 -37.05 0.0009942909    1.760    0.432
       173 -10.0113    216.8997     25.5273   1.3680039307e+01   2.8101018762e+01    0.2178111    0.1859016  61.70 0.0006825779    1.265    0.210
       174 -11.2558    213.0163     23.8797   1.3696809882e+01   2.9233017049e+01     0.273243    0.1837707 -62.42 0.0002693056    1.434    0.303
       175  -9.4992     59.8388     25.8289   4.8077842298e+01   6.3835118816e+01    0.1543916    0.1474696 -12.03 0.0004208809    1.342    0.255
       176 -10.1652     52.3016     23.3913   5.0037543563e+01   6.5308366029e+01    0.2189956    0.1565464 -27.45   0.00135027    1.278    0.217
       177  -9.5034    230.1760    247.3736   6.0158567337e+01  -9.5337399668e+00    0.1520727   0.09253066  38.61 0.0004377452    1.549    0.354
       178 -10.3716     43.7278     24.7179   5.4244920729e+01   6.6276174544e+01    0.2649274    0.2030409  67.59  0.001426455    2.942    0.660
       179 -11.2682     47.8818     23.3424   5.1862191367e+01   6.5933415386e+01    0.2328327    0.1819964  -5.78 0.0003571851    1.070    0.065
       180 -10.1083    131.3791    247.1270   7.8487636185e+01   5.8967541416e+00    0.1615848    0.1425869  60.68 0.0009291503    1.133    0.117
       181 -10.1055    116.2163    246.9278   8.1335262492e+01   8.3019518777e+00    0.1662446    0.1405993  65.90 0.0007417912    1.127    0.112
       182 -11.4534     33.3484     24.0533   5.8611197024e+01   6.7615007412e+01      0.25168    0.2201721  13.20 0.0001883977    1.327    0.246
       183 -10.3348     32.4903     20.4910   5.7470711099e+01   6.8264070488e+01    0.2771158    0.1545576 -20.12 0.0008810424    1.766    0.434
       184  -9.1451    183.2969     25.3504   1.7756878043e+01   3.6404283201e+01     0.140331    0.1024562  33.87  0.000703459    1.685    0.406
       185 -10.0535    104.0090     24.7438   3.3110102084e+01   5.5703916464e+01    0.1864666    0.1810341  46.24 0.0002828147    1.171    0.146
       186 -10.4327    106.7975     21.2901   3.1028896909e+01   5.5501189719e+01    0.2677274     0.155985  35.37 0.0003422059    1.697    0.411
       187  -9.5449     25.7421     25.0286   6.2582941919e+01   6.8240885810e+01    0.1610472    0.1168877 -30.99 0.0002679879    1.122    0.109
       188  -9.7610    250.7607     23.5485   9.9938216786e+00   2.0634456088e+01    0.2016466   0.09346754 -36.01 0.0007406346    1.981    0.495
       189 -11.0073    130.3667     22.0854   2.5811298388e+01   4.9979822521e+01    0.3582157    0.2390151  22.37  0.001461174    1.773    0.436
       190 -10.2677    201.1766     22.3703   1.4660414086e+01   3.2297597401e+01    0.2016944    0.1174159  85.40 0.0009475942    1.778    0.438
       191 -10.8422    162.9636     20.6968   1.9403864824e+01   4.2072382763e+01    0.3196904    0.2354901  11.40  0.001035762    1.767    0.434
       192  -9.5824    119.4038     22.4947   2.8388265943e+01   5.2517190548e+01    0.1363489    0.1223438  33.35 7.085082e-05    1.029    0.028
       193  -9.9239     97.2303     21.7975   3.3819220068e+01   5.7497075582e+01      0.21179    0.1548135 -24.63 0.0006431096    1.413    0.292
       194  -9.9980     21.5659     22.3219   6.3485833635e+01   6.9073812994e+01    0.1988773    0.1203303   3.88 0.0008794487    1.726    0.421
       195  -9.5987    243.3178    244.3439   5.7386294232e+01  -1.1013673090e+01    0.1221382   0.07238999   6.54 0.0007048973    1.719    0.418
       196 -10.4388     16.5605     21.2528   6.5523077277e+01   6.9680501480e+01    0.2890064    0.1876175  -4.87  0.001897337    1.489    0.328
       197 -10.5845     52.5919    243.8580   9.2728235257e+01   1.7843871372e+01    0.1897932   0.09547906 -70.85  0.001123531    2.023    0.506
       198  -9.9094    147.4729    243.4815   7.4962714101e+01   3.9073403068e+00    0.1251903    0.1023942  41.38  0.000809676    1.022    0.022
       199 -10.4183     38.2065    241.9424   9.5105684941e+01   1.9942027518e+01    0.2988707   0.09542508  62.08  0.001309608    3.252    0.693
       200  -9.7558    124.2914     21.0268   2.6744487441e+01   5.1540687260e+01    0.1834702    0.1713794  29.15 0.0004592483    1.056    0.053
       201 -10.2243     78.5561     21.1179   3.9273390496e+01   6.1273996207e+01    0.2029465    0.1529663  34.99  0.001203148    1.223    0.183
       202  -9.7560     64.1731     21.3275   4.4454183437e+01   6.3765646430e+01    0.1664853    0.1108294  45.85 0.0009348622    1.679    0.404
       203 -10.1207     85.2030     19.9296   3.6625863988e+01   6.0152306213e+01    0.2215508    0.1351433   7.60  0.001078683    1.999    0.500
       204  -9.8516      1.8063     20.1428   7.2632663986e+01   7.0889677910e+01    0.1567169    0.1304023 -33.96  0.001210229    1.201    0.167
       205 -10.8649     70.6072     18.5355   4.0875869662e+01   6.3029921212e+01    0.2202145    0.2024913 -10.08 0.0006471217    1.235    0.190
       206 -12.0957     24.4289     17.8763   6.0185612381e+01   6.9511267443e+01    0.2162165    0.1574148 -10.94 0.0003500037    1.143    0.125
       207 -10.0154     28.6672    241.2761   9.6694378303e+01   2.1156084549e+01    0.1162398   0.05733472  63.43 0.0002653318    1.601    0.375
       208  -9.6588    207.5978     18.1917   1.2867331004e+01   3.1213249398e+01    0.1633604    0.1307794 -14.83 0.0004483735    1.581    0.368
       209 -10.2505     90.9059     18.2122   3.4178763541e+01   5.9215914289e+01    0.2512736    0.1512865  32.36 0.0006451278    1.600    0.375
       210  -9.9471    147.9238     16.5769   2.0588695781e+01   4.6280596958e+01    0.1887624    0.1799262 -24.05 9.875769e-05    1.163    0.140
       211 -10.4938    125.1846     17.0249   2.5107175094e+01   5.1759900775e+01    0.2207542    0.1755146  53.71 0.0003244834    1.130    0.115
       212 -10.4750     31.6160    233.0041   9.5692076332e+01   2.2378667128e+01    0.2991831    0.1116488  42.61  0.001613029    2.214    0.548
       213  -9.7481     55.4366    231.4887   9.1288639006e+01   1.9808569735e+01    0.1197059   0.08875746  68.98 8.425015e-05    1.041    0.040
       214  -9.5165    246.0353    230.5125   5.4615814226e+01  -9.7324338449e+00    0.1693568   0.09953446  32.20 0.0005726523    1.509    0.337
       215 -10.6839      7.7524    228.5817   9.9553708723e+01   2.5731629828e+01    0.2014416    0.1180066 -86.96  0.001397032    1.396    0.284
       216  -9.6045    139.8017    227.7852   7.4383829445e+01   7.8079534210e+00    0.2162669    0.1374007  68.78  0.001074282    2.116    0.527
       217  -9.8332    223.3218    226.3094   5.7936821325e+01  -5.8203404244e+00    0.1285365   0.08298298   8.10 0.0003489581    1.647    0.393
       218 -11.8951      2.8834    220.6856   9.9998121853e+01   2.7717429590e+01    0.4646759    0.1748545  83.77  0.001804925    2.412    0.585
       219 -10.3603      7.6887    221.5604   9.9214197141e+01   2.7092609041e+01    0.2292499    0.1008683 -87.51  0.001335493    1.902    0.474
       220  -9.7027    210.3588    215.8223   5.8539695442e+01  -2.2419415338e+00    0.1742042    0.1125124 -23.04 0.0006597562    1.687    0.407
       221  -9.8393     85.7275    215.0071   8.3815762319e+01   1.8906664056e+01    0.1658146    0.1405405  80.90 0.0001743022    1.092    0.084
       222  -9.8757    226.1821     11.4012   9.4145058344e+00   2.7571043370e+01    0.1774834    0.1058411 -87.43 0.0003622012    1.615    0.381
       223  -9.9387     39.0915    207.4856   9.2497192432e+01   2.6635404767e+01    0.1630036    0.1042241  44.34 0.0004751388    1.510    0.338
       224 -10.9246      2.8116    204.8579   9.9204264720e+01   3.0880706101e+01    0.1625032   0.09461067  70.19 0.0004942594    1.338    0.253
       225  -9.9083    237.6805    186.4570   4.7983510600e+01  -2.3275869173e+00    0.2154711    0.1405694 -11.87 0.0007030416    1.645    0.392
       226  -9.3172    229.5147    165.5191   4.5181788660e+01   2.4770150981e+00     0.139706    0.1233121  -6.54 0.0008101088    1.021    0.021
       227  -9.2780     86.4563     10.4355   3.2199529123e+01   6.0949764517e+01    0.1263843    0.1105493  25.29 0.0001381625    1.059    0.056
       228  -9.9098     79.7174     10.5531   3.4297264544e+01   6.2261733076e+01    0.2321575    0.1028202  45.09 0.0006852502    1.981    0.495
       229 -10.5502     13.9278    164.4807   9.4221248105e+01   3.8638214670e+01    0.1585384    0.1136145  38.39  0.001034421    1.597    0.374
       230 -10.6781     21.6891    150.6347   9.1110840843e+01   4.1158905880e+01    0.2887565    0.1652403 -50.82  0.001583799    1.877    0.467
       231 -11.2046      6.5029    145.7587   9.4298476130e+01   4.3510062680e+01    0.3234894    0.1655693 -87.53 0.0008484126    1.680    0.405
       232  -9.3736     31.9676    140.9672   8.7414265775e+01   4.2501094483e+01    0.1518948     0.124736 -80.14 -0.002661949    1.005    0.005
       233  -9.4979      1.8406    140.1661   9.4919516372e+01   4.5119340445e+01    0.1563473    0.1088845 -65.26 0.0002919452    1.267    0.210
       234  -9.4612     28.8542    138.8778   8.7962727756e+01   4.3291724250e+01     0.168442    0.1259235  82.10 0.0002735811    1.261    0.207
       235  -9.3826    235.5227    137.5238   3.8015348022e+01   6.1265701025e+00    0.1417157    0.1276574 -23.40 0.0008097708    1.002    0.002
       236 -10.6638     22.2570    136.5556   8.9400716954e+01   4.4425512689e+01    0.3444911    0.1606014  61.79  0.001567491    2.682    0.627
       237  -9.7982     95.9815    134.3062   6.8911135533e+01   3.5652355197e+01    0.2661069    0.1503476 -56.42  0.001145357    1.687    0.407
       238  -9.5570     70.5949    130.1751   7.5162439747e+01   4.0597321179e+01    0.2086928    0.1158186 -50.76 0.0009421831    1.700    0.412
       239 -10.7763     28.0141    129.7686   8.7006330951e+01   4.5540871000e+01    0.2192086    0.1544153 -81.20 0.0003269999    1.232    0.189
       240  -9.4564     92.4238    129.4297   6.8867149479e+01   3.7426497771e+01    0.1465821    0.1362348 -74.36 2.481082e-05    1.019    0.019
       241  -9.2188     14.6776    129.7177   9.0590227826e+01   4.6642675467e+01    0.1203901    0.0785809 -48.32 0.0001763809    1.592    0.372
       242  -9.7174    247.3360    126.7034   3.3656965903e+01   5.6806920326e+00    0.1357724    0.1050069 -65.94 0.0002194098    1.650    0.394
       243  -9.7136    208.5154    123.4739   3.9588840904e+01   1.4266288893e+01    0.1496135    0.1421268 -37.59 0.0001815578    1.027    0.026
       244 -11.4384     11.4056    120.8462   9.0422341263e+01   4.8958559271e+01    0.3574313    0.2528639 -29.58 0.0007052547    1.798    0.444
       245  -9.2009     52.0054    121.1998   7.8855208167e+01   4.5159164801e+01    0.1523681    0.1091658  31.21 0.0008220929    1.606    0.377
       246 -11.2570     69.4136    115.3918   7.2541598644e+01   4.4343544833e+01    0.2960941    0.2652198  43.28  0.000103802    1.225    0.184
       247  -9.5500     27.0262    116.9719   8.5465190876e+01   4.8677711857e+01    0.1515519    0.1239346 -70.46  0.000962245    1.003    0.003
       248 -11.9489     23.3151    113.4662   8.6026140414e+01   4.9814139231e+01    0.2980599    0.1897137 -65.47  0.000215462    1.258    0.205
       249 -11.2016      5.7769    113.5696   9.1111255068e+01   5.1017738248e+01    0.2993245    0.1300378 -57.95  0.001557761    1.804    0.446
       250  -9.3525    115.1072    114.2958   5.8987301759e+01   3.6865635292e+01    0.2524331    0.1267309  22.49 0.0006346218    4.504    0.778
       251 -10.7630     13.7477    107.4346   8.7982766618e+01   5.1933846833e+01     0.285473   0.09303971 -57.82  0.001276672    2.234    0.552
       252 -10.4202     17.9010    105.3647   8.6422863818e+01   5.2128058289e+01    0.2059365    0.1394065 -75.49 0.0004626497    1.270    0.213
