#   1 NUMBER                 Running object number                                     
#   2 MAG_AUTO               Kron-like elliptical aperture magnitude                    [mag]
#   3 X_IMAGE                Object position along x                                    [pixel]
#   4 Y_IMAGE                Object position along y                                    [pixel]
#   5 X_WORLD                Barycenter position along world x axis                     [deg]
#   6 Y_WORLD                Barycenter position along world y axis                     [deg]
#   7 A_WORLD                Profile RMS along major axis (world units)                 [deg]
#   8 B_WORLD                Profile RMS along minor axis (world units)                 [deg]
#   9 THETA_WORLD            Position angle (CCW/world-x)                               [deg]
#  10 FWHM_WORLD             FWHM assuming a gaussian core                              [deg]
#  11 ELONGATION             A_IMAGE/B_IMAGE                                           
#  12 ELLIPTICITY            1 - B_IMAGE/A_IMAGE                                       
         1 -15.4627     55.4318     71.3427   1.1628134567e+02   5.5635553449e+01     1.864569     1.525711  29.18  0.004086465    1.375    0.273
         2 -14.9963     84.9978     66.2950   1.0509742181e+02   5.2311697280e+01     2.233853     1.277635  -3.85  0.008079942    3.738    0.733
         3 -15.2785    119.3341     54.6363   9.1396752026e+01   4.7694092037e+01     1.401037    0.8911424  37.97  0.001914887    1.568    0.362
         4 -14.7956    122.6319     36.6970   8.4620702141e+01   4.9549689161e+01     1.132951    0.5568058  36.85  0.002439142    2.213    0.548
         5 -15.6263      7.0432     69.4103   1.3237341190e+02   6.0303605520e+01     1.594724      0.68479 -61.17  0.008659445    1.851    0.460
         6 -15.3273     42.0446      7.0322   9.7957936215e+01   6.7356157290e+01     1.899958     1.121609   5.84   0.01171125    1.685    0.407
         7 -13.5942      8.1931      3.1024   1.1096399574e+02   7.1395680755e+01    0.7765846    0.5756912  31.05  0.006010739    1.925    0.480
         8 -13.5971     25.1871     31.4894   1.1474461180e+02   6.5884337056e+01    0.7166688    0.5854434 -63.63  0.004965808    1.938    0.484
         9 -15.1213      8.3759     29.3756   1.2104678697e+02   6.7538693769e+01    0.8596436    0.7097539  17.67  0.006840148    1.518    0.341
        10 -15.4964     13.4533     20.6931   1.1575154439e+02   6.8530037703e+01     1.322231    0.6261374 -19.23  0.006709902    2.275    0.560
        11 -14.8486    166.4296     30.1266   7.3666963904e+01   4.0000194337e+01     1.103681    0.7964067  61.37  0.003111209    1.244    0.196
        12 -13.9630    177.9226     57.4209   7.9373022136e+01   3.3371445856e+01     0.824623    0.6337031 -66.01  0.002390389    1.429    0.300
        13 -15.7018    146.6377     30.6538   7.7432303605e+01   4.4758683069e+01     2.891548      1.14114  61.05   0.01135932    2.372    0.578
        14 -13.9720    187.1745     13.1609   6.5961249095e+01   3.6792881113e+01    0.9543324    0.6476519  44.63  0.003341224    1.632    0.387
        15 -12.9936    195.0336     23.4012   6.7570540838e+01   3.3715083332e+01    0.7360877      0.34988 -36.01  0.002529638    2.168    0.539
        16 -13.7195    232.1600      2.5726   5.8772285170e+01   2.7210567792e+01     1.432974    0.3641298  63.02   0.00532446    3.259    0.693
        17 -13.9730    215.2889      9.5540   6.1875004790e+01   3.0377860699e+01     0.799611    0.4745814  62.70  0.001152435    1.564    0.361
        18 -14.4719    215.3519     20.8142   6.4476283357e+01   2.9075900083e+01     1.215353    0.5084633 -31.18  0.005280669    2.620    0.618
        19 -14.1833    218.9482     15.2176   6.2793493858e+01   2.8874948180e+01    0.7954022    0.5555356  48.82  0.004044461    1.694    0.410
        20 -15.8198     99.8094     12.8466   8.1849475916e+01   5.7084820652e+01     1.423404    0.6834667  50.04  0.003437587    1.801    0.445
        21 -12.1088    202.4006     11.4086   6.3692133523e+01   3.3266664171e+01    0.2605454    0.2302526  39.08   0.00084192    1.399    0.285
        22 -11.9346    162.4364      8.7808   6.8185634283e+01   4.3279533506e+01    0.2940426    0.2023915 -89.43  0.001585209    1.562    0.360
        23 -11.6823    125.9055      8.8826   7.4531844242e+01   5.1864038358e+01      0.21574    0.1882895   8.16  0.001385152    1.224    0.183
        24 -12.2698    120.8078      3.8708   7.3862988551e+01   5.3433527782e+01    0.5096895    0.2940571 -86.79   0.00217793    3.290    0.696
        25 -11.6824    153.6167      8.1188   6.9348185656e+01   4.5468542387e+01    0.2566724    0.1620136  59.15  0.000497747    1.339    0.253
        26 -11.3138     67.8922      3.6783   8.7300567123e+01   6.3848538239e+01    0.2365984    0.1665868  11.61  0.001391908    1.247    0.198
        27 -11.7195     26.6255      3.8426   1.0289123513e+02   6.9558726392e+01    0.2076236    0.1442195   6.17 0.0006602384    1.181    0.153
        28 -14.2428    189.7891     26.8362   6.9167971348e+01   3.4601476631e+01     1.702397    0.6636583 -56.52  0.005686166    3.957    0.747
        29 -12.2631     80.8848      1.8668   8.2653666928e+01   6.1729095318e+01    0.5356288    0.1333926  49.36  0.002173185    3.117    0.679
        30 -13.9038    222.7048     21.4445   6.3818608439e+01   2.7249277850e+01     0.940333    0.5202664 -21.97  0.004245101    2.516    0.602
        31 -11.9190     60.7114      1.8611   8.8865117849e+01   6.5186937595e+01    0.3741285    0.1448299  44.91  0.001890597    2.331    0.571
        32 -10.2605     81.5229    193.4774   1.3320779477e+02   2.4412911801e+01    0.1351681    0.1133772  81.00 0.0001020872    1.011    0.011
        33 -13.1997     57.4462    246.7878   1.4334639473e+02   1.6956915109e+01     0.734917    0.4371752  34.21  0.004318468    2.231    0.552
        34 -11.1926     40.5164    245.9765   1.4610144875e+02   1.9287465737e+01    0.2010653   0.08853951 -69.54  0.001150764    2.160    0.537
        35 -13.9116     27.3769    244.8916   1.4814948685e+02   2.1059849245e+01    0.9022017    0.4654709 -89.62  0.005749103    1.639    0.390
        36 -14.3201     23.7463    223.9948   1.4735643916e+02   2.5481250061e+01     1.102009    0.5593092 -80.96  0.006444857    1.638    0.390
        37 -13.5081     10.2067    210.7989   1.4877567946e+02   2.9541735979e+01    0.7653987    0.5690165  78.75  0.005774857    1.081    0.075
        38 -13.6250     30.1134    169.6185   1.4138688408e+02   3.6389814010e+01    0.8033905    0.6846746 -88.56  0.002017671    1.122    0.108
        39 -12.9076     16.6859    196.1913   1.4654855411e+02   3.1927478650e+01    0.9131889    0.2252434 -67.06  0.003733491    3.070    0.674
        40 -13.5452     22.3863    181.1130   1.4415164605e+02   3.4612226624e+01    0.5828508    0.4973099  88.57  0.002980842    1.177    0.151
        41 -14.9214      8.5549    183.4530   1.4707644780e+02   3.5407998577e+01     1.065523    0.8181706  83.02  0.007839698    1.086    0.079
        42 -15.1435     15.5644    175.3700   1.4500307186e+02   3.6526166640e+01     2.335502     1.111491  79.47   0.01112184    2.216    0.549
        43 -14.3453      8.2728    246.0463   1.5118022325e+02   2.2946020814e+01    0.7220399     0.444461  63.47  0.003540875    1.227    0.185
        44 -12.4241     48.7177    180.8108   1.3864941114e+02   3.1768330375e+01    0.5678632    0.2712258 -62.96  0.002859317    1.845    0.458
        45 -11.6099    122.5320    181.7632   1.2234568381e+02   2.0074997527e+01    0.5007331    0.2859373  80.89  0.001763048    3.358    0.702
        46 -11.3318    109.4449    183.5220   1.2559590211e+02   2.2053047498e+01    0.2508456    0.1382252  30.58  0.001039902    2.390    0.582
        47 -12.7008     85.1246    180.1405   1.3055045955e+02   2.6863355298e+01    0.4459025    0.2957449  88.51  0.002249564    1.637    0.389
        48 -12.7135    194.6950    177.4925   1.0574526602e+02   6.4681786707e+00    0.4046223    0.3242804 -53.14 0.0009304104    1.371    0.271
        49 -12.6304    131.7771    172.9780   1.1864223150e+02   2.0271325567e+01    0.4812175    0.3951996  48.59     0.002523    1.184    0.155
        50 -12.0501    198.8692    183.1361   1.0604830067e+02   4.5564717992e+00    0.2766947    0.1924442  36.49  0.001359574    1.406    0.289
        51 -13.6162    123.9851    166.5436   1.1923427574e+02   2.3227733177e+01    0.7615219    0.4904407 -69.28  0.003406861    1.771    0.435
        52 -11.1389    177.4726    167.4817   1.0727781631e+02   1.2051672434e+01    0.1493435    0.1455604  43.58 0.0001781996    1.001    0.001
        53 -10.8957     75.3121    164.3302   1.3041453646e+02   3.2012234617e+01    0.1331824    0.1035231 -36.65  0.000640762    1.672    0.402
        54 -11.3821     27.7569    158.7545   1.4069088006e+02   3.9088102380e+01    0.3168049    0.1872478 -74.82   0.00180198    1.370    0.270
        55 -12.3321     24.8561    156.2764   1.4105976871e+02   3.9929854149e+01    0.4065521    0.2773581 -40.28  0.002436102    1.921    0.480
        56 -12.8785    122.5347    155.0540   1.1731465610e+02   2.6145504709e+01    0.6816365    0.3951654 -49.15  0.002948686    1.726    0.421
        57 -12.7544    111.6469    155.6686   1.2009231231e+02   2.8054022628e+01    0.6411021    0.3897657  82.12  0.002429358    2.754    0.637
        58 -12.5653     77.6306    157.2846   1.2872296605e+02   3.3328689599e+01    0.4412405    0.3077911  40.39  0.001191971    1.549    0.354
        59 -13.2109     74.4112    153.2963   1.2884616585e+02   3.4743138527e+01    0.6674302    0.5181227  28.17  0.003083525    1.586    0.370
        60 -13.3513    208.7045    154.8388   9.8034117292e+01   7.9063647739e+00    0.7594834    0.4425202  48.79  0.003313446    1.764    0.433
        61 -11.4328    155.1049    157.3936   1.1009889671e+02   1.8965092143e+01    0.3237465     0.193402  58.60   0.00131221    1.923    0.480
        62 -11.6420     55.7864    156.0166   1.3380930172e+02   3.6611588809e+01    0.3490958    0.2574817  -9.93  0.001720732    2.301    0.565
        63 -12.1923     85.7605    153.2587   1.2603008951e+02   3.3038671056e+01     0.559634    0.3083076 -47.10  0.002505057    1.919    0.479
        64 -11.6261     41.8125    154.2303   1.3688447640e+02   3.8669537784e+01    0.3631288    0.1897472  83.27  0.001629362    2.504    0.601
        65 -12.1551    103.4134    150.0114   1.2101838772e+02   3.0862139361e+01     0.418258    0.3123962 -38.10  0.001502636    1.555    0.357
        66 -12.1654      6.4227    147.9402   1.4430238462e+02   4.3365483737e+01    0.4040928    0.2659889  82.64  0.002620112    1.387    0.279
        67 -12.3082    244.3325    147.4023   8.9814022812e+01   1.9875797812e+00      0.35882    0.2338049 -40.59  0.001784298    1.426    0.299
        68 -11.9542     63.6519    146.8154   1.3044494165e+02   3.7766684510e+01    0.1811105    0.1696935 -70.63  0.001135295    1.137    0.120
        69 -11.5661     44.6855    145.3629   1.3494454920e+02   4.0415269827e+01    0.2055623    0.1954187 -41.63 0.0006265822    1.293    0.227
        70 -11.3084     38.5745    145.8329   1.3651104540e+02   4.0965953896e+01    0.1842318    0.1748293 -41.68 0.0005972001    1.313    0.238
        71 -11.3931    149.4199    140.9431   1.0774956057e+02   2.3826781078e+01    0.4318818    0.3058722  78.01  0.001821466    1.927    0.481
        72 -11.4003     88.8400    140.7978   1.2291128859e+02   3.5500621851e+01    0.3263634    0.2338048  -9.36   0.00146455    2.367    0.577
        73 -13.1323     44.5676    136.0770   1.3355778886e+02   4.2594854082e+01    0.9087067    0.3447049 -51.06  0.003882404    2.425    0.588
        74 -11.2853     15.0641    139.0388   1.4130944673e+02   4.4689500711e+01    0.1752904    0.1384268 -77.39 0.0003979454    1.026    0.026
        75 -10.9979     56.6794    137.6752   1.3069235219e+02   4.0813116529e+01    0.2338892     0.189202 -48.44  0.001030743    1.270    0.212
        76 -12.6579    246.1396    134.1369   8.6583054272e+01   3.9681130544e+00    0.4416345    0.3273167 -66.94  0.002223753    1.717    0.418
        77 -13.9582    231.5436    133.2478   8.8865607074e+01   7.1273632511e+00    0.8389346    0.4891941  55.53  0.003733231    1.925    0.480
        78 -13.3672    223.4366    128.6498   8.9247321432e+01   9.7197627639e+00      0.63788    0.4672165  89.16  0.002918063    1.949    0.487
        79 -11.3105     64.0000    133.9942   1.2812686049e+02   4.0747422360e+01    0.3479087    0.1744758 -59.00  0.001601287    1.731    0.422
        80 -10.9259     60.9893    133.7806   1.2888421796e+02   4.1188120327e+01    0.2167853    0.2106708  19.33 0.0005569432    1.237    0.192
        81 -13.0001    132.8488    129.4729   1.0909144039e+02   2.9943016893e+01    0.9537325    0.3936834 -45.97  0.003350425    2.397    0.583
        82 -10.9210     11.1210    134.3861   1.4169747113e+02   4.6041133039e+01    0.1488283    0.1285122  89.41 0.0004888384    1.167    0.143
        83 -12.2487    110.8516    131.8118   1.1527089860e+02   3.3776920345e+01    0.5696336    0.4239801  17.31  0.002649525    1.818    0.450
        84 -13.3423     98.7443     94.5448   1.0930604306e+02   4.4344713778e+01     1.019974    0.5914217  58.22  0.004212319    2.423    0.587
        85 -14.4368    104.8391    123.0044   1.1483503226e+02   3.6924810947e+01     2.141211    0.9347741  35.87  0.007906951    2.640    0.621
        86 -15.1394    105.0726    109.0878   1.1136637554e+02   4.0034126121e+01     1.810989     1.487025 -32.48  0.009417132    1.268    0.211
        87 -13.2540     85.2739    115.5329   1.1847489824e+02   4.1977744221e+01    0.9442607    0.5437562  19.15  0.003847685    2.733    0.634
        88 -13.7831     89.4606    109.4126   1.1583329548e+02   4.2691432788e+01     1.268047     0.669811  25.69  0.005073642    2.644    0.622
        89 -10.9603     57.7784    128.0374   1.2869697815e+02   4.2938500048e+01      0.25045    0.1780373 -63.65 0.0009200536    1.221    0.181
        90 -11.4519     60.6712    124.7514   1.2729119085e+02   4.3343902719e+01    0.2918561    0.2340734  -7.29  0.001650662    1.663    0.399
        91 -14.2838     29.8131    119.3184   1.3476951629e+02   4.7922813218e+01     2.494051    0.3520755 -56.15  0.008315546    3.968    0.748
        92 -13.1760     62.2172    102.2887   1.2210315452e+02   4.8280502862e+01     1.248064    0.4877237 -59.05  0.004936285    2.505    0.601
        93 -14.1413     48.5338     96.5375   1.2494038739e+02   5.1178854166e+01     1.331718    0.9448456  53.36  0.007542806    1.804    0.446
        94 -12.7238      4.0799    119.9372   1.4165762416e+02   4.9744569163e+01    0.4680148    0.3437033   3.90  0.002123832    1.922    0.480
        95 -14.3620      2.5783     96.8793   1.3881476885e+02   5.4852444135e+01     1.290401    0.4717863 -71.52  0.006070235    2.395    0.582
        96 -14.7952     18.1651    110.9010   1.3661429755e+02   5.0773095080e+01    0.9509632    0.7808509 -43.10  0.004739409    1.262    0.207
        97 -15.6073     25.5784     94.4938   1.3155398695e+02   5.3804652877e+01     1.948749     1.274158 -16.10   0.01141895    1.969    0.492
        98 -11.7818    180.9926    121.0870   9.5765411294e+01   2.0912447512e+01    0.3615685    0.2259485  45.03  0.001200448    1.637    0.389
        99 -11.1874     51.6855    116.9845   1.2828865189e+02   4.6227952333e+01    0.3818207    0.1938219 -81.56  0.001453041    3.317    0.699
       100 -10.7775    192.6665    117.3290   9.2397508170e+01   1.8924906138e+01    0.1632153    0.1222737 -78.71 0.0007051936    1.721    0.419
       101 -12.5807    176.5274    111.8206   9.4374819673e+01   2.3858065177e+01    0.5042924    0.3760025 -45.68  0.002337205    1.330    0.248
       102 -12.3377     45.7524    109.8701   1.2858938345e+02   4.8508471883e+01    0.5394327    0.3004682 -40.23  0.002709283    1.868    0.465
       103 -12.3454    121.1937    111.6818   1.0766989734e+02   3.6330004609e+01    0.3917882    0.2626334  64.44  0.001619815    1.908    0.476
       104 -11.0555    222.7619    109.6109   8.4869661781e+01   1.3412540868e+01    0.2065781    0.1432433  68.54 0.0009499891    1.670    0.401
       105 -12.9894    137.1607     96.2718   9.9385756021e+01   3.6200589479e+01    0.5557906    0.3784589 -52.89  0.001552994    1.558    0.358
       106 -12.9061    134.8884    103.1783   1.0185885765e+02   3.5271972806e+01     1.006239    0.3666743  50.43  0.002585941    2.949    0.661
       107 -13.2682    122.4049    102.0049   1.0478772859e+02   3.8178778379e+01     0.604209    0.5008067  36.97  0.003071079    1.255    0.203
       108 -12.4663    249.2124     98.7128   7.8146251480e+01   9.5272280409e+00    0.4326124    0.1896038 -37.45  0.001768265    2.101    0.524
       109 -12.0757    128.2259     95.9219   1.0157886436e+02   3.8226005269e+01     0.346446    0.2226106  62.64  0.001455328    1.954    0.488
       110 -11.3002     76.0371     95.7384   1.1633981210e+02   4.7811977153e+01    0.2198338    0.1790481 -46.88 0.0002287213    1.110    0.099
       111 -13.8411    188.5463     84.3551   8.4712161925e+01   2.6208158041e+01     1.553917    0.7394463  58.56  0.001598502    2.153    0.535
       112 -14.8389    160.9058     80.5983   8.9341632395e+01   3.3679816679e+01     2.042169     1.328452  20.38  0.003351323    2.444    0.591
       113 -14.6206    170.6050     77.1661   8.6311905758e+01   3.1922972053e+01      1.14035    0.8057079  45.37  0.004788999    1.443    0.307
       114 -11.8512     89.6765     87.5443   1.1002245541e+02   4.7386794676e+01    0.4332302    0.2582571  49.71  0.001987937    1.977    0.494
       115 -13.2183    134.9105     79.5269   9.5141260589e+01   3.9977652055e+01    0.8803178     0.428671  50.89  0.002772961    2.066    0.516
       116 -12.2180    126.2388     85.3313   9.9075313557e+01   4.0777834084e+01    0.6164842    0.4483126  29.34   0.00270734    1.544    0.352
       117 -12.6638    132.5426     86.0217   9.7643732447e+01   3.9268162693e+01    0.3773454    0.3255754  47.74  0.001380789    1.162    0.139
       118 -11.3625    184.9909    124.0357   9.5648561495e+01   1.9373353912e+01     0.350548     0.250692  89.48 0.0009839109    2.019    0.505
       119 -12.5906    241.7987     84.0020   7.5856463050e+01   1.3628120689e+01    0.4817964    0.2512243  66.50  0.002082017    2.185    0.542
       120 -13.2711    238.4359     80.5302   7.5530340990e+01   1.4959283548e+01    0.7456716    0.4021441  74.09  0.003144608    2.350    0.574
       121 -10.7979     98.1371     84.0903   1.0652736944e+02   4.6610055486e+01    0.2140475    0.1768018  88.31 0.0005874053    1.651    0.394
       122 -13.4627    170.9976    242.3841   1.2199511905e+02  -5.0656285479e-01    0.7312335    0.4182036  35.94  0.003840634    1.583    0.368
       123 -11.2377     41.3990    249.8008   1.4622511771e+02   1.8472620492e+01    0.1931235    0.1353012 -82.59  0.001397791    1.336    0.251
       124 -14.1603    159.2471     44.4233   7.9149301349e+01   3.9915056563e+01     1.692987    0.4577822  50.96  0.005448807    3.267    0.694
       125 -13.6221    133.6802     67.4476   9.1805591796e+01   4.2421107179e+01     1.157658    0.7755397  34.53  0.003956723    1.613    0.380
       126 -14.4321    101.2278     50.1007   9.4845792747e+01   5.2106335588e+01    0.8823636    0.6703464  52.18  0.002617274    1.440    0.306
       127 -14.4541     95.7025    236.5325   1.3556186886e+02   1.3316174038e+01     1.381404    0.6865752  64.21  0.006538419    2.165    0.538
       128 -12.3026    144.9104    231.6755   1.2548519754e+02   5.9111520312e+00    0.3487127    0.1803956 -45.97  0.001677282    2.338    0.572
       129 -12.4988     98.0064    187.5060   1.2877540717e+02   2.3119143198e+01    0.3795473     0.307631   9.15  0.002016105    1.896    0.473
       130 -13.4687      8.7351     42.9259   1.2512364879e+02   6.5211353107e+01    0.7192025    0.5954469  40.25  0.005446121    1.754    0.430
       131 -13.0321     34.0964     32.9236   1.1166445672e+02   6.4798418675e+01    0.3415308    0.2897341  37.17  0.001885897    1.654    0.395
       132 -11.9947    235.5028    229.5005   1.0779533292e+02  -9.5569014868e+00     0.125069    0.1040086  14.24 0.0001106488    1.014    0.014
       133 -13.1522     46.1124    209.4301   1.4215133455e+02   2.5838487036e+01    0.5525472    0.2516671  71.15  0.002590762    2.504    0.601
       134 -13.2491     57.4460    202.4406   1.3925144913e+02   2.5873442012e+01    0.9239753    0.3057129 -70.40  0.003789037    2.951    0.661
       135 -12.8581     53.0559    214.3089   1.4129719410e+02   2.3934794942e+01    0.3852089    0.2521534  81.55  0.001658869    1.318    0.241
       136 -13.5384     68.4841    222.2974   1.3917014198e+02   2.0195109978e+01    0.6853111    0.3851354 -57.06  0.003774064    2.021    0.505
       137 -13.9524    198.1879     70.8585   7.9412875623e+01   2.6158930778e+01     1.145899    0.6642688  44.16  0.003480488    1.955    0.488
       138 -12.2203    219.5213     74.9582   7.6990510232e+01   2.0280693787e+01    0.3829854    0.2974169 -46.28   0.00120746    1.228    0.186
       139 -12.5564    216.8858     80.1120   7.8669919595e+01   2.0041880683e+01    0.4753819    0.4323663  60.25  0.002069956    1.156    0.135
       140 -12.8165    210.3667     76.9925   7.8946474981e+01   2.2142047475e+01    0.6101758    0.4251476 -73.05  0.002040542    1.682    0.405
       141 -12.0741    113.7531     80.7338   1.0108409179e+02   4.4276453023e+01    0.3955239    0.3663492 -32.66  0.001411783    1.058    0.055
       142 -11.7525     90.9971     80.1212   1.0748598441e+02   4.8662690738e+01    0.3898519    0.2913982 -12.93  0.001998029    1.559    0.359
       143 -12.4677     41.8372     77.2243   1.2244336902e+02   5.5977667979e+01    0.3112418    0.2257342 -46.92 0.0005253649    1.146    0.128
       144 -11.7830    242.1077     72.3755   7.3151024481e+01   1.5465942070e+01    0.5541971    0.2671991 -67.47  0.001919158    3.546    0.718
       145 -14.3011     62.9553    214.9502   1.3947659638e+02   2.2477154975e+01     1.061847    0.5884802 -72.18  0.005405938    1.682    0.406
       146 -11.8179    100.8273     64.4192   9.9706562258e+01   4.9818883600e+01    0.4300453    0.2877446  -0.40   0.00196445    2.086    0.521
       147 -11.6248    158.1366     63.9244   8.5131725374e+01   3.7238477487e+01    0.3693397    0.1987525 -46.45  0.001520861    2.003    0.501
       148 -13.4423     78.8421     61.0510   1.0536501851e+02   5.4261056537e+01    0.5429997    0.4477746  -7.77  0.002228011    1.172    0.147
       149 -11.5110    248.6611    225.1573   1.0466869885e+02  -1.1031017571e+01    0.1747696    0.1447567  23.02  0.001162677    1.155    0.134
       150 -12.4508     24.5526     60.2259   1.2397619652e+02   6.0904215099e+01      0.27533    0.1819066 -46.62 0.0009076126    1.205    0.170
       151 -10.3346     31.2820     60.6485   1.2165995321e+02   6.0252782290e+01    0.1082808   0.09103162 -79.53 0.0007015668    1.653    0.395
       152 -13.0026    248.9218     51.2775   6.7598467084e+01   1.7186114944e+01    0.6544509    0.4283285 -29.52   0.00241478    1.767    0.434
       153 -10.7693    163.3497    225.3120   1.2088803941e+02   3.7090659644e+00      0.13397    0.1014131  13.23 0.0007045751    1.719    0.418
       154 -11.9002    230.4132     55.0469   7.0681584050e+01   2.0852612525e+01    0.4464287    0.2034996  69.88  0.001843764    2.345    0.573
       155 -13.7213     67.0756     49.3592   1.0534710610e+02   5.8061171374e+01    0.6435846    0.4887789 -31.06  0.003926588    1.200    0.166
       156 -11.6844     86.3193     49.5075   9.9109300846e+01   5.4949027079e+01    0.2329332    0.1943688 -15.67 0.0005875136    1.112    0.101
       157 -10.6402     23.2771     50.0315   1.2156093091e+02   6.2900560637e+01    0.1630489    0.1216633 -38.55 0.0005060561    1.066    0.062
       158 -12.1191    201.9641     46.1156   7.2410108505e+01   2.9042003065e+01    0.4005404    0.2486928  81.53  0.001858391    1.744    0.427
       159 -14.1227     97.2022    217.3077   1.3302793389e+02   1.6860632502e+01    0.6607006    0.5583566  20.72  0.003980958    1.695    0.410
       160 -12.4015    147.1658    238.7237   1.2603634222e+02   4.2792950393e+00    0.3032498    0.2384825 -82.82 0.0009370131    1.535    0.349
       161 -14.4211    217.6625     41.9282   6.9215791543e+01   2.5789495038e+01     1.207108    0.5963913  64.74   0.00470802    1.907    0.476
       162 -13.8741    112.0564     40.9516   8.8728679978e+01   5.1257332081e+01    0.8079967     0.509324  10.41  0.002090439    2.179    0.541
       163 -13.5435    205.5898     40.2306   7.0405510254e+01   2.8967364029e+01    0.9038799    0.4410795  86.14  0.003358585    2.969    0.663
       164 -11.3951     25.6580     43.0395   1.1848011772e+02   6.3935629641e+01    0.1691578    0.1171792 -36.68 0.0004848955    1.143    0.125
       165 -12.2294     39.0183     60.5103   1.1883895747e+02   5.9543698209e+01    0.2797975    0.2426348  67.19  0.001853706    1.724    0.420
       166 -12.9287     75.8710     37.5056   9.8158354630e+01   5.8527499157e+01    0.3557187    0.2585466  36.54 0.0009283906    1.375    0.273
       167 -12.4632     70.3251     36.5673   9.9653753256e+01   5.9550119937e+01    0.3268165    0.2257185  18.24 0.0008091808    1.433    0.302
       168 -12.9215    242.4368     36.2009   6.5014488075e+01   2.0770606252e+01    0.7801483    0.3394903  75.11  0.003109816    2.429    0.588
       169 -11.1561    245.4968     31.0355   6.3585879177e+01   2.0772368622e+01    0.2924815    0.1563874 -35.77  0.001216999    1.905    0.475
       170 -12.4595    105.1844     35.4909   8.8662681535e+01   5.3409438896e+01    0.4957543    0.2607278 -23.94  0.002309076    2.081    0.519
       171 -13.1343     56.0775     27.6936   1.0126125546e+02   6.2902112530e+01    0.4671991    0.2843075  33.22  0.001819166    1.630    0.386
       172 -11.7457     45.4518     36.5049   1.0856113051e+02   6.2982146362e+01    0.2531798    0.1658125 -18.36 0.0007432056    1.407    0.289
       173 -12.7561     47.4891     32.2320   1.0620160689e+02   6.3383882337e+01    0.4151803    0.2334257   5.73  0.002045881    2.277    0.561
       174 -11.3275     51.5015     36.4401   1.0627110893e+02   6.2245663303e+01    0.2991697    0.1115068  34.71  0.001369754    2.795    0.642
       175 -11.8010    211.4038     33.2391   6.7912498149e+01   2.8477877865e+01    0.2610688    0.1977191 -84.83  0.000433631    1.250    0.200
       176 -11.8743     85.2922    215.8636   1.3522116097e+02   1.9033985869e+01     0.290583    0.1913167  51.91  0.001586218    1.350    0.259
       177 -12.3123    185.1379    213.6604   1.1459976168e+02   1.7067058583e+00     0.229041    0.1941263 -60.09  0.001163495    1.417    0.294
       178 -11.0835    157.5103    213.4907   1.2017240632e+02   6.9362625084e+00    0.1391367    0.1229909  53.10 0.0002705783    1.032    0.031
       179 -11.6204    136.8496    211.2805   1.2408426232e+02   1.1206841901e+01     0.229075    0.1855108 -79.07 0.0008876346    1.347    0.258
       180 -10.7238     89.2826     30.3217   9.1298992434e+01   5.7161343255e+01    0.1319329   0.08939032  12.01 0.0002162894    1.591    0.371
       181 -12.5067     96.7714     27.3267   8.8033313429e+01   5.6110709719e+01    0.3476073    0.2794923  -5.38  0.002129333    1.218    0.179
       182 -11.0259     39.3952    210.8692   1.4354209890e+02   2.6355294099e+01    0.3166713    0.1152949  48.22  0.001549216    2.410    0.585
       183 -11.5065     70.7976     16.9207   9.1854909804e+01   6.2005180310e+01     0.199456    0.1602642  14.99 0.0004097142    1.034    0.033
       184 -11.3160     76.0414     23.8670   9.2921639589e+01   6.0311826155e+01    0.2913186    0.1739033  53.51  0.001540462    2.090    0.521
       185 -11.7894     80.2777    208.5806   1.3536323756e+02   2.1322683436e+01    0.3217151    0.1764919  66.59   0.00157482    1.924    0.480
       186 -10.7911    149.9483    206.5241   1.2059012586e+02   9.6991017645e+00     0.220641    0.1275371  42.40   0.00102727    1.587    0.370
       187 -11.9727     45.2738    197.7251   1.4118288899e+02   2.8442944415e+01     0.420267    0.2444776 -75.31  0.002417506    1.483    0.326
       188 -12.3445     41.8568    201.1228   1.4218512981e+02   2.8122916392e+01    0.2647503    0.1809893 -86.14  0.001327627    1.202    0.168
       189 -12.8730     39.2827    195.3794   1.4213680727e+02   2.9666857178e+01    0.4612137    0.3306277 -88.51  0.002204905    1.120    0.107
       190 -11.1059     65.1701     24.5277   9.6791721661e+01   6.1988434093e+01    0.2718285    0.1623767   3.79  0.001435791    1.982    0.495
       191 -11.4466    213.0567    200.7862   1.0671807646e+02  -1.3085894189e+00    0.2861983     0.252271 -41.16  0.001701732    1.263    0.209
       192 -10.8585    250.4859    200.5000   9.9730471959e+01  -7.8228909902e+00    0.1291577    0.1108931  -0.43  0.000810494    1.013    0.013
       193 -13.1887    164.5196    194.6868   1.1544566697e+02   9.2083432256e+00    0.7335746    0.4219515 -63.91  0.003056065    2.434    0.589
       194 -12.9615    201.3818    191.8371   1.0727914727e+02   2.4665178577e+00    0.4250391     0.363904   1.46  0.001667418    1.227    0.185
       195 -10.6623    107.5216    193.0829   1.2753002418e+02   2.0269595026e+01    0.2061804    0.1319021 -60.31  0.001026192    1.579    0.367
