#   1 NUMBER                 Running object number                                     
#   2 MAG_AUTO               Kron-like elliptical aperture magnitude                    [mag]
#   3 X_IMAGE                Object position along x                                    [pixel]
#   4 Y_IMAGE                Object position along y                                    [pixel]
#   5 X_WORLD                Barycenter position along world x axis                     [deg]
#   6 Y_WORLD                Barycenter position along world y axis                     [deg]
#   7 A_WORLD                Profile RMS along major axis (world units)                 [deg]
#   8 B_WORLD                Profile RMS along minor axis (world units)                 [deg]
#   9 THETA_WORLD            Position angle (CCW/world-x)                               [deg]
#  10 FWHM_WORLD             FWHM assuming a gaussian core                              [deg]
#  11 ELONGATION             A_IMAGE/B_IMAGE                                           
#  12 ELLIPTICITY            1 - B_IMAGE/A_IMAGE                                       
         1 -14.3698    165.8391     53.9911   7.1049402692e+01   3.6975668175e+01     2.419038     1.576078  13.12  0.006884566    2.237    0.553
         2 -13.9155    179.8480     38.0999   6.3309603077e+01   3.5631678997e+01    0.9417094    0.7884103 -44.25  0.002514658    1.194    0.162
         3 -13.7577    184.3365     31.1987   6.0341204317e+01   3.5335691007e+01    0.7096448    0.6382109  37.69  0.001639077    1.150    0.130
         4 -13.6126    189.1077     13.4908   5.3894533737e+01   3.6090414286e+01    0.8551553    0.5111654 -55.22  0.003772778    1.841    0.457
         5 -14.5811    199.9736      6.2385   5.0349733653e+01   3.3925034904e+01     1.351144     1.124286 -14.56  0.004819917    1.261    0.207
         6 -11.1058     69.9354      8.2632   7.7217434433e+01   6.5329854395e+01    0.2153122    0.1944406  -6.43 0.0008165599    1.095    0.087
         7 -11.0509    114.5449      3.9990   6.2525964421e+01   5.6405224003e+01    0.2480478    0.2009615  88.45 0.0006381625    1.519    0.342
         8 -12.0104    193.5985    195.5256   9.9076401527e+01   8.0190704624e+00    0.9343818    0.5570436 -69.06   0.00356138    5.571    0.821
         9 -13.3811    247.5865    245.7575   9.7977783107e+01  -5.5245036663e+00    0.5991828    0.4148596  -3.83   0.00480046    1.482    0.325
        10 -17.7380     59.1873    238.1954   1.2660755730e+02   2.1922931931e+01     7.240772     5.462894  78.60   0.06231997    1.219    0.180
        11 -11.7859    203.6714    166.5304   9.2276449672e+01   1.0138107454e+01    0.5032644    0.3877345   1.58  0.001978365    1.425    0.298
        12 -10.0214    168.6624    177.1630   1.0055569486e+02   1.5071449722e+01    0.1833925    0.1558271 -83.92 0.0006279639    1.481    0.325
        13 -10.5575    165.8433    172.8002   1.0035121712e+02   1.6274786722e+01    0.2262688    0.1863522 -75.93 0.0008614071    1.532    0.347
        14  -9.7640    160.2712    197.6440   1.0526627929e+02   1.3448365025e+01    0.1156715    0.0879866  75.31 0.0006425858    1.641    0.390
        15 -11.3345    153.4950    201.5758   1.0703081450e+02   1.4008008624e+01    0.2153488    0.1201505 -49.58  0.001214507    2.178    0.541
        16 -11.4885    230.3503    166.6873   8.7769364988e+01   5.1954487282e+00    0.2712976    0.1492851 -43.48  0.001351324    2.338    0.572
        17 -11.6697    189.2938    155.0813   9.2666805808e+01   1.4596674156e+01    0.3932693    0.3917961  56.58  0.001658378    1.146    0.127
        18 -11.8473    193.6266    166.1655   9.4003221783e+01   1.2086905565e+01    0.2946407    0.2811307  50.13 0.0007211094    1.169    0.145
        19 -11.1310    190.2287    161.1232   9.3669253512e+01   1.3488495400e+01    0.3460992     0.255384  67.73  0.001316856    1.760    0.432
        20 -12.5931    152.1372    192.1969   1.0596164283e+02   1.5653620192e+01    0.3192531    0.2702262  84.67  0.001291677    1.362    0.266
        21 -10.2466    113.1698    160.1717   1.0886981978e+02   2.7868505600e+01    0.1785648    0.1680814  63.86 0.0004647008    1.144    0.126
        22 -10.1234    127.7154    155.3650   1.0501890118e+02   2.6285425976e+01    0.2131976    0.1450142  74.78  0.001084957    1.794    0.443
        23 -12.0918    133.9364    145.8454   1.0200114638e+02   2.6971893326e+01      1.14591    0.3007136 -55.59  0.003146989    5.855    0.829
        24 -10.3610    129.3336    139.9905   1.0190128903e+02   2.8966635307e+01    0.2584432    0.1882436  47.63 0.0006253572    1.313    0.239
        25 -10.9338    163.8217    151.4616   9.6868546035e+01   2.0208665361e+01    0.2571057    0.2100555  87.00   0.00114251    1.522    0.343
        26 -12.2207    149.2532    149.5702   9.9467359137e+01   2.3375095655e+01    0.6388023    0.2818518  60.13  0.002198479    3.547    0.718
        27 -10.7671    174.5937    149.0328   9.4263052355e+01   1.8488272525e+01     0.248197    0.2213539  58.08 0.0006463797    1.143    0.125
        28 -11.5483    154.5290    187.4903   1.0482758768e+02   1.5973934436e+01    0.2599049    0.1796852  54.20  0.001265764    1.325    0.245
        29 -12.6164    100.2258    137.8866   1.0811498646e+02   3.4492218424e+01    0.3735144    0.2540322  45.93 0.0005032594    1.452    0.311
        30 -11.9968    105.9493    130.8405   1.0551000359e+02   3.5014566631e+01    0.4057437    0.3057103 -73.56  0.001216209    1.344    0.256
        31 -11.3456    105.5439    125.0740   1.0450151598e+02   3.6302144011e+01    0.2661032    0.2293254 -39.33 0.0008616535    1.354    0.262
        32 -11.6788    135.5415    126.7767   9.7838466021e+01   3.0394648479e+01    0.6464399    0.1815314 -51.89  0.001950159    4.172    0.760
        33 -11.2499    117.3459    129.0361   1.0248472127e+02   3.3382873191e+01    0.3061893    0.2392966 -37.93 0.0007405431    1.500    0.333
        34 -10.9118    160.5428    127.7668   9.2606784066e+01   2.5108134272e+01    0.3414622    0.2626501 -59.04  0.001553078    1.458    0.314
        35 -10.3934    121.5378    123.0636   1.0027561983e+02   3.3842091628e+01    0.2945417    0.1993561 -20.14  0.001272681    2.570    0.611
        36 -10.5424    112.2453    118.5974   1.0155353291e+02   3.6489982369e+01    0.2370958    0.2312527 -77.53 0.0005158029    1.103    0.093
        37 -11.0322    167.8002    112.7272   8.7553066172e+01   2.6295833913e+01    0.3693773     0.285005 -82.07  0.001376762    1.744    0.427
        38 -10.7180    205.4329    110.1063   7.9641994881e+01   1.8293111675e+01    0.3178147    0.2117457  44.86 0.0008805963    1.486    0.327
        39 -11.5922    151.0723    183.0770   1.0480823273e+02   1.7277166457e+01    0.2627349    0.2043041 -84.80 0.0005071224    1.631    0.387
        40 -11.6687     58.5267    201.5243   1.2424763426e+02   2.7967128333e+01    0.1870928    0.1233402  62.12 0.0006122299    1.166    0.143
        41 -10.6632     79.8814    105.5457   1.0712921911e+02   4.4710112416e+01    0.2394993    0.1747771 -63.11 0.0005037313    1.241    0.194
        42 -10.3977     66.0614     98.9494   1.0961038292e+02   4.8145283105e+01    0.2118163    0.1803287 -74.11  0.001310088    1.021    0.021
        43  -9.4355     60.2703     90.3493   1.0951091399e+02   5.0838180520e+01    0.1312813   0.09037054 -40.86 0.0004086672    1.624    0.384
        44  -9.7838    150.4300     80.7518   8.2695796787e+01   3.6169865391e+01    0.2104722    0.1466039 -25.84 0.0009402739    1.581    0.367
        45 -10.7527     81.9819     76.0430   9.9452123121e+01   5.0895383950e+01    0.2366919    0.1944933  44.14 0.0003627955    1.347    0.258
        46 -12.1855    173.8560     72.5186   7.5291883724e+01   3.1962101139e+01      1.07476    0.6078694 -78.39   0.00301749    4.946    0.798
        47 -11.8126    158.3972    234.5612   1.1030085759e+02   8.7565216373e+00    0.2574483    0.1723557  42.67  0.001557531    1.141    0.123
        48 -11.4937    168.0316    233.0057   1.0855621791e+02   7.4733952810e+00     0.267349    0.1606915  51.99  0.000941481    1.463    0.317
        49 -19.0681     35.8048    101.0900   1.1857716144e+02   5.1137815137e+01     14.90615    0.8587735 -67.17   0.02725538   13.920    0.928
        50 -10.3635     13.5120     59.9325   1.1861797249e+02   6.2175656838e+01    0.1800574    0.1458479  75.68 0.0004762536    1.379    0.275
        51 -11.0679    157.4323    199.2649   1.0600566351e+02   1.3689773938e+01    0.1747825    0.1350268  51.01  0.001145438    1.113    0.102
        52 -11.1126    204.5553    176.1081   9.3888867478e+01   8.6556181114e+00    0.4990142    0.1977038 -50.43  0.001730705    5.101    0.804
        53 -10.2623    110.1168     20.7502   7.1020508587e+01   5.5476780960e+01    0.2669446    0.1954357  72.51 0.0009189349    1.706    0.414
        54 -10.0097     90.0045     13.5276   7.3313547043e+01   6.0773449070e+01    0.1913834    0.1329295  50.98 0.0004674129    1.525    0.344
        55  99.0000     12.5823    205.8750   1.3240355041e+02   3.2125416671e+01    0.3771046    0.1522128  40.66  0.002445925    2.172    0.540
