#   1 NUMBER                 Running object number                                     
#   2 MAG_AUTO               Kron-like elliptical aperture magnitude                    [mag]
#   3 X_IMAGE                Object position along x                                    [pixel]
#   4 Y_IMAGE                Object position along y                                    [pixel]
#   5 X_WORLD                Barycenter position along world x axis                     [deg]
#   6 Y_WORLD                Barycenter position along world y axis                     [deg]
#   7 A_WORLD                Profile RMS along major axis (world units)                 [deg]
#   8 B_WORLD                Profile RMS along minor axis (world units)                 [deg]
#   9 THETA_WORLD            Position angle (CCW/world-x)                               [deg]
#  10 FWHM_WORLD             FWHM assuming a gaussian core                              [deg]
#  11 ELONGATION             A_IMAGE/B_IMAGE                                           
#  12 ELLIPTICITY            1 - B_IMAGE/A_IMAGE                                       
         1 -15.3267     68.6710    144.5589   1.0631802764e+02   3.7061676290e+01     5.511772     2.753345  66.77   0.01110767    3.406    0.706
         2 -14.3968    214.5528     23.3024   4.1316258248e+01   2.8851897722e+01     1.409638     1.055983  23.57  0.007623692    1.919    0.479
         3 -14.3413    201.4124     36.4557   4.6252757338e+01   3.0377959908e+01     2.068242     1.426141  33.14  0.007938528    1.933    0.483
         4 -12.4942      2.9274     24.7547   1.0123844180e+02   7.0299797665e+01    0.4794883    0.3378142 -48.85  0.002389002    1.254    0.202
         5 -13.0258      3.7293      7.1206   9.3375351089e+01   7.3235999485e+01     1.023133    0.4513146 -35.81  0.005976146    1.723    0.420
         6 -11.9591     54.0275      4.6959   6.7402297890e+01   6.7464432277e+01    0.2857994      0.21493  40.31  0.001033387    1.404    0.288
         7 -11.7721    239.0705      1.9953   3.4228172472e+01   2.5638121968e+01    0.6311561    0.2067922  76.51  0.002407589    2.967    0.663
         8 -10.5899    113.3451    207.9818   1.0532512700e+02   1.5838249876e+01    0.2344867    0.1642229  62.68 0.0007227548    1.453    0.312
         9 -11.3446    139.9402    249.8296   1.0540419499e+02   4.1978561067e+00     0.303397    0.2277338  39.12  0.002007425    1.100    0.091
        10 -10.7450    134.5595    248.7870   1.0628588394e+02   5.1851858001e+00    0.3153559    0.1963226 -81.77    0.0016661    2.705    0.630
        11 -15.6626     85.7921    229.0930   1.1343419699e+02   1.5908127059e+01      4.10428      1.73053  43.60    0.0203296    1.977    0.494
        12 -16.0112      4.1404    180.0086   1.2561258623e+02   3.5634152816e+01      6.94654    0.9558219 -71.34   0.02299147    4.449    0.775
        13 -14.1330     41.4975    204.5809   1.1990140114e+02   2.6612123167e+01    0.9131798    0.6434269 -87.44  0.002233175    1.221    0.181
        14 -15.1185     50.8944    194.6308   1.1706415421e+02   2.7639539370e+01     2.133767     1.303733  71.81   0.01198097    1.563    0.360
        15 -14.8682     31.7411    246.9865   1.2461301172e+02   1.9440956341e+01      1.18934     1.104414  -5.31  0.007975446    1.921    0.479
        16 -16.5290      9.3703    240.4724   1.2796501759e+02   2.2972537259e+01     6.446507      3.27016  31.13   0.04023366    2.482    0.597
        17 -14.9605     47.6900    221.5106   1.2006945734e+02   2.2408773649e+01     1.858214     1.340621  49.00  0.007302441    1.288    0.224
        18 -11.7268    193.2636    195.0069   8.6455292065e+01   4.3218964215e+00    0.9566921     0.503557 -63.10  0.002812531    6.359    0.843
        19 -10.6520    209.8033    199.4693   8.4071743792e+01   7.1988591429e-01    0.2445314    0.2064121 -48.50 0.0006642639    1.501    0.334
        20 -10.7544    112.0983    197.5685   1.0412392770e+02   1.8167252785e+01    0.2362853    0.2253877  69.58 0.0008688504    1.084    0.077
        21  -9.8579     81.9973    194.8317   1.1036862905e+02   2.3434609741e+01    0.2949185    0.1900373  58.24  0.001581698    1.476    0.322
        22  -9.3996    154.3320    185.6790   9.2854188109e+01   1.3161130269e+01    0.1436306    0.1111364  75.28 0.0007049323    1.698    0.411
        23  -8.9471     71.4392    185.4391   1.1154824558e+02   2.7015526953e+01    0.1307629    0.1139641  81.67 0.0001250401    1.024    0.023
        24 -11.2536    146.9641    183.3292   9.4048319749e+01   1.4998719713e+01    0.3176689     0.247261  63.80  0.001577943    1.455    0.313
        25 -10.6757     99.0500    181.1465   1.0462170875e+02   2.3848639825e+01    0.3355124    0.2407093  14.90  0.001626505    2.029    0.507
        26 -12.1626     66.7123    177.6879   1.1165502374e+02   2.9426639339e+01    0.4186987    0.2847941 -45.59  0.002232174    1.800    0.445
        27 -12.1759     71.5199    172.6830   1.0986673765e+02   2.9929300739e+01    0.3389995    0.3112604 -38.83 0.0007715519    1.357    0.263
        28 -11.4356    139.8297    172.6735   9.3680144028e+01   1.8556781388e+01    0.5851071    0.3461803  67.27  0.002245577    2.747    0.636
        29 -12.7552     87.0556    156.3783   1.0353775763e+02   3.1504186225e+01    0.8293223    0.5813378 -41.59  0.001600307    1.645    0.392
        30 -14.2032     79.6027    161.3138   1.0622633280e+02   3.1453870704e+01     2.575673    0.8542736  53.34  0.001144297    4.752    0.790
        31 -13.6206     68.0071    159.0477   1.0877945137e+02   3.3640046791e+01    0.5285639    0.4072062 -54.96  0.001293181    1.317    0.241
        32 -10.0583    173.0587    244.3696   9.8481731100e+01  -1.2113664488e-01    0.2716488    0.1598489 -65.11   0.00130092    3.388    0.705
        33  -8.8024    112.5214    150.5432   9.5961554167e+01   2.8606490592e+01    0.1484638    0.1407613 -89.02 5.053045e-05    1.022    0.021
        34 -12.6280     54.2547    147.6146   1.1060265628e+02   3.8176018815e+01     0.662895    0.3679895 -60.19  0.003273319    1.588    0.370
        35 -15.4431     63.9201    247.5361   1.1911667826e+02   1.5481603777e+01     6.097799     1.651117  32.24  0.007101169    6.705    0.851
        36 -10.0983    174.8719    149.0982   8.0799932016e+01   1.6523176305e+01    0.2310857    0.2126292 -82.63 0.0006000025    1.266    0.210
        37 -10.9462     38.3802    146.0964   1.1450877630e+02   4.0330119365e+01    0.2679709    0.1446456  51.80  0.001335264    1.988    0.497
        38 -11.8218     28.0281    143.5852   1.1685499405e+02   4.1952720013e+01    0.3260515    0.2571949  39.55  0.001367079    1.461    0.316
        39 -10.2761    100.4988    142.4740   9.7450307327e+01   3.2643487815e+01    0.3041023    0.2536882  89.72 0.0009445437    1.283    0.220
        40 -10.0659    103.0150    139.2192   9.6112416628e+01   3.2987069499e+01    0.3923068    0.2624964 -22.34  0.001631332    2.318    0.569
        41 -10.4160     82.8989    142.5643   1.0215867486e+02   3.5484308110e+01     0.389596    0.2220323  61.34  0.001279695    2.285    0.562
        42  -9.4219     79.4945    139.5315   1.0251170030e+02   3.6739916902e+01    0.1974915    0.1269506 -52.58 0.0002778114    1.468    0.319
        43 -12.3259     88.7772    140.9566   1.0027458423e+02   3.4955353211e+01    0.2919599    0.2454903 -52.74 0.0004052026    1.162    0.140
        44 -10.8140     34.6946    139.5482   1.1461008815e+02   4.2289117439e+01    0.2389563     0.189972  75.43  0.000816086    1.234    0.190
        45 -11.6041     25.1194    137.4344   1.1686404141e+02   4.3694687481e+01    0.2701659    0.1927476  60.30  0.001235277    1.470    0.320
        46 -10.2539    110.9868    131.0218   9.2187132610e+01   3.3501037480e+01    0.3226562    0.2590699  -2.36 0.0008578368    1.648    0.393
        47 -10.1508    106.0633    130.7008   9.3443230314e+01   3.4481035390e+01    0.3645585    0.3200947  79.12  0.001405271    1.230    0.187
        48 -10.1011    230.0000    166.0141   7.3610257197e+01   2.6340158709e+00    0.2258147   0.07201562 -37.09 0.0006182491    2.919    0.657
        49 -10.8824    135.6385    123.8205   8.3998385760e+01   3.0274342556e+01    0.3187742    0.1967683 -40.51  0.001048581    1.627    0.385
        50 -10.3317    126.3246    128.2863   8.7489976852e+01   3.1170650704e+01    0.3272821    0.2319357  87.81  0.001346551    2.137    0.532
        51 -13.5326     10.6160    188.6874   1.2488114138e+02   3.3189173951e+01    0.4725873    0.4305083  17.96  0.001391057    1.622    0.383
        52 -10.9742     98.2095    127.1388   9.4799837349e+01   3.6727647863e+01    0.3124816     0.255385 -24.16 0.0007387775    1.449    0.310
        53 -10.7582    117.2374    125.6587   8.9255624957e+01   3.3575302466e+01    0.3755375    0.2294166 -58.50  0.001494504    1.730    0.422
        54 -10.5084    120.6810    121.4757   8.7312877973e+01   3.3870791141e+01    0.3258649    0.2169537 -19.85  0.001021739    2.235    0.552
        55 -10.7627    136.0000    128.0066   8.4942901065e+01   2.9255281956e+01    0.3834919    0.1493593 -49.38  0.001272554    2.582    0.613
        56  -9.3509     92.9105    125.3372   9.5880621980e+01   3.8067028694e+01    0.2321986    0.1769111  63.47 0.0008546968    1.513    0.339
        57  -9.9197    107.6571    119.7622   9.0442470663e+01   3.6783115858e+01    0.2221598    0.2034837  20.84 0.0004471236    1.197    0.165
        58 -10.7809     37.3070    162.1271   1.1670860673e+02   3.6610976630e+01    0.2753426    0.1623255   4.67  0.001243802    3.380    0.704
        59  -9.7075    168.3777    113.3343   7.3459020856e+01   2.5305792986e+01    0.3145703    0.2272208 -78.28 0.0009464173    2.038    0.509
        60 -10.3902    135.0000    112.4365   8.1222438525e+01   3.2950748126e+01    0.3469667   0.08787342 -44.79 0.0009215961    3.829    0.739
        61  -9.9154    205.3438    110.2547   6.5175739843e+01   1.7500028915e+01    0.3052003    0.2106391  44.40  0.001018068    1.553    0.356
        62 -10.2404    134.0000    147.9870   9.0052479922e+01   2.5131497191e+01    0.4371139    0.1990121 -56.21  0.001562961    2.486    0.598
        63 -11.0917     23.2834    108.6697   1.1335858289e+02   5.0785811349e+01    0.2394751    0.1982549  61.46   0.00144255    1.377    0.274
        64  -9.6971    134.6370    106.7809   7.9788827467e+01   3.4270455216e+01     0.229555    0.1437762 -52.05 0.0008711811    1.653    0.395
        65 -11.0359    119.3266    104.9718   8.3373700152e+01   3.7903513939e+01    0.4320826    0.1805058 -39.24   0.00146114    2.551    0.608
        66 -11.3367    133.5430    141.6541   8.8765380477e+01   2.6659530806e+01    0.6771432    0.2806037 -55.04  0.002283905    2.734    0.634
        67  -9.0461    129.4939     96.0059   7.8100224746e+01   3.7709498754e+01    0.2191724    0.1345078 -64.74 0.0008082293    2.389    0.581
        68 -10.8297     41.5743     91.4647   1.0415019781e+02   5.3227673703e+01    0.3044247    0.2098319 -71.83 0.0008243795    1.472    0.320
        69 -10.4395     53.0192     90.8435   1.0011857630e+02   5.2100654359e+01    0.2086388    0.1819006 -81.32  0.000693966    1.277    0.217
        70 -12.0878      2.1013     77.5462   1.1511513325e+02   5.9413217694e+01    0.6721376     0.138303 -69.09  0.002315856    3.973    0.748
        71  -9.4283     70.0144     81.6793   9.1873674682e+01   5.1916193981e+01     0.186229    0.1754705  18.57 0.0005282715    1.163    0.140
        72  -8.9716     75.1872     85.3693   9.1202249517e+01   5.0314253007e+01    0.1834907     0.134587  45.94 0.0002758485    1.567    0.362
        73 -10.5501     13.4988     59.9716   1.0706410403e+02   6.2653518709e+01     0.213968    0.1819691 -55.28 0.0004246817    1.142    0.125
        74  -9.0590     37.4369     56.5656   9.6325312711e+01   6.1367912772e+01    0.1288944    0.1062038 -35.99 0.0001046846    1.019    0.019
        75  -9.8357    171.4373    235.1861   9.7469989979e+01   1.4991482717e+00    0.1524354     0.122367 -62.16 0.0009484009    1.693    0.409
        76 -12.1449    192.9512     42.5454   4.9067192732e+01   3.1645268984e+01    0.5611081    0.4914966  49.26  0.001044383    1.226    0.185
        77 -10.1408    198.5804    222.7358   9.0329180505e+01  -9.9649896314e-01     0.227166    0.1502944  33.52 0.0005016149    1.317    0.241
        78 -11.0283    142.3923     47.5179   5.9583642640e+01   4.3557149285e+01    0.4514635    0.2961903 -76.33  0.001459998    2.416    0.586
        79 -15.5756      9.1022    207.9026   1.2635503316e+02   2.9291305587e+01     2.605751     1.471006 -50.25   0.01523641    2.639    0.621
        80 -10.1857    145.3120     42.0547   5.7142681471e+01   4.3627130794e+01    0.2537704    0.2069245  69.80 0.0002972745    1.270    0.213
        81 -11.4227    163.1954    217.4883   9.6398183997e+01   5.7133678661e+00    0.3270955    0.2049645  18.18  0.001596617    2.034    0.508
        82  -9.4864    130.7000    213.0807   1.0239405393e+02   1.1993355551e+01     0.171559    0.1643574  85.29 0.0003799536    1.123    0.109
        83  -9.3098    136.2532     13.1881   4.9030526809e+01   4.9274520338e+01    0.1765455    0.1513726 -69.03 0.0004330037    1.319    0.242
        84 -10.5199    115.4696    202.7581   1.0413994068e+02   1.6544376036e+01    0.3474482     0.135989 -63.92  0.001292491    3.373    0.704
        85  -9.8114    189.6808     15.0448   4.1880822959e+01   3.5805395025e+01    0.1853141    0.1683033 -53.96 0.0006547423    1.119    0.106
