#   1 NUMBER                 Running object number                                     
#   2 MAG_AUTO               Kron-like elliptical aperture magnitude                    [mag]
#   3 X_IMAGE                Object position along x                                    [pixel]
#   4 Y_IMAGE                Object position along y                                    [pixel]
#   5 X_WORLD                Barycenter position along world x axis                     [deg]
#   6 Y_WORLD                Barycenter position along world y axis                     [deg]
#   7 A_WORLD                Profile RMS along major axis (world units)                 [deg]
#   8 B_WORLD                Profile RMS along minor axis (world units)                 [deg]
#   9 THETA_WORLD            Position angle (CCW/world-x)                               [deg]
#  10 FWHM_WORLD             FWHM assuming a gaussian core                              [deg]
#  11 ELONGATION             A_IMAGE/B_IMAGE                                           
#  12 ELLIPTICITY            1 - B_IMAGE/A_IMAGE                                       
         1 -13.2414    172.0953     55.1814   5.9427967879e+01   3.5015134750e+01     1.939654     1.133761  28.18  0.005800247    2.590    0.614
         2 -13.3471    186.9836     40.9872   5.2644229150e+01   3.3251664333e+01    0.9851035    0.9690689 -76.79  0.003302151    1.064    0.060
         3 -13.9322    210.3038      9.8491   4.1149430703e+01   3.1110395729e+01     1.241563     1.015021  60.35  0.004601903    1.282    0.220
         4 -11.7760    242.0668      2.4938   3.6730476268e+01   2.4397545567e+01    0.8837526    0.2400038  76.21  0.003284229    3.667    0.727
         5  99.0000     63.7660    222.2425   1.1958686648e+02   2.0950933681e+01    0.4946921    0.2046386  71.77  0.002034769    3.543    0.718
         6 -12.8829    247.8051    246.1556   8.8564539847e+01  -1.0996346019e+01    0.8470882    0.6584888   4.15  0.006373193    1.136    0.120
         7 -17.6712     39.6791    241.4476   1.2526362291e+02   2.0384048580e+01     6.929636      5.12996  34.31   0.04917356    1.756    0.430
         8 -11.2876     63.4357    194.6520   1.1705283307e+02   2.6575073242e+01    0.3385804    0.2183464 -46.91  0.001380313    2.127    0.530
         9  -9.9180     39.0068    212.6502   1.2347404852e+02   2.5884643432e+01    0.1528099   0.08504397  50.08 0.0008664323    1.520    0.342
        10 -11.2653     99.2252    180.9150   1.0750705635e+02   2.4276397573e+01    0.3608213    0.2969968 -37.52 0.0006784443    1.563    0.360
        11 -10.9120     96.2494    190.1570   1.0946993867e+02   2.2765029509e+01    0.4552875    0.3293812  29.99  0.001061625    1.632    0.387
        12 -10.7551     99.4685    186.5398   1.0826100470e+02   2.3022196626e+01    0.3045675    0.2020316  34.39  0.001177372    1.631    0.387
        13 -11.9859    149.4718    188.4715   9.7575467053e+01   1.3843219475e+01    0.4201505    0.3513809 -88.32  0.001421779    1.427    0.299
        14 -11.0714     67.6451    206.7505   1.1741214212e+02   2.3494878336e+01    0.2018197    0.1597444  71.48 0.0003127823    1.020    0.020
        15 -10.7420    159.9475    205.7415   9.8265562437e+01   8.7433396362e+00    0.2700125    0.2230182  -3.65  0.001379598    1.474    0.321
        16 -11.2405     59.5850    203.2269   1.1869216282e+02   2.5283040965e+01     0.255887    0.2081727 -40.37  0.001059709    1.853    0.460
        17 -10.9315    192.9128    194.7813   8.9730642636e+01   4.6198818347e+00    0.9040999    0.4908887 -64.94  0.002707917    6.373    0.843
        18  -9.3007     82.1013    194.9921   1.1314356849e+02   2.3897054102e+01    0.2041633    0.1662899  74.11  0.001271687    1.060    0.057
        19 -11.4074    150.7231    179.4301   9.5696906706e+01   1.5380767692e+01    0.4543251    0.2962038 -70.29  0.002044116    2.163    0.538
        20 -11.7431    144.8340    180.3486   9.7158801750e+01   1.6316272344e+01    0.3752991     0.332254  16.47  0.001094964    1.262    0.208
        21 -12.0425    141.5821    174.9543   9.6907814471e+01   1.8032086452e+01    0.6625516    0.4376378  78.55  0.002407434    2.360    0.576
        22 -11.0838    131.0070    180.6727   1.0029052480e+02   1.8822308505e+01    0.2357241     0.201097 -19.73 0.0005751601    1.493    0.330
        23 -10.4524    188.7376    176.8589   8.7134967095e+01   8.4851015278e+00    0.4090343    0.3510273 -55.70  0.002285137    1.381    0.276
        24  -8.6339     50.6705    173.7518   1.1759330106e+02   3.2776997209e+01    0.1097158   0.09633205 -40.85 0.0004356237    1.546    0.353
        25  -8.6110    194.4990    172.5187   8.5090770096e+01   8.1343521186e+00    0.1428507    0.1306933  14.73 -8.543325e-05    1.009    0.009
        26  -9.5599    240.3141    169.3147   7.5818754022e+01   8.8686340018e-02    0.1390483   0.09440351   4.18 0.0002768553    1.641    0.391
        27  99.0000     73.3518    204.2244   1.1600099387e+02   2.3227652468e+01     0.309767    0.1926006  77.33  0.001725503    1.620    0.383
        28 -10.9004     92.7398    157.2551   1.0532700286e+02   3.0667118718e+01    0.2472088    0.2324468 -85.81 0.0002139974    1.077    0.071
        29 -11.7349     98.2974    150.8543   1.0281828674e+02   3.1243834413e+01    0.5915669    0.4606932 -29.18    0.0030071    1.691    0.409
        30 -19.2006     21.9858    101.4865   1.1559930373e+02   5.2611820741e+01     17.52482     1.250375 -67.71   0.03337546   11.937    0.916
        31 -10.9562    133.9030    145.6600   9.2902839178e+01   2.5844465907e+01     1.159786    0.3048467 -55.02  0.002817664    5.573    0.821
        32  -9.7079    113.1483    151.2592   9.9170547754e+01   2.8548267139e+01    0.2873221    0.1892087 -86.53  0.001225038    2.117    0.528
        33  -9.7520    174.6682    149.1508   8.4243264144e+01   1.6603092215e+01    0.2611532    0.2072153  55.95 0.0006266453    1.343    0.255
        34  -9.3596     92.7692    147.7472   1.0366015169e+02   3.2889648439e+01    0.2013492    0.1579311  80.28 0.0006552969    1.346    0.257
        35 -12.2482     75.2303    249.0732   1.1971374071e+02   1.4575343527e+01    0.3027683     0.149869 -61.18  0.001790989    2.374    0.579
        36 -11.3362    108.8507    137.6205   9.7518770744e+01   3.2495056047e+01    0.6648924    0.3173734 -43.42  0.002551015    2.317    0.568
        37 -11.0029    105.9900    130.7997   9.6816288436e+01   3.4615670916e+01    0.4181638    0.3500462 -75.51  0.001129922    1.223    0.183
        38 -11.7632     97.4958    136.8220   1.0034120611e+02   3.4687114508e+01    0.3308045    0.2836671 -70.06  0.001795569    1.111    0.100
        39  -9.9804    135.9790    129.0213   8.8621996942e+01   2.9137248637e+01    0.3450416    0.1831467 -53.26  0.001161562    1.978    0.495
        40  -9.7157    160.8859    128.3376   8.2451702962e+01   2.3883021561e+01    0.2889807    0.2147046 -53.67  0.001327532    1.421    0.296
        41 -10.3513    115.6551    128.6405   9.3766385315e+01   3.3314623750e+01    0.3101228    0.2815272  13.50 0.0007269282    1.269    0.212
        42 -10.5713    103.5811    124.2418   9.6010476106e+01   3.6595249378e+01    0.3152666    0.2615587 -25.37  0.000773173    1.431    0.301
        43 -10.3891    134.8825    121.0759   8.6960651707e+01   3.1140976596e+01    0.5036646    0.0981814 -47.72   0.00117573    5.240    0.809
        44 -10.2206    120.6578    122.7466   9.1062436210e+01   3.3694863970e+01     0.372095    0.2622778  -1.00  0.001500471    2.399    0.583
        45  -9.4402    110.9306    117.9859   9.2529821470e+01   3.6691781165e+01    0.2201789    0.2160396 -47.22 0.0004072552    1.052    0.049
        46  -9.2997    150.9758    117.4970   8.2061768918e+01   2.8400592484e+01     0.210084    0.1399891  74.20 0.0004848755    2.255    0.557
        47  -9.8892    231.2884    113.7323   6.4869848451e+01   1.0911089891e+01    0.2573846    0.2348341  -4.33 0.0007120937    1.113    0.101
        48  -9.6196    167.4371    112.4002   7.6894227504e+01   2.5690391179e+01    0.3305498    0.2585942 -78.28  0.001106989    1.653    0.395
        49 -10.3279    134.7760    105.2829   8.2864860080e+01   3.4638732374e+01    0.5970017    0.1704039 -48.10  0.001654718    3.719    0.731
        50 -11.6303    119.2042    109.8928   8.8232031448e+01   3.6914304184e+01    0.5568923    0.4789547  71.93  0.002288592    1.298    0.229
        51  -9.5954    205.4484    110.1684   6.8511375398e+01   1.7256158456e+01    0.3231252    0.2190434  41.58  0.001096178    1.571    0.363
        52  -9.3230    183.7912     83.8122   6.5593111091e+01   2.7238999717e+01    0.2215458    0.1846044 -70.08 0.0006623581    1.336    0.252
        53  -8.7338    153.4667     82.4588   7.1674055600e+01   3.4967870537e+01    0.1550806    0.1535406  -7.77 0.0001040556    1.013    0.012
        54  -8.9453     72.0228     72.7964   9.2149497062e+01   5.3594275238e+01    0.1847805    0.1717651 -17.92 0.0003353379    1.071    0.066
        55 -10.4552     71.7721    243.8235   1.1990437802e+02   1.5940624018e+01    0.2072179    0.1266673 -86.72  0.001241279    1.684    0.406
        56 -10.8926     58.9278    229.9751   1.2111164584e+02   2.0118773319e+01    0.1932162    0.1315545  83.04 0.0003544133    1.297    0.229
        57 -12.7060    191.7780     34.8297   5.0155725781e+01   3.2841839200e+01    0.6050691    0.5482408 -64.64  0.001410903    1.067    0.063
        58 -11.9876    198.7348     22.9220   4.5895547224e+01   3.2540711839e+01     0.364051     0.356104  52.90  0.001633714    1.158    0.137
        59  -8.7238    167.6408    229.7063   1.0040964527e+02   3.4782294674e+00    0.1403945    0.1210188 -59.84 0.0004547599    1.473    0.321
        60 -10.8404    189.7726     15.1376   4.4807973332e+01   3.5695256021e+01    0.2435129    0.2167735 -79.73 0.0007240287    1.047    0.045
