#   1 NUMBER                 Running object number                                     
#   2 MAG_AUTO               Kron-like elliptical aperture magnitude                    [mag]
#   3 X_IMAGE                Object position along x                                    [pixel]
#   4 Y_IMAGE                Object position along y                                    [pixel]
#   5 X_WORLD                Barycenter position along world x axis                     [deg]
#   6 Y_WORLD                Barycenter position along world y axis                     [deg]
#   7 A_WORLD                Profile RMS along major axis (world units)                 [deg]
#   8 B_WORLD                Profile RMS along minor axis (world units)                 [deg]
#   9 THETA_WORLD            Position angle (CCW/world-x)                               [deg]
#  10 FWHM_WORLD             FWHM assuming a gaussian core                              [deg]
#  11 ELONGATION             A_IMAGE/B_IMAGE                                           
#  12 ELLIPTICITY            1 - B_IMAGE/A_IMAGE                                       
         1 -14.0433    223.5133     19.1308   3.7316220697e+01   2.7967980424e+01     1.109241    0.9579459  29.95  0.003684048    1.506    0.336
         2 -13.8019    198.9810     41.0731   4.5508051314e+01   3.0932922569e+01     1.403827     1.048607  13.17  0.003609536    1.831    0.454
         3 -14.1393    208.0796     35.3695   4.2887970937e+01   2.9542206759e+01     1.438959     1.370691  -2.84  0.006693153    1.221    0.181
         4  -9.7998    132.7286     10.5162   4.6239747685e+01   5.0157659102e+01    0.2258438     0.186575 -66.45 0.0004352526    1.424    0.298
         5 -10.1921      2.3423      3.1217   8.8488086920e+01   7.3788990926e+01    0.2355465   0.06809643 -37.65  0.001112696    2.640    0.621
         6 -11.5102    246.0544      1.8961   3.1808387988e+01   2.5020324757e+01    0.5437919    0.1824403  76.54  0.002328441    2.956    0.662
         7 -10.5897     49.3537      3.0164   6.5084230098e+01   6.8000687227e+01    0.2355504    0.1735222  56.10  0.001022654    1.970    0.492
         8 -10.0050     44.9675      1.4680   6.6017308154e+01   6.8855644923e+01    0.2128719    0.1091401  47.51  0.001141219    2.163    0.538
         9 -10.5411    209.9532    199.6996   8.1862815526e+01   1.5968510600e+00    0.2420263    0.1829462 -37.06 0.0006102361    1.396    0.284
        10 -10.4626    139.7120    249.3746   1.0360913718e+02   4.5441287540e+00    0.1944408      0.15502 -76.05  0.001060293    1.665    0.399
        11 -14.3770      4.4299    182.8947   1.2421724963e+02   3.4623908144e+01     2.954344    0.4778356 -77.35  0.001178039    5.626    0.822
        12 -13.8995     85.6312    229.0627   1.1179854735e+02   1.5880720443e+01     1.280387     1.138003  83.86    0.0050255    1.111    0.100
        13 -15.7581     57.8218    247.3580   1.1869619041e+02   1.6012917462e+01      9.48098      2.73747  28.21   0.01608133    9.876    0.899
        14 -13.1833     35.0714    205.8747   1.1972406157e+02   2.6783662495e+01    0.4264707    0.3871373 -54.24  0.001091927    1.422    0.297
        15 -16.0648     41.6748    194.1554   1.1731837516e+02   2.8620900320e+01     7.866698     3.184062  73.43   0.02771997    4.410    0.773
        16  -9.2188     72.2491    188.2478   1.0989557379e+02   2.6253157417e+01    0.1798297    0.1349764  77.31 0.0003990398    1.341    0.254
        17 -11.3430    193.6782    195.7350   8.4296720046e+01   4.9579687549e+00     0.927973    0.5276956 -64.57   0.00295337    5.545    0.820
        18  -9.8541    145.4965    180.5337   9.1692376514e+01   1.6346456746e+01    0.3077639    0.1409991 -48.75  0.001228611    2.228    0.551
        19  -9.5256     99.2186    180.9942   1.0257053792e+02   2.4023786274e+01     0.206491    0.1840242 -35.17 0.0006758907    1.259    0.206
        20 -12.0995     62.5737    178.3723   1.1086735596e+02   2.9769508020e+01    0.4249963    0.2744312 -39.21  0.001306802    2.012    0.503
        21 -12.0371     67.5243    173.0550   1.0897611249e+02   3.0384214382e+01    0.3328859    0.2563909 -45.18  0.000855475    1.445    0.308
        22 -13.5931     64.5841    159.3115   1.0770924645e+02   3.4047739053e+01    0.5633628    0.4051859 -49.71  0.002272231    1.399    0.285
        23 -11.8389     77.2227    163.4355   1.0514495519e+02   3.1368403707e+01    0.4143652    0.3206947  33.00  0.000400234    1.419    0.295
        24 -14.1379     81.3993    156.3380   1.0289583792e+02   3.2485425342e+01     3.342486     1.490411  56.38  0.003188075    3.479    0.713
        25 -10.3384    138.7065    170.8203   9.1377829496e+01   1.9634501455e+01    0.3416623    0.2041025  44.25  0.001525475    1.700    0.412
        26 -10.0781    158.7266    161.7656   8.4859591654e+01   1.7837208136e+01    0.4153003    0.3031348 -83.86  0.001786518    2.288    0.563
        27 -11.8704     32.5935    156.6485   1.1542090722e+02   3.8254949265e+01    0.4069835    0.3549542  79.91  0.002296388    1.122    0.109
        28 -10.7501    133.7607    144.8586   8.7070558503e+01   2.6336665546e+01      1.26211    0.2691286 -52.98  0.002507955    7.825    0.872
        29  -9.8982    174.8094    148.9287   7.8379252398e+01   1.7346255480e+01      0.28502    0.2130757 -58.43   0.00101297    1.605    0.377
        30 -10.4665     48.1318    145.3347   1.0989488880e+02   3.9415166177e+01    0.2406314    0.1340203  15.89  0.001095072    2.570    0.611
        31 -11.3508     32.1822    144.1584   1.1396645025e+02   4.1318387625e+01    0.3557663    0.3102025  88.87  0.002017995    1.106    0.096
        32 -10.0328    100.9997    139.6877   9.4458017593e+01   3.3459541654e+01      0.36268      0.25651  -8.51  0.001173444    2.096    0.523
        33 -12.3620     86.6003    141.1960   9.8691068104e+01   3.5396783269e+01    0.3077295     0.257065 -42.38 0.0004681889    1.193    0.162
        34  -9.6226    159.3516    135.2529   7.8604716700e+01   2.3342554885e+01    0.2549279    0.1890032 -51.13 0.0005025338    1.400    0.286
        35 -10.0195     47.0947    135.5321   1.0864563789e+02   4.1943472067e+01    0.1837646    0.1362375  30.99  0.001021488    1.564    0.361
        36 -10.4510     98.5029    142.5136   9.5729395369e+01   3.3194008320e+01    0.2718607     0.268789  61.64 0.0007704304    1.072    0.067
        37  -9.2978     38.4745    133.5193   1.1074112940e+02   4.3327157921e+01    0.1350363    0.1130574 -70.49 0.0002176631    1.012    0.012
        38 -10.2377    109.3436    131.3388   9.0319795963e+01   3.4007604226e+01    0.3534398    0.2789415  -2.30  0.001227827    1.591    0.371
        39 -10.4187    106.3137    131.6602   9.1221723290e+01   3.4467329685e+01    0.4264677    0.2618334 -60.20  0.001828445    1.730    0.422
        40 -11.8960     45.7677    129.5819   1.0803367236e+02   4.3555001644e+01    0.4406205    0.2468089  27.31  0.002155301    2.103    0.524
        41 -14.3267     68.3321    144.3565   1.0427653709e+02   3.7216552374e+01     3.604376     1.767813 -83.48  0.003143013    3.900    0.744
        42 -11.0051     96.8303    127.4929   9.2894799205e+01   3.7086292229e+01     0.296898    0.2527908 -20.09 0.0007415677    1.293    0.226
        43  -9.7228    115.8493    125.1913   8.7072905450e+01   3.4260508910e+01    0.2159695    0.1791828 -18.25 0.0005274471    1.330    0.248
        44 -11.2052     43.8728    122.9426   1.0743414911e+02   4.5391338439e+01    0.2787535    0.1942767 -62.07 0.0006610649    1.206    0.171
        45  -9.9708    106.7327    119.8285   8.8256815276e+01   3.7185269050e+01    0.2232674    0.2031944   0.16 0.0003475902    1.177    0.150
        46 -11.3471     22.7614    119.2390   1.1307414682e+02   4.8212203676e+01    0.3185018     0.188898  79.55  0.001572043    2.117    0.528
        47  -9.6322     83.6375    117.8688   9.4468537219e+01   4.1521282379e+01    0.2789318    0.1889583  57.55  0.001271211    1.903    0.475
        48  -9.4337    168.0437    113.0258   7.0927285377e+01   2.6101859156e+01    0.2554854    0.1949201 -73.43  0.001133437    1.810    0.447
        49 -10.1806    205.3823    110.2632   6.2712319357e+01   1.8478134795e+01    0.3344958    0.2237213  34.57  0.001013649    1.734    0.423
        50 -10.2392    134.5648    106.3030   7.7099870353e+01   3.4759853994e+01    0.3066538    0.1466034 -46.44  0.001129923    2.057    0.514
        51  -9.6688     29.5184    107.5125   1.0905767046e+02   5.0514097367e+01    0.1334465    0.1100355 -63.86 0.0008098631    1.045    0.043
        52  -9.8540    110.3364    194.2101   1.0206430686e+02   1.9372801361e+01    0.2680636    0.1822991 -76.28  0.000553609    1.768    0.435
        53 -10.6239    248.1910    102.4030   5.4013120293e+01   1.1146961404e+01    0.1734248    0.1336216  76.22 0.0009564132    1.720    0.419
        54  -9.8435     41.9034     91.9998   1.0171602041e+02   5.3071396036e+01    0.2038449    0.1737693 -48.65 0.0004789206    1.031    0.030
        55 -10.3961     52.9377     90.9732   9.7659141726e+01   5.2098298882e+01    0.2245332    0.1856198 -43.44 0.0006446387    1.027    0.026
        56 -10.8371    250.1097     87.6771   5.0383103279e+01   1.3095127826e+01    0.2482462    0.1526955 -42.68 0.0005353851    1.382    0.276
        57  -9.3686     73.0808     83.9963   8.8835455053e+01   5.0973044799e+01    0.2122056    0.1773755  82.39 0.0008778516    1.710    0.415
        58  -8.8009    151.0055     82.9502   6.6258378129e+01   3.5794391260e+01    0.1780207    0.1717996 -12.45            0    1.012    0.012
        59  -9.5991    160.1413     81.8302   6.3888758777e+01   3.3884817056e+01    0.2098728    0.1793403   9.56 0.0004178145    1.295    0.228
        60  -9.6605    249.6508     80.6633   4.8836202628e+01   1.4255609848e+01    0.1316343    0.1011338   5.95 0.0007046785    1.784    0.440
        61  -8.7457     92.3658     66.7004   7.6883092579e+01   5.1271675339e+01    0.1393246    0.1188857 -86.98 0.0007033385    1.729    0.422
        62  -9.4088     47.9988     62.3269   9.1138005254e+01   5.8953170888e+01    0.1757448    0.1553746 -11.83  0.000383559    1.126    0.112
        63 -10.6088     13.4915     59.9965   1.0440623811e+02   6.2621963783e+01    0.2188892    0.1822436 -48.48 0.0004236084    1.126    0.112
        64 -10.4254     61.4341    199.4469   1.1361948489e+02   2.5149560317e+01     0.252715    0.1794727  75.51 0.0005555249    1.364    0.267
        65 -12.6541    215.4986     27.3684   4.0065386942e+01   2.8815559020e+01     0.538263    0.4135472  48.97  0.001107348    1.492    0.330
        66 -13.8698     22.3090    223.9536   1.2346742296e+02   2.4375128599e+01     1.143942    0.4952739  73.39  0.003833692    2.383    0.580
        67 -10.5635    170.9541    233.1790   9.5295947965e+01   2.4043604853e+00    0.2359023    0.1900817 -55.32 0.0007720254    1.604    0.376
        68  -8.6459    149.2966     42.6465   5.3956432779e+01   4.2652510618e+01    0.1470925    0.1073106 -62.64 0.0007034239    1.691    0.409
        69 -10.2617    140.0368     37.8119   5.4204851446e+01   4.5493942634e+01    0.2945893     0.231311 -73.32 0.0006669402    1.611    0.379
        70  -9.6306    136.4982     34.9672   5.3963998773e+01   4.6689319992e+01    0.2099248     0.187726  76.28 0.0004363437    1.218    0.179
        71  -9.8265    136.9050     43.1116   5.6653923109e+01   4.5536621817e+01     0.213376    0.1895236 -69.34 0.0004855396    1.313    0.238
        72 -10.3081    189.8326     15.2730   3.9725911336e+01   3.6066037820e+01       0.2216     0.163528 -45.86 0.0006111357    1.333    0.250
        73 -10.9877     72.7680    229.1624   1.1433966880e+02   1.7566338582e+01    0.3293495    0.2431494 -49.04  0.001524997    1.696    0.410
        74 -15.9152      8.3902    239.4577   1.2674137433e+02   2.2743411198e+01     8.369425     1.816856 -77.54   0.03259772    4.121    0.757
        75 -14.8192      9.7913    207.3511   1.2474950127e+02   2.8926063358e+01     1.098116     1.041859 -16.25  0.008745009    1.600    0.375
        76  -9.4301    113.2761    207.4155   1.0337026231e+02   1.6155957367e+01    0.2128721    0.1558483  88.83 0.0006125516    1.702    0.412
