#   1 NUMBER                 Running object number                                     
#   2 MAG_AUTO               Kron-like elliptical aperture magnitude                    [mag]
#   3 X_IMAGE                Object position along x                                    [pixel]
#   4 Y_IMAGE                Object position along y                                    [pixel]
#   5 X_WORLD                Barycenter position along world x axis                     [deg]
#   6 Y_WORLD                Barycenter position along world y axis                     [deg]
#   7 A_WORLD                Profile RMS along major axis (world units)                 [deg]
#   8 B_WORLD                Profile RMS along minor axis (world units)                 [deg]
#   9 THETA_WORLD            Position angle (CCW/world-x)                               [deg]
#  10 FWHM_WORLD             FWHM assuming a gaussian core                              [deg]
#  11 ELONGATION             A_IMAGE/B_IMAGE                                           
#  12 ELLIPTICITY            1 - B_IMAGE/A_IMAGE                                       
         1 -11.4699     80.2337     23.4472   7.1668295927e+01   6.1498718508e+01    0.6499748    0.2896079  37.00  0.002650928    2.508    0.601
         2  -9.4807     26.9629     21.5914   9.3580899656e+01   6.9924106835e+01    0.7721285    0.2277858 -41.74  0.003155987    2.758    0.637
         3  -9.3934     31.5866     10.8363   8.5709328903e+01   7.1253147116e+01    0.3915181     0.231003  17.42  0.001440441    1.945    0.486
         4  -9.0074     31.9823      6.1585   8.2833739389e+01   7.1926305554e+01    0.2678341    0.1842248  -1.92  0.000341928    1.437    0.304
         5  -8.4938    144.5986     23.3988   5.5345039175e+01   4.6422971615e+01     0.260479    0.2292145  24.94 0.0005216439    1.169    0.145
         6  -8.8160     14.1179     17.6419   9.8696895087e+01   7.1844518851e+01    0.3449419    0.1819622 -25.21  0.001678768    1.977    0.494
         7  -8.8744     46.2076     21.0198   8.3930916189e+01   6.7664545366e+01    0.3912752    0.1842593 -35.51   0.00187711    1.854    0.461
         8  -8.7545     71.6822      8.9807   6.7309579541e+01   6.5083097259e+01    0.3228359     0.215459 -50.45 0.0009333631    2.112    0.527
         9  -9.5312     79.2816     12.9349   6.6811960934e+01   6.3096822975e+01    0.5754396    0.2844184  41.12  0.002638302    1.991    0.498
        10  -8.8690     74.4798     13.5051   6.8713968597e+01   6.3980537841e+01    0.3415629    0.2124666   2.66  0.001117518    1.886    0.470
        11  -9.3116     64.2006     14.2444   7.2844203285e+01   6.5806007224e+01     0.321519    0.2121996  16.13  0.001132011    1.652    0.395
        12  -8.4473     88.2278     13.2382   6.4176380239e+01   6.1194844611e+01     0.272998    0.1819697  23.51  0.001144196    1.566    0.361
        13  -8.2166     96.8366     12.2946   6.1285831760e+01   5.9410417335e+01    0.2664983    0.1611061  14.65 0.0009399427    1.979    0.495
        14  -9.1593    125.4372     10.1957   5.3769094631e+01   5.2777771718e+01    0.2684937    0.1874951  36.15 0.0005071911    1.427    0.299
        15  -8.6337    108.6763     11.2221   5.7809932092e+01   5.6782530463e+01    0.1929375    0.1722368  51.85 0.0009536179    1.129    0.114
        16  -9.5880     20.2447      8.9145   9.0866215007e+01   7.2840050103e+01    0.3099316    0.1917309 -14.65  0.001113128    1.656    0.396
        17  -7.3972    177.5191      9.5938   4.5583265423e+01   3.9227367107e+01    0.1414704    0.1306375 -80.40 0.0001055765    1.039    0.038
        18  -7.6141    142.6644      9.7120   5.0491861896e+01   4.8406317374e+01    0.1529478   0.09855665  36.95 0.0002604212    1.631    0.387
        19  -8.9353    136.5137      8.4687   5.1040605542e+01   5.0120853808e+01    0.2378601    0.2277082  24.94 0.0005814649    1.039    0.037
        20  -9.7540    133.9566     13.5990   5.3528464897e+01   5.0267254594e+01    0.2600264    0.2349163  31.21  0.000282074    1.080    0.074
        21  -8.7580    156.0420      6.8340   4.7404856480e+01   4.5167740441e+01     0.289159    0.2057662 -10.53 0.0005279289    1.539    0.350
        22  -9.2484     76.4198      5.5978   6.3922458960e+01   6.4525461492e+01     0.469364    0.2492044 -23.15   0.00150607    1.787    0.441
        23  -9.5731     46.5529      6.2785   7.5781363076e+01   6.9836554541e+01    0.2858315     0.206105   7.04 0.0003185546    1.328    0.247
        24  -8.6114     41.0536      5.7978   7.8062344554e+01   7.0732294083e+01    0.2736924     0.177882 -12.13 0.0009505901    1.453    0.312
        25  -9.9291      8.6162      5.3852   9.5948917798e+01   7.4500458037e+01    0.4373004    0.2231564   6.33  0.001746991    2.488    0.598
        26  -8.3043    131.5122      5.4802   5.0713682445e+01   5.1682934599e+01     0.280543    0.1809652 -42.41 0.0006603373    1.683    0.406
        27  -7.7700    134.0493      3.0200   4.9296113454e+01   5.1249310212e+01    0.2149455    0.1719031  39.86 0.0003458451    1.208    0.172
        28  -7.9639    100.4815      6.0534   5.7390443692e+01   5.9230344044e+01    0.2866792    0.1812486  56.42  0.001148639    1.529    0.346
        29  -8.5557     92.1906      5.5655   5.9276797294e+01   6.1163362069e+01    0.3513928    0.1490523  47.30  0.001350534    2.135    0.532
        30  -9.6579     84.8132      5.4708   6.1288603939e+01   6.2785987432e+01    0.2776307    0.2125941 -11.99  0.001588775    1.240    0.193
        31  -8.0926    125.6211      3.9239   5.1124317610e+01   5.3318759032e+01    0.1903809    0.1678436  -3.72 0.0004140084    1.159    0.137
        32  -8.3672    109.5970      2.1708   5.3509569990e+01   5.7431332803e+01    0.3756006    0.1843587 -34.22  0.001662328    2.122    0.529
        33  -8.2559    105.7966      1.6190   5.4077180219e+01   5.8389772794e+01    0.3323696    0.1791009  50.54  0.001569834    1.665    0.399
        34  -8.7199     57.2789      3.1075   6.9368079894e+01   6.8448893728e+01    0.2722191    0.2578992  60.26  0.001163365    1.469    0.319
        35 -10.2736    119.2229      6.9111   5.3614079206e+01   5.4647766703e+01    0.2623176    0.2337451  28.59 0.0002249249    1.059    0.056
        36  -7.9163    143.1783      2.1409   4.7524681846e+01   4.8960495459e+01    0.2077721    0.1738209  36.84 0.0003429707    1.191    0.160
        37  -7.2348      3.2776      1.2783   9.7173455450e+01   7.5617702749e+01    0.1138521   0.06414721 -28.08 0.0001744537    1.501    0.334
        38  -8.2291    212.1053    108.8074   6.9527798078e+01   1.6211125711e+01    0.2141227    0.1922089 -51.25 0.0004486884    1.211    0.174
        39 -10.9987    192.6245    249.7982   9.9915908000e+01  -9.3470039391e-01    0.6411563    0.2066874  45.14  0.002996689    2.805    0.643
        40  -7.7324    124.0152    107.4718   8.8208404087e+01   3.6213535018e+01    0.2155641    0.1365432  20.03 0.0008072747    2.569    0.611
        41  -7.8732    109.0376    106.9826   9.2082740120e+01   3.9307886421e+01    0.2310798    0.1855743 -14.16 0.0006689517    1.624    0.384
        42  -9.1604     14.7593    105.1067   1.1966544580e+02   5.2218045644e+01    0.3819405    0.1798524 -36.23  0.001733308    3.174    0.685
        43  -7.7681     94.8188    103.3631   9.5167223027e+01   4.2761339374e+01    0.2066485    0.1427194  28.47 0.0009558858    1.766    0.434
        44 -10.6235     11.6869     94.3512   1.1920050954e+02   5.4991835904e+01    0.8089017    0.3608603 -31.81  0.003483417    3.678    0.728
        45  -7.2415    140.3509     99.2898   8.1850281305e+01   3.4450126710e+01    0.1586113     0.124337   8.30 0.0002122842    1.669    0.401
        46  -8.7736    239.9276     93.4783   6.1263118088e+01   1.2606615857e+01    0.3940489    0.1293798 -44.80  0.001281131    3.437    0.709
        47  -7.8206     83.0399     93.8244   9.6239774410e+01   4.6995863139e+01    0.2266389    0.1688207  -3.10 0.0006229368    1.985    0.496
        48  -8.7427     43.7064     92.4640   1.0850219624e+02   5.2671909390e+01    0.3641272    0.2277348 -25.57  0.001757079    2.328    0.571
        49  -8.0706    249.3272     91.3411   5.9441493537e+01   1.0969952389e+01    0.1429919    0.1016695   8.16            0    1.736    0.424
        50  -8.1204    110.1205     90.7599   8.7383895487e+01   4.2741801692e+01    0.3502842    0.2038716  21.32  0.001232266    3.085    0.676
        51  -8.5353     96.8420     89.9999   9.1020311956e+01   4.5470499154e+01    0.4213057    0.2826813  -6.86  0.001660359    2.712    0.631
        52  -8.7075     18.3520     95.3146   1.1722373491e+02   5.4290932299e+01    0.2128485    0.1508517 -20.37  0.001260988    1.944    0.486
        53  -7.5732    139.3261     87.3252   7.8625509607e+01   3.7143718720e+01    0.1614047     0.125148   5.18 0.0002850917    1.694    0.410
        54 -10.2182     37.4370     80.9966   1.0819381683e+02   5.6065732466e+01    0.6030049    0.3411117 -19.30  0.002658091    3.008    0.668
        55  -7.8238     66.0109     84.2831   9.9184708918e+01   5.1840497694e+01    0.1884521    0.1768983 -46.71 0.0005263672    1.090    0.083
        56  -7.6015    126.8412     83.3980   8.0609596036e+01   4.0774634907e+01    0.2183664    0.1460555  35.59 0.0007237017    1.690    0.408
        57  -9.8171      7.8504     77.7381   1.1803330994e+02   5.9159706180e+01     0.568949    0.2534027 -36.99  0.002684365    2.717    0.632
        58  -8.8510     88.2453     78.8375   9.0389727225e+01   4.9532778012e+01     0.512728    0.3044176  18.58  0.001971876    2.828    0.646
        59  -7.6279    184.1556     77.8769   6.6090323895e+01   2.8044706812e+01    0.2151717    0.1829731   3.09 0.0007391784    1.319    0.242
        60  -9.1470     49.2029     76.9456   1.0305960959e+02   5.5744766578e+01     0.429053    0.2655306 -11.64  0.001926368    2.700    0.630
        61  -9.2243     29.9551     68.5181   1.0805520024e+02   5.9702565934e+01    0.3607887    0.1945738 -16.78  0.001591791    3.118    0.679
        62  -9.4582     23.8503     73.9780   1.1156988974e+02   5.8941950562e+01    0.5219612    0.1689032 -49.58  0.002174268    2.563    0.610
        63  -8.1653     23.4877     69.4917   1.1074046315e+02   6.0020852372e+01     0.232864    0.1681922 -69.44 0.0006308372    1.187    0.158
        64  -8.3126     74.9892     74.1247   9.3286610709e+01   5.2818620527e+01    0.2131445    0.1945791 -45.59 0.0003752071    1.023    0.022
        65  -8.3093     48.7183     71.4153   1.0177139157e+02   5.7086575033e+01     0.231661    0.1288731  36.19   0.00113213    2.075    0.518
        66  -7.7094    129.4864     69.0551   7.5301969863e+01   4.3029659308e+01    0.2142118    0.1373936 -10.82 0.0008058751    2.356    0.576
        67  -8.4558    115.4971     68.6109   7.8905204938e+01   4.6274724501e+01    0.2594007    0.2453572 -11.94  0.000574426    1.063    0.059
        68  -8.9056     82.7001     65.6909   8.7981498131e+01   5.3368604408e+01    0.6653352    0.3687459 -22.43  0.002426397    3.039    0.671
        69  -7.9925     11.3531     60.7250   1.1356683371e+02   6.2902066123e+01    0.2002769      0.10322 -69.69    0.0006694    1.601    0.375
        70  -8.1559     15.9991     64.2410   1.1247948175e+02   6.1791720125e+01    0.3158216    0.1771801  31.90  0.001451672    2.171    0.539
        71  -8.7592     19.3290     61.1381   1.1045355792e+02   6.2268397358e+01    0.2542156    0.1787805 -19.78 0.0008018357    1.705    0.414
        72  -9.6762     62.5375     61.3034   9.3607388253e+01   5.7539556268e+01    0.7163991    0.3125459  25.44  0.002326198    3.486    0.713
        73  -8.2173    211.7578     60.2397   5.6445161382e+01   2.4019516311e+01    0.2939604    0.1989457 -17.98   0.00135697    1.590    0.371
        74  -9.6601     37.4518     59.1391   1.0262391418e+02   6.1125341313e+01    0.4373261    0.2151641 -30.60  0.001155477    2.717    0.632
        75  -9.4138     26.2404     60.2781   1.0745498762e+02   6.1918705259e+01    0.2938887    0.2414448  -3.53  0.001900822    1.465    0.318
        76  -8.2688     95.8394     59.9857   8.1716381253e+01   5.2085551909e+01    0.2511404    0.1654266 -17.70 0.0008334099    1.962    0.490
        77  -8.0177    111.3158     58.6285   7.6586228364e+01   4.9116850498e+01    0.2920874    0.1696197  29.15  0.001139278    2.319    0.569
        78  -7.4518     99.3261     56.3049   7.9286854152e+01   5.2099316154e+01    0.1514917    0.1146169   2.00 0.0004332938    1.646    0.393
        79  -8.1424    106.2489     67.2936   8.1113425607e+01   4.8511287091e+01    0.2887393    0.2294641   6.64  0.001260823    1.542    0.352
        80  -9.9426     74.8745     50.4470   8.5208438172e+01   5.7841049131e+01    0.4538124    0.2809167 -22.57 0.0003751829    1.947    0.486
        81  -9.1772     45.1404     49.1587   9.6272711518e+01   6.2443150229e+01    0.4740148     0.217173 -35.17   0.00158758    2.395    0.582
        82  -8.5471    118.5852     51.0053   7.1763417593e+01   4.8854598596e+01    0.2750047    0.2217648  49.95 0.0004663366    1.284    0.221
        83  -7.4748    106.7050     48.6339   7.4168995252e+01   5.1941610858e+01    0.1560819    0.1139808   3.29 0.0007029814    1.718    0.418
        84  -8.8327     10.5939     47.2120   1.1069516921e+02   6.5990640271e+01    0.3588962    0.1915003 -65.95  0.001266303    1.556    0.357
        85  -9.2506     13.5326     45.5364   1.0892221193e+02   6.6170628848e+01    0.2447893     0.200494 -51.67 0.0006900509    1.061    0.058
        86  -9.2794     55.6023     44.0871   9.0090505760e+01   6.2113358379e+01    0.6974124     0.327644 -24.59   0.00237654    3.969    0.748
        87  -8.1807      1.3118     28.6764   1.0988607183e+02   7.0486149743e+01    0.2021857     0.139291 -78.97 0.0007541925    1.658    0.397
        88  -8.8867      5.9577     34.1383   1.0919978744e+02   6.9091350268e+01    0.2687841     0.191566 -18.05  0.001533148    1.529    0.346
        89  -8.6024      2.6440     31.7725   1.1015130247e+02   6.9770487963e+01    0.1739999    0.1507518 -43.22 0.0006278713    1.166    0.142
        90 -11.0294     83.1486     40.0482   7.8115352325e+01   5.8276551769e+01    0.4185813    0.2681593 -19.66            0    1.731    0.422
        91  -8.9803     87.4594     38.0422   7.5820169058e+01   5.7781881167e+01    0.3019349    0.2455547 -11.39 0.0005795447    1.211    0.175
        92  -7.4601    142.4687     44.4802   6.3575837298e+01   4.4102795997e+01    0.1521022    0.1469244   6.29 4.209115e-06    1.030    0.029
        93  -8.3108     91.9978     37.2689   7.4023054569e+01   5.6993880879e+01    0.2417223    0.1952293 -54.57 0.0004158945    1.470    0.320
        94  -9.4916     69.0147     36.7518   8.1787980518e+01   6.1407127584e+01    0.4629194     0.286078   4.20  0.002001139    2.528    0.604
        95  -8.4082     73.5361     34.4794   7.9111010822e+01   6.1015047341e+01    0.2229204    0.1931902 -21.17 -2.626057e-06    1.027    0.026
        96  -8.7760      3.6528     42.0973   1.1253417659e+02   6.7505219928e+01    0.7645404    0.1087895 -56.92  0.002916175    3.221    0.690
        97  -7.6536     52.5142     38.5086   8.9119366359e+01   6.3637647827e+01    0.1349976    0.1136451 -29.76 -6.988785e-06    1.002    0.002
        98  -9.2552     37.6379     36.1320   9.4657738414e+01   6.5987227620e+01    0.3942226    0.2396689  -3.23  0.001447301    2.311    0.567
        99  -9.5563     19.2387     36.1070   1.0331299806e+02   6.7771200947e+01    0.4856844    0.1750516  29.13  0.002249881    3.214    0.689
       100  -9.0482     21.5033     32.2418   1.0081027567e+02   6.8377825061e+01    0.3181397    0.2123435   7.10  0.001079877    1.782    0.439
       101  -7.8527    106.2020     36.5483   6.9467247407e+01   5.4051667163e+01    0.2142608    0.1282042  38.25 0.0009409284    1.770    0.435
       102  -8.1699     55.8703     35.8346   8.6595402568e+01   6.3660960830e+01    0.1978917    0.1565369 -17.05  0.000297634    1.205    0.170
       103  -8.4617     42.0058     28.0583   8.9211830348e+01   6.6999899382e+01     0.201369    0.1324312 -16.79 0.0004716158    1.637    0.389
       104  -8.8200    213.1023    248.9181   9.6443770673e+01  -3.7533835536e+00    0.2093867    0.1566708  61.59  0.001385005    2.353    0.575
       105  -9.5149     69.1932     25.8526   7.6763864333e+01   6.3206733464e+01    0.3119443    0.2756403  40.75  0.001628174    1.302    0.232
       106  -9.1118     61.8632     26.7751   8.0049547154e+01   6.4314576882e+01    0.3294075    0.2503729   1.98  0.001194802    1.365    0.268
       107  -9.8542    157.0415    249.3126   1.0584195319e+02   4.3213064807e+00    0.3871521   0.07919009  40.71  0.001478251    3.723    0.731
       108  -8.0624    133.9009    106.2395   8.5356005648e+01   3.4396026691e+01    0.2912402    0.2024669 -16.85 0.0007994483    2.051    0.512
       109  -9.1438    155.7973    242.5786   1.0527359617e+02   5.3808387228e+00    0.1844257   0.08976287  40.18 0.0007510302    1.593    0.372
       110 -10.1471    124.1827    241.3294   1.1065878140e+02   1.0241526484e+01    0.1941767    0.1576172  50.79  0.000228469    1.057    0.054
       111  -7.6120    128.8174     22.4169   5.8079925072e+01   5.0582159303e+01    0.2103514    0.1246608  48.12 0.0005676368    1.625    0.385
       112  -9.1466     92.3171     20.6968   6.6524971654e+01   5.9383775726e+01    0.2973073    0.2215147  16.23 0.0008549309    1.391    0.281
       113  -8.4792    139.9255     20.1787   5.4988704233e+01   4.8010808110e+01    0.2652851    0.2018905  34.69 0.0005602564    1.355    0.262
       114  -8.7531      8.5902     20.1783   1.0288613170e+02   7.1771529228e+01    0.3349356    0.2012437  29.31  0.002067626    2.083    0.520
       115  -9.8078    187.8952    234.3967   9.8660054675e+01   1.5697650859e+00    0.2469137    0.1994576  47.54  0.001344522    1.339    0.253
       116  -8.0632    126.6939    226.9802   1.0865701608e+02   1.2042059620e+01    0.1527078     0.129926  58.09 0.0001770202    1.099    0.090
       117  -7.2219    151.3646     18.3179   5.2278263582e+01   4.5235339386e+01    0.1609327     0.101951  34.31 0.0005601899    1.774    0.436
       118  -7.5280    102.2999     18.3119   6.2614710211e+01   5.7467069423e+01    0.1476658    0.1002814  21.53 0.0007014845    1.605    0.377
       119  -8.1458    127.2538     16.9056   5.6170952739e+01   5.1614332557e+01    0.2059919    0.1912999 -47.67 0.0007028264    1.161    0.139
       120  -8.9741    233.4421    197.7107   8.5005678819e+01  -9.9441483035e-01    0.2542551    0.2244319 -63.52  0.001007956    1.962    0.490
       121  -8.9335    221.4296    192.5436   8.6115082914e+01   1.5934695527e+00    0.2092403    0.1896453  19.54 0.0001782383    1.218    0.179
       122  -8.6592    222.5209    187.9111   8.5076130302e+01   2.0269322912e+00    0.2098805    0.1627503  35.18 0.0003740759    1.251    0.200
       123  -7.3046    189.4454     15.5685   4.6081101843e+01   3.5482444406e+01    0.1402419    0.1330695 -75.88 0.0001400966    1.013    0.013
       124  -7.2364    232.6240    183.2393   8.2471571923e+01   9.6804042196e-01    0.1101038   0.09790336  57.26 0.0006699814    1.624    0.384
       125  -8.4364    222.9546    182.9969   8.4079100941e+01   2.6167545832e+00    0.1876678     0.159727  12.31  0.001209484    1.040    0.039
       126  -7.1476    105.3209     14.3174   6.0022590476e+01   5.7236793594e+01    0.1509016   0.09789336  25.49 0.0007042161    1.663    0.399
       127  -7.8817    143.1079    180.5512   9.9000709658e+01   1.7287723391e+01    0.1856554    0.1768334 -53.96 0.0004707133    1.156    0.135
       128  -9.9519    190.7572    179.5472   8.9284252322e+01   8.7941088601e+00    0.2510635     0.217071  29.14 0.0003364869    1.052    0.050
       129  -7.4923    242.4893    177.9965   7.9824519816e+01   3.0157439102e-02    0.1702915   0.09459657  -4.20 0.0005336037    2.258    0.557
       130  -7.8232     76.0151    178.3019   1.1312742209e+02   2.8582671396e+01    0.1711132    0.1422824  65.00 0.0002232462    1.062    0.058
       131  -7.1115    249.3009    177.7292   7.8671974350e+01  -1.0315086794e+00    0.1024444   0.09869383 -32.87 0.0002142962    1.529    0.346
       132  -8.3641    211.0796    162.9805   8.2229047401e+01   7.6275654469e+00    0.1976953    0.1753865   8.23 0.0003283428    1.012    0.012
       133  -7.3535    196.6891    161.2988   8.4562660663e+01   1.0617451792e+01     0.127994    0.1121412 -89.93 0.0007011947    1.601    0.375
       134  -7.5184    139.4491    157.5530   9.5692238558e+01   2.2409797184e+01    0.1400463     0.132231  59.56 0.0001845757    1.017    0.017
       135  -7.5931    133.4995    148.4804   9.5269125421e+01   2.5407973226e+01    0.1420141    0.1374476  61.54 0.0001340568    1.023    0.022
       136  -9.2211     67.2557    144.8105   1.1078163062e+02   3.7230316965e+01    0.4149079      0.27575  73.52  0.002187237    1.580    0.367
       137  -8.0534    139.4903    139.0295   9.1908163943e+01   2.6219424300e+01    0.2132073    0.1444956 -47.58 0.0005036919    1.494    0.330
       138  -7.2817    108.3705    137.2911   9.9086145588e+01   3.2510269709e+01    0.1417755    0.1160635  -7.99 0.0007024418    1.719    0.418
       139  -7.1492    168.2987    136.2865   8.4842946994e+01   2.0825384276e+01    0.1468244    0.1153513   6.83 0.0001908607    1.553    0.356
       140  -7.4350    125.5531    136.4584   9.4671562990e+01   2.9507677103e+01    0.1434903    0.1408905 -86.81 1.359399e-05    1.042    0.040
       141  -7.3882     55.6855    134.7014   1.1227573813e+02   4.1102994576e+01    0.1263291   0.09672729 -41.96 0.0003126716    1.608    0.378
       142  -7.7628     41.2960    128.9708   1.1529223380e+02   4.4123022145e+01    0.2076104      0.11729 -30.56 0.0008853902    3.333    0.700
       143  -8.4175     68.3235    127.9548   1.0782368882e+02   4.1060817011e+01    0.2037481     0.166355 -70.11  0.001172488    1.097    0.088
       144  -7.7052    143.4463    126.7431   8.8193761803e+01   2.7994883093e+01    0.2149208    0.1426546 -33.04 0.0009428217    1.695    0.410
       145  -9.0300     11.7785    121.6888   1.2236227899e+02   4.8516116362e+01    0.1859511    0.1682808  13.90  0.001342338    1.521    0.342
       146  -7.2920    119.6707    118.6818   9.2137101114e+01   3.4593941617e+01    0.1508701    0.1210847  -8.81 0.0007047085    1.684    0.406
       147  -7.4342    155.7955    112.6112   8.1801499576e+01   2.8243385218e+01     0.212353    0.1475722  60.30 0.0004943942    1.634    0.388
       148  -8.0884     28.4982    112.5196   1.1661225073e+02   4.9325972531e+01     0.129089     0.103609 -79.43 3.351933e-05    1.004    0.004
       149  -7.3587    142.6641    111.6869   8.4638874069e+01   3.1337339672e+01    0.1574265    0.1237644   2.94 0.0007045966    1.688    0.408
       150  -8.2119      2.1205    110.0144   1.2386138250e+02   5.1903103834e+01    0.3424141   0.07808531 -53.23    0.0012685    4.150    0.759
