#   1 NUMBER                 Running object number                                     
#   2 MAG_AUTO               Kron-like elliptical aperture magnitude                    [mag]
#   3 X_IMAGE                Object position along x                                    [pixel]
#   4 Y_IMAGE                Object position along y                                    [pixel]
#   5 X_WORLD                Barycenter position along world x axis                     [deg]
#   6 Y_WORLD                Barycenter position along world y axis                     [deg]
#   7 A_WORLD                Profile RMS along major axis (world units)                 [deg]
#   8 B_WORLD                Profile RMS along minor axis (world units)                 [deg]
#   9 THETA_WORLD            Position angle (CCW/world-x)                               [deg]
#  10 FWHM_WORLD             FWHM assuming a gaussian core                              [deg]
#  11 ELONGATION             A_IMAGE/B_IMAGE                                           
#  12 ELLIPTICITY            1 - B_IMAGE/A_IMAGE                                       
         1 -13.6526    103.9991    100.0256   8.4764464987e+01   4.2337184982e+01     4.284871     2.641559  34.97   0.01769073    1.739    0.425
         2 -12.6925      7.0813    103.9807   1.1699119725e+02   5.3202405823e+01      3.61113    0.6869412 -61.66   0.01370999    3.041    0.671
         3 -13.0454     15.1286    111.8917   1.1559587668e+02   5.0813282775e+01      3.83512     1.177901 -74.37   0.01440193    3.107    0.678
         4 -10.4091     75.2851     17.7595   6.4731302505e+01   6.2420238131e+01    0.2948448    0.2520765 -26.86 0.0005972139    1.317    0.241
         5 -11.6073     80.4802     12.5672   6.0709898641e+01   6.1991085485e+01      0.49114    0.3369728  50.65  0.001911694    1.441    0.306
         6  -9.4674     29.8303     10.1621   8.0077908009e+01   7.0467120731e+01    0.1692005    0.1124378  -5.25  0.000444399    1.323    0.244
         7 -10.8668     91.1705      7.5391   5.5387535550e+01   6.0288283106e+01    0.3702775    0.2628123 -70.81   0.00133806    2.419    0.587
         8 -11.5260     78.0219      6.3615   5.8665310128e+01   6.3095094995e+01    0.5822592    0.1937245  46.01  0.002470232    2.475    0.596
         9 -10.6946     44.1340      7.9857   7.2150636424e+01   6.8828297599e+01    0.3245982    0.1606566  36.12  0.001712843    1.901    0.474
        10 -10.4999     17.4467      3.0569   8.2971024403e+01   7.2815798547e+01    0.2809615    0.2249742 -19.52  0.001262367    1.260    0.207
        11 -13.9858     38.3065    104.2421   1.0694767848e+02   5.0770659159e+01     4.556202     2.488683 -70.41   0.02183539    1.765    0.433
        12 -10.0575     94.1956      2.9614   5.2644368005e+01   6.0038357514e+01    0.2297466    0.1672138  74.40  0.001301327    1.669    0.401
        13  -9.6045     66.4701      1.9676   6.0331740471e+01   6.5718863740e+01     0.201491    0.1453401  38.30  0.001256488    1.215    0.177
        14 -10.9419    107.3352      2.7842   4.9496406422e+01   5.7137053450e+01    0.5240619    0.2690146  71.07  0.002422286    2.192    0.544
        15  -8.5411    224.3291    240.1532   8.6425779378e+01  -7.1402604993e+00    0.3889237    0.1312346  32.95  0.001726341    2.641    0.621
        16  -9.1443    201.9565    249.9952   9.2055344645e+01  -5.2255772427e+00    0.3420173    0.1193348  44.99  0.001401867    3.342    0.701
        17  -8.9477    188.5494    249.2027   9.4440139057e+01  -3.1513582456e+00    0.3096347    0.1887045  29.58    0.0018334    1.354    0.261
        18  -9.9111    165.0605    249.4206   9.8941489288e+01   3.6291221853e-01    0.5031778    0.2231984  34.81  0.002489968    1.892    0.471
        19  -9.4643    152.9614    249.8531   1.0132820883e+02   2.1458650302e+00    0.4459477    0.1356885  33.93  0.001706954    3.194    0.687
        20  -8.5896    130.1403    248.8936   1.0562593976e+02   5.7735677297e+00    0.2568308    0.1376904 -42.23  0.001351928    2.492    0.599
        21  -9.4849    103.8338    249.0792   1.1071684949e+02   9.6376113254e+00    0.2721035    0.1839661 -41.06  0.001627109    2.116    0.527
        22  -8.8211    166.4502    235.0938   9.6649184078e+01   2.3463263418e+00    0.2966079    0.2341058   2.70  0.001305111    1.395    0.283
        23  -9.9340    190.2128    233.9182   9.1810302096e+01  -1.2176637351e+00    0.4206548    0.2318148  29.53  0.002224495    1.612    0.380
        24  -9.9406    176.7713    232.2534   9.4178934001e+01   1.1512827321e+00    0.3386745    0.1989125 -49.19  0.001710973    2.116    0.527
        25  -7.6906    145.0143    230.9495   1.0036595676e+02   6.4652866868e+00    0.1521189     0.130579  37.80 0.0003653909    1.007    0.007
        26  -8.2598    225.3342    229.1337   8.4416680931e+01  -5.8334312643e+00    0.2128651    0.1388072  19.13 0.0007456028    1.342    0.255
        27  -7.8843    209.5145    228.6035   8.7259780812e+01  -3.4132198026e+00    0.1254032    0.1012135  16.17 5.880095e-05    1.027    0.027
        28  -8.4174    141.1198    227.3298   1.0065750929e+02   7.7243663534e+00    0.2089006     0.179802 -31.24 0.0008186159    1.368    0.269
        29 -10.1624    182.7089    224.7382   9.1818384677e+01   1.3815715790e+00    0.4219267    0.2352842  42.15  0.001953063    1.670    0.401
        30  -9.9963    206.9747    214.5297   8.5329867050e+01  -9.3373467500e-01    0.3852775    0.1697676  30.33  0.001699022    2.258    0.557
        31 -10.8223    218.5211    220.0811   8.4115234792e+01  -3.5600583170e+00     0.467425    0.3017784   8.45  0.002602609    1.602    0.376
        32 -10.8672    212.3226    217.1168   8.4762550932e+01  -2.1700518338e+00    0.6435026    0.4159236 -26.57  0.003114177    1.564    0.361
        33  -9.0434    238.0584    220.4553   8.0624061264e+01  -6.4908687018e+00    0.2365559    0.1503146  13.46 0.0007518103    1.469    0.319
        34 -10.1244    200.8000    219.2847   8.7351499293e+01  -6.7747153356e-01    0.4355158    0.1797092  24.74  0.001608577    3.410    0.707
        35  -8.0718    148.6354    219.0547   9.7892353003e+01   7.9680401439e+00    0.2085452   0.09928424 -29.07 0.0007038962    4.487    0.777
        36  -9.1918    179.8186    217.8841   9.1275125002e+01   2.9656579511e+00    0.2333696    0.1570016 -28.83  0.001011983    1.658    0.397
        37  -7.6030    153.1700    217.3966   9.6688982762e+01   7.5084034723e+00    0.1873787    0.1104249  46.98 0.0004341659    1.627    0.385
        38  -9.8282    222.9241    214.7098   8.2347171015e+01  -3.4540115085e+00    0.2426619    0.1404109  35.11  0.001309817    1.614    0.380
        39  -8.2087    174.2565    214.6312   9.1866958761e+01   4.4419374682e+00    0.1930722     0.112517  29.64 0.0008125688    1.638    0.389
        40 -10.1017    236.4419    210.2999   7.9086637827e+01  -4.8541668871e+00     0.471587    0.3863444  64.97  0.002766916    2.275    0.561
        41 -10.9554    230.7101    203.9532   7.8948493199e+01  -3.0702376501e+00    0.5983203    0.3617455 -21.79  0.003228631    1.621    0.383
        42  -8.7203    223.6821    198.0586   7.9131963294e+01  -1.0706185691e+00    0.2106592    0.1708789  18.14 0.0004138843    1.125    0.111
        43  -9.2053    227.4423    196.4784   7.8133641903e+01  -1.4288438309e+00    0.2851298    0.2272444 -13.83 0.0008082002    1.117    0.105
        44  -9.3296    202.1938    208.4823   8.5181342966e+01   7.8990412526e-01     0.290527    0.1784484  -4.53   0.00102313    2.193    0.544
        45  -9.4613    220.0498    209.3581   8.1916279237e+01  -2.2188457156e+00    0.3951949    0.3137773 -47.66  0.002373265    1.685    0.406
        46  -9.6226    186.1112    209.1369   8.8506811895e+01   3.3707930880e+00     0.216007     0.170193   9.31  0.001241211    1.252    0.201
        47  -8.4052    197.8797    206.2169   8.5623732370e+01   1.8734442714e+00    0.2608327    0.1637223 -10.49  0.001250384    2.048    0.512
        48 -10.0345    166.9624    204.8545   9.1730277437e+01   7.4150405114e+00    0.3489764    0.2860812 -23.03 0.0006922275    1.320    0.243
        49  -7.4582     41.6799    206.7381   1.1912706711e+02   2.6125923238e+01    0.1032071    0.0924769 -43.89 0.0002755406    1.550    0.355
        50  -7.3570    136.6766    203.6795   9.8084027136e+01   1.2896603564e+01    0.1364932    0.1068044  -1.76 0.0007045717    1.676    0.403
        51  -9.4233    201.7240    195.0167   8.2780137339e+01   3.0847881182e+00     0.311587    0.1789521  44.69  0.001212982    1.831    0.454
        52  -9.0816    206.5018    190.4815   8.0962226327e+01   3.0258247059e+00    0.1377685     0.120732   4.02 0.0001033362    1.005    0.005
        53  -8.4443    220.0380    189.0093   7.8065467244e+01   9.6306226451e-01    0.1915988    0.1736098 -81.09 0.0006682975    1.708    0.414
        54  -8.8456    240.8423    188.1446   7.4102910919e+01  -2.2727062539e+00    0.1863653    0.1339081   0.31 0.0007076539    1.339    0.253
        55  -8.8433    194.7844    179.4031   8.1117003258e+01   7.0608432635e+00     0.210088    0.1259133  28.56 0.0009547295    1.755    0.430
        56  -9.1701    212.5170    176.0066   7.6889647141e+01   4.4447481557e+00    0.2125021    0.1296721 -36.22 0.0004757729    1.582    0.368
        57  -8.4988     17.2137    177.7442   1.2198254154e+02   3.5031053100e+01    0.3950822    0.1626774  82.18  0.001730499    2.733    0.634
        58  -8.5939     27.4475    175.6778   1.1951469258e+02   3.4548884413e+01    0.3197112    0.1616212  13.47  0.001439754    3.484    0.713
        59  -8.6145    231.6719    172.3498   7.2556196480e+01   1.7151303568e+00    0.1276731    0.1088977 -67.27 0.0007048658    1.762    0.432
        60  -9.4057     19.9062    170.6992   1.2079650018e+02   3.6402960044e+01    0.2882346     0.205786  61.91   0.00075094    1.308    0.236
        61  -8.3936    209.8207    171.4192   7.6462785308e+01   5.7340640944e+00    0.1981203     0.125923  27.24 0.0004761909    1.667    0.400
        62  -8.5209      8.3208    169.2998   1.2330603427e+02   3.7703535425e+01    0.1587763     0.147818 -59.98 0.0005630074    1.362    0.266
        63  -9.9317      6.2357    166.4373   1.2355940063e+02   3.8520359052e+01    0.2521217    0.2379764  35.19  0.001903848    1.397    0.284
        64 -10.3261    201.8399    165.8167   7.6859532411e+01   8.2291555011e+00     0.387035    0.2833937  52.86  0.001942559    1.618    0.382
        65  -9.8437    220.4760    161.6866   7.2363707089e+01   5.4937398453e+00    0.3188427    0.2226839 -14.71  0.001119373    1.519    0.342
        66  -9.0639      7.3631    151.5023   1.2209402579e+02   4.1895712957e+01    0.3938828    0.2226285 -50.12  0.002216147    1.916    0.478
        67  -9.6158      5.0357    156.9870   1.2310541571e+02   4.0786239550e+01    0.3796041    0.2582519  -8.85  0.002272843    2.354    0.575
        68 -10.1141      9.7043    159.1217   1.2218165358e+02   3.9940665367e+01    0.3404877    0.2339133 -46.99  0.001743375    1.725    0.420
        69 -10.6901     15.3013    159.6244   1.2089895916e+02   3.9376642500e+01    0.4559517    0.1645223  34.38  0.002155972    2.787    0.641
        70  -9.0894     29.4820    159.9402   1.1749501820e+02   3.8042197048e+01    0.1946457    0.1070463 -74.55 0.0005468035    1.542    0.351
        71 -10.1537     22.4701    157.1823   1.1893413895e+02   3.9341679199e+01    0.2836469    0.2268376  23.97  0.001831243    1.577    0.366
        72  -8.8688     25.4158    152.7555   1.1774338833e+02   4.0135156142e+01    0.1847066   0.09636233 -63.87 0.0009506412    1.623    0.384
        73  -9.6364    204.1081    155.3713   7.4136388300e+01   9.7242554406e+00    0.3904326    0.2376075 -67.65  0.001352992    3.778    0.735
        74  -9.5846    188.8537    155.8361   7.7357145830e+01   1.2650863468e+01    0.2011636    0.1857507 -88.61 0.0008098343    1.341    0.254
        75 -10.4249    195.2534    151.1150   7.4971937277e+01   1.2281783529e+01    0.3524077    0.2081467 -41.97  0.001558109    1.656    0.396
        76 -10.7803     66.6348     81.1694   9.1595726323e+01   5.2807553678e+01     1.063316    0.3685352  40.92 0.0003148459    3.287    0.696
        77 -10.4016    111.6984     82.1364   7.7205384446e+01   4.4664372824e+01    0.5561435    0.3491794 -51.20  0.000413247    1.716    0.417
        78 -12.8070     71.5418    120.1835   9.9650839615e+01   4.2924038558e+01     1.446348     1.061186  18.24  0.007317378    1.650    0.394
        79 -12.1534     67.9306     89.8625   9.3570031688e+01   5.0667494037e+01     1.870051     1.296178  24.28  0.006930674    1.617    0.382
        80  -8.3328    215.4077    249.1557   8.9464073525e+01  -7.0338541882e+00    0.1938364    0.1533553  58.36  0.001214632    2.173    0.540
        81  -9.6669     57.0358    144.1162   1.0824298431e+02   3.8909193041e+01    0.3223735    0.1698881 -55.76 0.0006883643    1.719    0.418
        82  -9.4282     48.4804    143.5404   1.1050337303e+02   4.0055057392e+01    0.2713468    0.1936103 -43.54 0.0005032754    1.544    0.352
        83 -10.2714     48.5139    140.0003   1.0996760536e+02   4.0924168277e+01    0.4610148    0.2034629  39.52  0.001855526    2.363    0.577
        84  -7.8052     93.4962    140.0260   9.7378493898e+01   3.4685628827e+01    0.2132404    0.1407312 -57.67 0.0003423076    1.448    0.309
        85  -9.5585     84.0458    135.6422   9.9150624234e+01   3.7268371113e+01     0.440523    0.2026808 -59.91  0.001729856    2.104    0.525
        86  -8.4964    188.6590    133.6875   7.2281628902e+01   1.7052362297e+01     0.158327    0.1185963   4.28 0.0007046448    1.699    0.411
        87  -9.9318     83.4489    129.6786   9.8105391510e+01   3.8826132005e+01    0.2922841    0.2642507 -87.87 0.0002079144    1.132    0.116
        88 -12.6057     45.5784     90.0921   1.0143148598e+02   5.3399537571e+01     1.676197     1.360724  67.50  0.007662202    1.567    0.362
        89  -8.2237    197.5443    127.2565   6.8922448464e+01   1.6403957725e+01    0.2106205    0.1406092 -27.02 0.0009370657    1.573    0.364
        90  -8.8940    185.1912    126.6695   7.1300662884e+01   1.9193075729e+01    0.2238284    0.1945736 -44.04   0.00108889    1.136    0.120
        91  -9.7291     90.5621    126.8850   9.5439653112e+01   3.8373394777e+01    0.2556632    0.2376297  48.30 0.0002798717    1.133    0.117
        92  -8.5044    141.6542    125.7060   8.1154141809e+01   2.8888401754e+01    0.1608607    0.1253014   1.32 0.0007030758    1.667    0.400
        93 -11.3857    100.6348     88.7177   8.2542948640e+01   4.5474058630e+01     1.980586     1.356846  -8.78  0.008431597    2.095    0.523
        94  -9.1542     24.8543    148.1365   1.1738258060e+02   4.1294322636e+01    0.1953818    0.1488866  78.87 0.0003917716    1.222    0.182
        95  -9.8982    162.1385    114.2688   7.3233236855e+01   2.6855960731e+01    0.3168764    0.2067974 -64.79   0.00124974    2.127    0.530
        96 -12.8664     70.2785    103.0839   9.6169459959e+01   4.7244374705e+01     1.991187     1.233087 -24.53  0.001551255    2.189    0.543
        97  -9.5517    139.3286    112.2505   7.8273497468e+01   3.2359878077e+01    0.2636815    0.2504056  43.69 0.0002815597    1.076    0.071
        98  -9.0518    178.9791    118.4702   7.0565811171e+01   2.2204855748e+01    0.2349236    0.1542573  47.80  0.000689673    1.575    0.365
        99 -11.7959     81.5956    104.6994   9.2934470895e+01   4.5159901889e+01     1.063724    0.6612594 -63.51  0.004738495    1.759    0.431
       100  -9.9869    145.1257    102.3943   7.4113982128e+01   3.3182270037e+01    0.4651406    0.3761011 -31.28  0.002231529    1.258    0.205
       101 -11.8188      6.3715    125.2006   1.1979711139e+02   4.8194681815e+01     0.769613    0.6023664 -61.15  0.002912073    1.175    0.149
       102  -8.3085    168.4256    101.9180   6.8507045773e+01   2.7918563280e+01    0.2623109    0.2157281  63.16 0.0005507183    1.325    0.245
       103  -8.4767    210.8098    249.6382   9.0374740110e+01  -6.4469958411e+00    0.1645493   0.09252872  38.95 0.0008004013    1.646    0.392
       104  -8.2863    151.7163     97.9592   7.1257103726e+01   3.2590484397e+01    0.2813036    0.2072122  65.06  0.001050107    1.593    0.372
       105  -9.3816    139.4789    248.4927   1.0376621777e+02   4.4194809822e+00    0.2491942    0.1712169 -31.86  0.001363089    1.972    0.493
       106 -10.4542     82.0659     80.9462   8.6194779599e+01   5.0467918267e+01    0.8466073    0.5832157 -44.74   0.00309623    1.355    0.262
       107  -8.2027    199.9269     79.7266   5.6372037108e+01   2.4554745573e+01    0.2670854    0.1951509 -27.87  0.001297662    1.424    0.298
       108  -8.9900     86.0699     84.5066   8.5932995642e+01   4.9021005753e+01     0.354698    0.2148189  29.08  0.001383116    1.848    0.459
       109  -8.2725    129.1751     83.9044   7.2847575458e+01   4.0549554394e+01    0.2362857    0.2126507 -79.33 0.0008625224    1.291    0.225
       110  -7.5425     94.5451     52.4648   7.2453148431e+01   5.3705572340e+01    0.1415683    0.1315031  -0.23 9.962641e-05    1.039    0.038
       111  -7.8136    167.5057    146.0002   7.9809597445e+01   1.9014487338e+01    0.2044288    0.1356453 -68.40 0.0007096428    2.281    0.562
       112  -8.1848     77.3104     29.3163   6.9074517669e+01   6.0567368832e+01    0.1391277   0.09293539  11.00 0.0002477618    1.637    0.389
       113  -7.8286     17.9984     27.0858   9.3868325134e+01   6.9012120584e+01     0.144484    0.1067723 -30.15 0.0004325827    1.056    0.053
       114  -7.7586    162.6643     26.7368   4.7500076049e+01   4.1433003615e+01    0.1422146   0.09739901  40.21 0.0002787854    1.583    0.368
       115  -8.8382    130.0743     22.8614   5.2160876688e+01   4.9900031060e+01    0.1963594    0.1802872  89.22  0.001166583    1.196    0.164
       116 -10.0576     84.6555     21.2438   6.3193772770e+01   6.0190423358e+01     0.303509    0.2200794 -27.93  0.001729663    1.434    0.303
       117  -9.1223     37.0119    248.1793   1.2292957546e+02   1.8468307210e+01    0.1424524    0.1107696 -66.45  0.001052478    1.603    0.376
       118  -7.9061    197.4272    246.3247   9.2346888098e+01  -4.0732052694e+00    0.2003461    0.1113118 -31.79  0.001116994    2.039    0.510
       119  -7.6984    236.2724     11.3381   3.5181468649e+01   2.5646105289e+01    0.1087628   0.09444596  34.17 0.0002636111    1.605    0.377
       120  -8.7644     46.0029    247.4879   1.2130486603e+02   1.7556578481e+01    0.1709488   0.05604021  53.78 0.0008100703    2.531    0.605
       121 -11.5449    179.9994    240.0197   9.4721191060e+01  -5.3835222202e-01    0.9070117    0.6667228  12.19  0.004489061    1.363    0.266
       122  -7.5216    115.2174    241.9824   1.0774315737e+02   9.1910436124e+00    0.1368815    0.1005583 -64.00 0.0004299583    1.598    0.374
       123  -9.3306    146.0014    243.2723   1.0182946653e+02   4.2541481423e+00     0.184465    0.1402613  36.38  0.001162109    1.093    0.085
       124  -8.3681    101.4641    242.5008   1.1049668326e+02   1.1131674823e+01    0.1216018    0.1002733  52.30 0.0001010326    1.021    0.021
       125  -8.6384     69.5723    241.7545   1.1655702178e+02   1.5680752208e+01    0.2141498    0.1029382  53.89 0.0003085425    1.771    0.435
       126  -8.0824    200.6691    241.4332   9.0990906940e+01  -3.8839427730e+00    0.1642736   0.09729884  25.83 0.0008413725    1.470    0.320
       127  -7.6526    110.2894    241.6308   1.0867400266e+02   9.9888303128e+00    0.1266032   0.08211854  66.48 0.0007023378    1.712    0.416
       128  -9.3677     62.0755    145.0299   1.0700279742e+02   3.8052786526e+01    0.2095522    0.1879901 -85.98 0.0004583547    1.037    0.036
