#   1 NUMBER                 Running object number                                     
#   2 MAG_AUTO               Kron-like elliptical aperture magnitude                    [mag]
#   3 X_IMAGE                Object position along x                                    [pixel]
#   4 Y_IMAGE                Object position along y                                    [pixel]
#   5 X_WORLD                Barycenter position along world x axis                     [deg]
#   6 Y_WORLD                Barycenter position along world y axis                     [deg]
#   7 A_WORLD                Profile RMS along major axis (world units)                 [deg]
#   8 B_WORLD                Profile RMS along minor axis (world units)                 [deg]
#   9 THETA_WORLD            Position angle (CCW/world-x)                               [deg]
#  10 FWHM_WORLD             FWHM assuming a gaussian core                              [deg]
#  11 ELONGATION             A_IMAGE/B_IMAGE                                           
#  12 ELLIPTICITY            1 - B_IMAGE/A_IMAGE                                       
         1 -11.9817    198.7283     45.2631   3.5367703686e+01   3.0068026223e+01    0.9576864     0.859215 -55.05  0.004116734    1.082    0.076
         2 -11.9682    207.9357     36.6606   3.2169643384e+01   2.9126246424e+01    0.7418815    0.6147409 -38.98  0.001283779    1.222    0.182
         3 -10.8965    231.7289     13.0136   2.4643728837e+01   2.6808700226e+01    0.7811189    0.3606886 -60.56  0.004003669    1.965    0.491
         4 -10.9221    235.5908      8.8143   2.3484890571e+01   2.6472632011e+01    0.8192045    0.3609438 -60.12  0.004204726    2.017    0.504
         5 -10.0392    119.4212      9.8401   3.6156506174e+01   5.3646284258e+01    0.5820728    0.3386403  39.33  0.002833271    1.891    0.471
         6  -9.4812      6.5100      6.5032   7.8719173769e+01   7.5291200731e+01    0.1631813    0.1036218 -53.01 0.0009949598    1.821    0.451
         7  -8.1841      2.3184      7.3162   8.2178563951e+01   7.5514840353e+01    0.1209619    0.0687215 -22.95 0.0007039501    1.654    0.396
         8  -8.7500    163.3452    242.7680   8.3306723077e+01   2.4681078554e+00    0.1942574    0.1570063  44.52 0.0003729878    1.334    0.250
         9  -8.9316    175.6172    248.9456   8.1807201613e+01  -8.6812499239e-02    0.2508178    0.1973584  60.86   0.00164411    1.929    0.482
        10  -8.3336    140.8037    249.6209   8.8537496113e+01   4.5539060150e+00    0.1962607   0.09106103 -48.34  0.001026543    2.595    0.615
        11  -8.5620    132.9992    249.9998   9.0108205319e+01   5.5707129059e+00    0.1439537    0.1204464  33.44 0.0008839211    1.037    0.035
        12  -9.7259    106.1274    249.7702   9.5401538777e+01   9.2836398107e+00    0.2973121    0.1793945  42.06  0.001792327    1.325    0.245
        13 -12.5674     49.8806    215.2179   1.0405323561e+02   2.3160362983e+01      2.79351     1.932534 -65.72   0.01708262    1.575    0.365
        14 -13.1902     42.1818    194.8205   1.0411020803e+02   2.8503631727e+01     5.004955     1.609865  53.04   0.01925988    3.116    0.679
        15  -9.0267     54.9964    222.3410   1.0351448950e+02   2.1073330202e+01    0.2149594    0.1574479  82.85 0.0006702862    1.315    0.239
        16 -10.2075    109.0420    214.2991   9.0810855894e+01   1.5305182471e+01    0.5425818    0.2795119  21.70  0.002319446    2.640    0.621
        17  -8.7434    156.2807    213.0879   8.0497086856e+01   8.2794505335e+00    0.2137889    0.1641523  35.52 0.0003143997    1.174    0.148
        18  -9.8749    138.2534    213.2319   8.4306345745e+01   1.1047877696e+01     0.468066    0.1388843  35.53  0.001705976    3.054    0.673
        19 -10.1743    142.1701    210.4311   8.3060730740e+01   1.0950420724e+01    0.3747706    0.2318959 -53.69   0.00115236    1.854    0.461
        20  -8.5861     73.8017    207.0262   9.7916293163e+01   2.1842926089e+01    0.4966203    0.2326795  88.81  0.001889642    3.633    0.725
        21  -8.0989     87.6075    211.8550   9.5305682842e+01   1.8918813300e+01    0.3427268    0.1153124  45.73 0.0006777414    2.645    0.622
        22  -9.6699    124.0240    203.9402   8.6075821657e+01   1.5041853944e+01    0.3273904    0.1932876 -61.99  0.001609433    2.008    0.502
        23 -14.9034      6.5590    205.2641   1.1283084885e+02   2.9825004847e+01     6.198817     1.148502 -74.28   0.01753095    4.327    0.769
        24  -7.1441    186.6466    205.2877   7.3167681872e+01   4.9131910011e+00    0.1187009   0.09944288  61.52 0.0007024164    1.670    0.401
        25  -7.4881     90.2153    201.9846   9.3545401932e+01   2.0606094385e+01    0.1655946    0.1070409 -66.06 0.0008627595    1.665    0.400
        26  -8.1098     83.8824    195.9315   9.4291492435e+01   2.2831589628e+01    0.1841591    0.1766316 -27.00 0.0005622356    1.267    0.210
        27  -8.6721    193.0180    194.7375   7.0132875795e+01   5.6531671388e+00    0.2436369    0.1692438 -68.39  0.001175878    2.717    0.632
        28  -7.8706    158.1296    193.4813   7.6958406061e+01   1.1510449148e+01    0.1998329    0.1833507  83.27  0.000522348    1.344    0.256
        29  -8.7644     70.8238    191.3014   9.6879623440e+01   2.5697209761e+01    0.2888599    0.1813658 -73.07 0.0009995645    1.639    0.390
        30 -16.4479      9.5042    241.8875   1.1382141404e+02   2.2183330348e+01     4.407916     1.810818  24.58   0.02238659    3.037    0.671
        31 -11.6559     56.4039    183.6904   9.9575272702e+01   2.9344217601e+01    0.8190838     0.612169  58.17  0.003417109    1.208    0.172
        32  -9.3667    125.3479    185.6096   8.2963716580e+01   1.8558471729e+01    0.2889422    0.1669142 -45.52  0.001341756    1.887    0.470
        33  -7.8749     74.2989    184.8863   9.5254233717e+01   2.6676587439e+01    0.2665538    0.1566071  25.03  0.001247901    1.980    0.495
        34  -8.7524     81.5708    183.3918   9.3251356280e+01   2.5977558731e+01    0.4757033    0.2510929  54.02  0.002126546    1.959    0.489
        35  -8.9284    165.0197    238.2665   8.2378188334e+01   2.9080855483e+00    0.1869283    0.1588431  -8.82 0.0002999515    1.221    0.181
        36  -8.4459    117.0489    180.1926   8.4048791788e+01   2.1104239878e+01     0.191023    0.1729597  47.19 0.0002958196    1.037    0.036
        37 -10.4680     43.8742    177.3553   1.0206784380e+02   3.2355180034e+01    0.6672876    0.5951563  67.14  0.004033137    1.078    0.072
        38  -8.1056     70.2113    177.7796   9.5387253217e+01   2.8899167134e+01    0.3171127    0.1661768  81.31  0.001239391    2.841    0.648
        39  -9.6746    104.5115    178.2505   8.6797812732e+01   2.3601599537e+01    0.3606928    0.2621286  75.09  0.001770522    1.635    0.388
        40  -9.7029    103.6101    172.7692   8.6148360713e+01   2.4988440526e+01    0.3915546     0.297751 -85.26  0.002009302    1.503    0.335
        41 -12.7137     54.4080    233.3099   1.0448412744e+02   1.8967712350e+01    0.6908869    0.5625995  87.34  0.002879071    1.241    0.194
        42  -8.3691    220.8221    175.5932   6.1571062316e+01   4.4184306231e+00    0.1558685    0.1196103  45.73 0.0003641436    1.565    0.361
        43  -8.7962    117.4924    174.3567   8.2969342026e+01   2.2307220364e+01    0.2694698    0.2272251  83.21 0.0009728342    1.322    0.244
        44  -8.6814    166.1457    233.8757   8.1552962491e+01   3.4169633655e+00    0.1663338    0.1477802  34.73 0.0005071852    1.194    0.163
        45 -10.8160     82.4501    158.6022   8.9391202446e+01   3.1704979217e+01     0.778533    0.6520454 -77.71 0.0008590312    1.174    0.148
        46 -12.9400     58.6136    132.0352   9.1882117390e+01   4.1778522114e+01     2.244609    0.9377643  46.12  0.008660666    2.537    0.606
        47  -9.7130     52.7725    164.7308   9.8330603462e+01   3.4334120202e+01    0.4896637    0.2198793  56.86  0.001517165    2.537    0.606
        48  -9.7244    165.5819    160.4587   6.9222498069e+01   1.6569056271e+01    0.2618967     0.242873 -24.69 0.0002134726    1.061    0.057
        49  -8.5231     57.1959    158.5895   9.6334085505e+01   3.5285116976e+01    0.2870089    0.1862471  67.71 0.0008926236    1.637    0.389
        50  -7.1172     36.2877    159.3251   1.0218714214e+02   3.7575512215e+01    0.1306367   0.09563492 -45.98 0.0006378308    1.608    0.378
        51  -8.2394    170.8956    157.6888   6.7527194247e+01   1.6126121171e+01    0.2403736    0.1896551 -26.30 0.0004960101    1.315    0.239
        52  -8.8803     31.6551    157.2295   1.0323599871e+02   3.8579135350e+01    0.2487236    0.1888818  13.73  0.001408344    1.673    0.402
        53 -10.0084     54.7100    144.4781   9.5050006626e+01   3.9133766889e+01    0.4796471    0.4058408 -15.03  0.002659526    1.522    0.343
        54 -11.1089     60.7807    154.9018   9.4823764462e+01   3.5729585355e+01     1.665793    0.5632339  55.27  0.001658687    5.066    0.803
        55 -10.5985     54.0058    150.0016   9.6053303051e+01   3.7832747408e+01    0.9337333    0.4622547  44.90  0.003093681    1.982    0.495
        56  -8.8642    108.9547    154.8835   8.1649765568e+01   2.8216169308e+01     0.228337    0.2048926 -60.61 0.0003000532    1.125    0.111
        57 -10.4582     89.6015    151.6432   8.6256531530e+01   3.2266124660e+01    0.6049491     0.451835 -14.64  0.002835786    1.960    0.490
        58  -8.4864    111.7935    150.9348   8.0151393267e+01   2.8634671075e+01    0.2914606    0.1829691  63.63 0.0006658908    2.060    0.515
        59  -9.3892    133.7392    146.7836   7.3723493128e+01   2.5494166266e+01    0.7784339    0.2546323 -56.80  0.002167418    4.390    0.772
        60  -9.2293     38.7886    146.8892   1.0003973192e+02   4.0407346111e+01    0.3152326    0.2332229  75.44 0.0008156162    1.306    0.234
        61  -7.2066    194.3132    231.7376   7.5909612699e+01  -1.9749454204e-01    0.1052315   0.08720159  45.56 0.0002030135    1.538    0.350
        62  -7.9551    124.5132    141.0124   7.4815551320e+01   2.8565579032e+01    0.2254442    0.1476374 -50.71 0.0004043014    1.526    0.345
        63  -9.4244    102.6517    138.5189   8.0129138515e+01   3.3215189684e+01    0.4755381    0.3534146  -8.24  0.002127121    2.007    0.502
        64 -10.3744     90.8108    137.6457   8.3293844012e+01   3.5485416458e+01    0.3135263    0.2813013  88.98 0.0004762302    1.112    0.101
        65  -7.9202    121.1327    134.9315   7.4368079325e+01   3.0611659645e+01    0.2272785    0.1991704  88.84 0.0002816492    1.244    0.196
        66 -10.4052     70.0554    170.7676   9.4507192570e+01   3.0585451905e+01    0.4366026    0.3083229 -31.43  0.001645693    1.993    0.498
        67  -8.1928     98.6965    131.9610   7.9866877905e+01   3.5501912936e+01    0.2146343    0.1888486 -72.25 0.0005856145    1.132    0.117
        68  -9.5165     32.0785    131.3768   1.0006158720e+02   4.5038816016e+01     0.301876     0.193706 -56.16   0.00156275    1.484    0.326
        69  -8.4663    112.2188    129.4278   7.5528070247e+01   3.3606834022e+01    0.2786966    0.2149772 -51.68  0.000731785    1.282    0.220
        70  -8.9782    249.1910    128.8825   4.7916230669e+01   7.2366772959e+00    0.2090611    0.1752406 -32.46 0.0006307771    1.030    0.029
        71  -8.3647    116.0438    129.3638   7.4473751174e+01   3.2886567077e+01    0.2103115    0.1889702  52.21  0.001093621    1.117    0.104
        72  -8.5014    235.8700    126.1148   4.9215291229e+01   9.8872585817e+00    0.2029212    0.1603976 -54.23  0.001136595    1.362    0.266
        73  -9.0356     99.2328    125.2780   7.8251092854e+01   3.7018239682e+01      0.27683    0.2473074 -24.78 0.0007170387    1.267    0.211
        74  -8.7833    192.0004    169.2865   6.5598917349e+01   1.0179133696e+01    0.2481392    0.1707032 -51.89  0.000945642    1.673    0.402
        75  -9.2973    111.1553    168.8211   8.3591197387e+01   2.4624775124e+01    0.3557441    0.2288918 -84.85  0.001276326    2.258    0.557
        76 -10.2833     74.3523    166.0413   9.2709982820e+01   3.1110956677e+01    0.3948871    0.3715415  42.83 0.0009418819    1.141    0.124
        77 -10.7268     25.6540    121.4540   1.0077627959e+02   4.8173016932e+01    0.4090992    0.2982421  32.04   0.00230565    1.508    0.337
        78  -8.4710     59.6366    120.0864   8.9381198170e+01   4.4671843723e+01    0.2150958    0.1889687  59.40 0.0002455063    1.169    0.144
        79 -10.2952     53.5320    116.9250   9.0784401231e+01   4.6282493412e+01    0.7690171    0.2530519 -70.84  0.002226176    4.283    0.767
        80  -7.9051    108.0467    118.7649   7.4211314929e+01   3.6913444971e+01    0.2056619    0.1910638  46.73 0.0002790959    1.095    0.087
        81  -7.6382     72.6391    119.3257   8.5038611704e+01   4.2971984484e+01    0.1584101     0.110196  71.41 0.0007042074    1.786    0.440
        82 -11.6448     71.1129    152.8315   9.1608007818e+01   3.4810439201e+01    0.7544667    0.4478622 -51.13   0.00112904    1.748    0.428
        83  -8.4432    240.4958    116.9965   4.6639641947e+01   1.0532386022e+01     0.181451    0.1043995 -16.41 0.0008097259    2.471    0.595
        84 -12.4364     68.8053    144.6420   9.0947753121e+01   3.7183043893e+01     1.852423    0.9107046  65.51  0.003546751    3.326    0.699
        85  -9.8951     29.1427    114.9684   9.8675442483e+01   4.9499121454e+01    0.3444673    0.1518535 -61.40  0.001509133    1.913    0.477
        86 -10.1036    142.2493    229.2866   8.5695024447e+01   7.6224968690e+00    0.2984097    0.1597075  30.47  0.001537276    1.692    0.409
        87  -8.7125    174.0125    114.7067   5.7213570397e+01   2.3956441303e+01    0.3358794    0.2125489 -28.11  0.001337464    1.814    0.449
        88  -9.9655     16.7037    110.1068   1.0224100372e+02   5.1791633013e+01    0.4336519    0.1835882  36.52   0.00110002    2.459    0.593
        89  -7.9584     95.4331    111.0393   7.6027919153e+01   4.1126866957e+01    0.4192879    0.2149611  21.13  0.001306768    3.825    0.739
        90  -8.6575     43.3506    109.2888   9.2807588566e+01   4.9456189318e+01    0.1434171    0.1008212 -32.74 0.0007025204    1.666    0.400
        91  -9.4917      8.7182    108.0761   1.0474409873e+02   5.2868032462e+01    0.2717664    0.2326625  13.57  0.001206934    1.404    0.288
        92  -9.1939      3.0565    106.9708   1.0657250327e+02   5.3492533548e+01    0.2972649    0.1845576  23.13 0.0009613523    1.871    0.465
        93  -8.7633     64.5044    106.3827   8.4889503128e+01   4.7417395572e+01    0.2631943    0.2353696 -40.42 0.0005196779    1.149    0.129
        94  -9.6321     48.0104    107.0055   9.0733386901e+01   4.9479746984e+01    0.2209327     0.202959 -77.71  0.000836533    1.040    0.038
        95 -10.3794     78.7798    103.2310   7.9351628433e+01   4.5940388369e+01    0.2506099    0.2391094 -58.63 0.0002204581    1.013    0.013
        96  -9.6643     32.4037    100.1663   9.5022041406e+01   5.2921044085e+01     0.456324    0.1815481  27.44  0.001880828    2.693    0.629
        97  -8.9931     50.6559     99.0807   8.8115860727e+01   5.1126459771e+01    0.3719058    0.1478412  46.24  0.001351341    3.031    0.670
        98  -8.3718     45.0902     96.2066   8.9521810857e+01   5.2523761479e+01     0.343324     0.142738  49.41  0.001236073    3.249    0.692
        99  -8.9100     32.2366     91.3573   9.3361883226e+01   5.5124380669e+01    0.3041376     0.221919  40.96  0.001176107    1.513    0.339
       100  -7.6797     45.2038     91.6057   8.8444799372e+01   5.3639679512e+01    0.1861257    0.1351833   6.39 0.0009431149    1.699    0.411
       101  -7.3878    128.5001     84.6433   5.9457047968e+01   4.0094911726e+01    0.1492359    0.1438748  55.15 0.0007923648    1.052    0.050
       102  -7.3788    113.7889     61.0347   5.5898010796e+01   4.7932958838e+01    0.1892599    0.1182793 -39.67            0    1.614    0.380
       103  -7.5231    152.5074     59.5616   4.6525649110e+01   3.8970527667e+01    0.1456025    0.1382594 -85.48 4.406476e-05    1.010    0.010
       104 -11.0226    186.9700     54.0466   3.9210631064e+01   3.1545617413e+01    0.5181334    0.4648637  13.87  0.000769051    1.420    0.296
       105  -8.2965    145.0257     57.9304   4.7521516476e+01   4.1052858729e+01    0.2080501    0.2027695  53.50            0    1.088    0.081
       106  -9.7568    119.0388    247.9295   9.2638693757e+01   7.8265656300e+00    0.2885822    0.1749862  43.50  0.001682555    1.377    0.274
       107  -8.4917     78.9398    235.7899   9.9604297387e+01   1.5400969529e+01    0.3308325    0.2207012 -27.34  0.001751919    2.683    0.627
       108  -8.3560    114.1918     48.9299   5.1624673240e+01   4.9891551336e+01    0.2040372    0.2008692  -4.01 0.0003446238    1.053    0.050
       109  -8.1510    231.1246     47.1535   3.2317068691e+01   2.2748360838e+01    0.1723449    0.1603848 -53.36 0.0003356736    1.184    0.155
       110  -7.5839    182.4282     34.4334   3.4516999151e+01   3.5337615556e+01     0.134919    0.1209172 -74.75 7.588651e-05    1.019    0.019
       111  -8.2119    218.9985     51.3633   3.4538879453e+01   2.4721068181e+01    0.1743247     0.151883 -87.13 0.0003879722    1.153    0.133
       112  -8.0923    160.1866     19.8703   3.3214964972e+01   4.2517257690e+01    0.1932388    0.1628198 -73.07 0.0002675013    1.111    0.100
       113  -7.8226     75.3681    248.8232   1.0144282706e+02   1.3488229487e+01    0.1460214    0.1033662 -56.53 0.0009452805    1.768    0.435
       114  -9.2102     71.8792    245.9475   1.0190746173e+02   1.4443217762e+01    0.4100132    0.1517957 -64.26  0.001754855    3.027    0.670
       115  -7.7822     80.0299    247.0164   1.0036385159e+02   1.3212428479e+01    0.1630678    0.1397397  -5.71 0.0006401829    1.641    0.391
       116 -10.3075    196.9958    243.4607   7.7136812344e+01  -2.1570574991e+00    0.1916196    0.1605788  -1.65 6.078935e-05    1.138    0.121
