#   1 NUMBER                 Running object number                                     
#   2 MAG_AUTO               Kron-like elliptical aperture magnitude                    [mag]
#   3 X_IMAGE                Object position along x                                    [pixel]
#   4 Y_IMAGE                Object position along y                                    [pixel]
#   5 X_WORLD                Barycenter position along world x axis                     [deg]
#   6 Y_WORLD                Barycenter position along world y axis                     [deg]
#   7 A_WORLD                Profile RMS along major axis (world units)                 [deg]
#   8 B_WORLD                Profile RMS along minor axis (world units)                 [deg]
#   9 THETA_WORLD            Position angle (CCW/world-x)                               [deg]
#  10 FWHM_WORLD             FWHM assuming a gaussian core                              [deg]
#  11 ELONGATION             A_IMAGE/B_IMAGE                                           
#  12 ELLIPTICITY            1 - B_IMAGE/A_IMAGE                                       
         1 -14.8366    163.1051     42.0564   7.9787401553e+01   3.9521179502e+01     1.307125     1.073025  -6.65   0.00350585    1.395    0.283
         2 -14.5326    176.6985      9.2969   6.7195447270e+01   3.9834606756e+01     1.017187    0.9646108  58.42  0.003687861    1.100    0.091
         3 -13.0945    195.4161      5.8189   6.3964069941e+01   3.5276760401e+01    0.5840324    0.2804978 -79.70  0.002285162    2.669    0.625
         4  -9.9297    114.3364    245.2269   1.3394341791e+02   1.1133645613e+01    0.1056331   0.07801892  33.54 0.0003564124    1.530    0.346
         5 -20.0416     74.7211    174.5467   1.3391789610e+02   3.0378097466e+01     16.70437     6.141025 -67.29    0.0696918    2.743    0.635
         6 -12.0449    163.7744    203.0067   1.1921323758e+02   9.6802442114e+00    0.3111839    0.2286713  59.31  0.000667561    1.415    0.293
         7 -12.4431    157.5690    201.7930   1.2025161266e+02   1.1019723326e+01    0.4993948    0.3189986  70.76  0.001837467    2.282    0.562
         8 -11.9768    154.2035    195.7856   1.1997427470e+02   1.2683309167e+01    0.4035219    0.2629876  78.99   0.00184501    2.497    0.600
         9 -11.7620    168.8697    202.3339   1.1810270760e+02   8.8577187305e+00     0.210163    0.1483318  55.44 0.0007228668    1.419    0.295
        10 -11.1619    139.1043    200.7331   1.2380309596e+02   1.4544780331e+01    0.3011902    0.2324314 -88.97 0.0008480215    1.550    0.355
        11 -10.6742    135.6428    196.3349   1.2385598302e+02   1.5967859168e+01     0.257964    0.2007704  84.24  0.001458377    1.466    0.318
        12 -10.7371    117.3728    201.7795   1.2836960214e+02   1.8124010616e+01    0.2758316    0.1615642  62.35  0.000983286    1.778    0.438
        13 -11.7268    169.7122    195.3042   1.1677527777e+02   9.8735825308e+00    0.2300151    0.1911137  59.89 0.0007419955    1.252    0.201
        14 -13.0487    180.5522    193.1798   1.1426464742e+02   8.1871427579e+00    0.3996615    0.3408484 -85.66  0.001590106    1.554    0.357
        15 -14.1181    165.7903    188.6452   1.1642642075e+02   1.1763076479e+01    0.8510036    0.4108386  47.79  0.003616109    1.886    0.470
        16 -13.8889    174.6342    193.0518   1.1541177220e+02   9.3261280522e+00    0.6170093    0.3799013 -57.07  0.002653868    2.147    0.534
        17 -13.9294    175.4190    186.1563   1.1404016668e+02   1.0346977236e+01    0.6940908     0.444079 -66.09  0.002667135    2.449    0.592
        18 -13.0286    153.8884    185.6154   1.1835436728e+02   1.4578297781e+01     0.422443    0.2579559 -54.52  0.002077442    1.890    0.471
        19 -10.5871     16.4334    250.4502   1.5049685304e+02   2.2966782603e+01    0.1013052     0.064872  67.70 0.0002723416    1.020    0.020
        20 -12.0685    168.1675    243.9964   1.2423884978e+02   2.7393417775e+00    0.2106297    0.1378151  41.94 0.0003348169    1.178    0.151
        21 -13.8903    207.2636    178.0134   1.0628017058e+02   5.5254577848e+00    0.8541594    0.5583631 -40.88    0.0044316    1.679    0.404
        22 -12.3515    119.1101    240.3014   1.3259177418e+02   1.1170354331e+01    0.2977214    0.1756892 -75.30  0.001730228    2.243    0.554
        23 -11.4378     30.7443    183.3730   1.4415642708e+02   3.3934890805e+01    0.2911739    0.1618651  69.28   0.00100382    1.566    0.362
        24 -15.0574    138.6431    171.5013   1.1916256558e+02   2.0210805721e+01       1.1429    0.8251388  55.73  0.005950124    1.320    0.242
        25 -12.1806      5.1227    177.9666   1.4886461086e+02   3.7485438440e+01    0.2719914    0.1954138  63.76  0.001011863    1.209    0.173
        26 -12.4062    203.7549    171.9878   1.0575494566e+02   7.1751413569e+00    0.5297158     0.386002 -25.19  0.002822022    1.474    0.322
        27 -13.5646    195.7002    170.5173   1.0702282367e+02   9.0199257294e+00    0.6955778     0.447848 -48.90  0.001932337    1.819    0.450
        28 -11.8345    193.6858    165.3217   1.0636720234e+02   1.0313584412e+01    0.2976039    0.2449437  86.18 0.0009765772    1.677    0.404
        29 -13.0659    177.7142    170.5469   1.1064275969e+02   1.2639062733e+01    0.4256849    0.2720553 -53.78  0.002018659    1.876    0.467
        30 -11.7675    133.8443    246.3564   1.3061321258e+02   7.9299042455e+00    0.1630109    0.1469664  61.22 0.0003265316    1.203    0.169
        31 -11.4221    170.4220    185.2160   1.1488167089e+02   1.1475049605e+01    0.2840174     0.230622  82.03 0.0006691226    1.577    0.366
        32 -10.5329     34.3520    169.7117   1.4225218286e+02   3.6445688259e+01    0.1556522    0.1447842 -36.22 0.0006126205    1.584    0.369
        33 -11.6516    201.2031    164.3192   1.0468541596e+02   8.9562347467e+00    0.5046185    0.3251384 -45.31  0.002129496    1.723    0.420
        34 -10.8085     25.3317    165.1573   1.4379649449e+02   3.8346230083e+01    0.1605322    0.1458379  77.08 0.0007293398    1.275    0.216
        35 -10.8168    222.6670    161.8475   1.0013900489e+02   5.0749393128e+00    0.2433596    0.1794421 -47.98  0.000819388    1.612    0.379
        36 -14.3480    143.9059    168.8069   1.1751746306e+02   1.9731695862e+01    0.9785835     0.594273  77.27  0.003797578    2.944    0.660
        37 -12.8357    163.9108    156.2079   1.1066954044e+02   1.8168950838e+01    0.3597623    0.3182854 -40.56 0.0009289993    1.206    0.171
        38 -14.5691    134.2710    146.4761   1.1537704683e+02   2.6269124373e+01     1.528589    0.5060286 -57.45  0.004368696    4.434    0.774
        39 -12.1816    160.0872    151.6386   1.1055170811e+02   1.9871183054e+01    0.2913836      0.22695 -36.63  0.001211826    1.401    0.286
        40 -14.2714    143.7867    144.0159   1.1262782539e+02   2.4847820565e+01     1.077148    0.5267823 -63.70  0.003625599    3.318    0.699
        41 -12.2199    173.9571    148.7176   1.0691272475e+02   1.7484803182e+01    0.3667698    0.3083596  66.65   0.00147738    1.303    0.232
        42 -14.3007    135.8031    127.2717   1.1079582177e+02   3.0094360330e+01     1.684753    0.3851474 -50.33  0.004282545    4.955    0.798
        43 -10.4717      1.6585    140.0199   1.4702495784e+02   4.5799386591e+01    0.1563658     0.108702 -85.04 0.0003785948    1.081    0.075
        44  99.0000    131.3665    236.4499   1.2995085788e+02   9.8334922646e+00    0.3687787    0.3233813  -3.35  0.001918587    1.669    0.401
        45 -11.0962      7.5450    138.3684   1.4551414113e+02   4.5738417939e+01    0.2058203    0.1641203 -76.36 0.0007699247    1.162    0.139
        46 -10.2116    126.5682    236.2077   1.3079840455e+02   1.0641315878e+01    0.2757282    0.1920229 -37.89  0.001314846    2.187    0.543
        47 -10.8894     22.9823    156.0496   1.4351661051e+02   4.0552738900e+01    0.1788464    0.1397594  87.58 0.0004999434    1.021    0.020
        48 -12.7310    160.5836    127.9416   1.0510060404e+02   2.4544279608e+01    0.4467572    0.3588241 -62.47  0.002100549    1.379    0.275
        49 -10.7718     21.8819    241.8950   1.4928260527e+02   2.3820274820e+01    0.1812052   0.09757116 -87.51  0.001288394    1.612    0.380
        50 -12.1402    140.4493    120.6472   1.0807389730e+02   3.0524647171e+01    0.3140632    0.2309724  76.71 0.0007236295    1.735    0.424
        51 -10.8177    167.4883    112.6101   9.9721253962e+01   2.6035863451e+01    0.3227655    0.2179399 -72.14  0.001286587    2.194    0.544
        52 -11.2439    139.1142    249.8582   1.3006816500e+02   6.5882158048e+00    0.2335756    0.1883851  30.28  0.001658245    1.373    0.272
        53 -10.7162     25.6488    230.0938   1.4809097009e+02   2.5466116526e+01    0.1583809   0.07982124 -84.12  0.001034813    1.753    0.429
        54 -10.8817    205.3362    110.2275   9.1404325382e+01   1.7520190112e+01    0.3177534     0.210144  46.07  0.001057809    1.534    0.348
        55 -10.5358     25.4188    224.9734   1.4785573432e+02   2.6409201212e+01     0.136612   0.08284978 -84.21 0.0004755217    1.455    0.313
        56 -10.9769    138.6804    246.3152   1.2975224543e+02   7.1699735598e+00    0.1973321    0.1308027  67.89 0.0009119413    1.701    0.412
        57 -10.2773     22.4717    221.3505   1.4815847630e+02   2.7381891705e+01   0.09978233   0.07830542  72.52 0.0003431983    1.190    0.159
        58 -12.8786     11.8499    205.8233   1.4917012336e+02   3.1357956129e+01    0.3617685    0.2746956  26.96  0.002706313    1.965    0.491
        59 -12.5899    161.3545    197.5811   1.1882250161e+02   1.1044725810e+01    0.3437026    0.2695201 -74.97  0.001719149    1.650    0.394
        60 -14.4702    151.6963     56.7091   8.6890481105e+01   4.0247151435e+01     1.223156     1.054631  28.22   0.00100794    1.236    0.191
        61 -10.3056    159.9768    247.0375   1.2606835677e+02   3.6532475652e+00    0.1663375    0.1276204  16.35 0.0005939377    1.605    0.377
        62 -13.0697    166.8053     33.7784   7.6438555449e+01   3.9665933030e+01    0.4448452    0.3926347  34.49 0.0008687536    1.197    0.165
        63 -11.0974     13.4029     59.8843   1.3269672191e+02   6.2771525626e+01    0.1632831    0.1554258 -79.88 0.0004531509    1.246    0.198
        64 -10.4598    144.3574     33.8689   8.0731423192e+01   4.5477850887e+01    0.2495743    0.1933487  74.12 0.0006451446    1.374    0.272
        65 -12.0898    125.0479    243.6812   1.3188681683e+02   9.7164795040e+00    0.1978579    0.1550878 -65.89 0.0007230281    1.573    0.364
