#   1 NUMBER                 Running object number                                     
#   2 MAG_AUTO               Kron-like elliptical aperture magnitude                    [mag]
#   3 X_IMAGE                Object position along x                                    [pixel]
#   4 Y_IMAGE                Object position along y                                    [pixel]
#   5 X_WORLD                Barycenter position along world x axis                     [deg]
#   6 Y_WORLD                Barycenter position along world y axis                     [deg]
#   7 A_WORLD                Profile RMS along major axis (world units)                 [deg]
#   8 B_WORLD                Profile RMS along minor axis (world units)                 [deg]
#   9 THETA_WORLD            Position angle (CCW/world-x)                               [deg]
#  10 FWHM_WORLD             FWHM assuming a gaussian core                              [deg]
#  11 ELONGATION             A_IMAGE/B_IMAGE                                           
#  12 ELLIPTICITY            1 - B_IMAGE/A_IMAGE                                       
         1 -11.5197    235.2006     38.1002   3.2262854493e+01   2.3447166024e+01    0.7038984    0.3754348 -23.38  0.003528647    2.525    0.604
         2 -12.5887    206.5904     22.9177   3.1375282202e+01   3.1155981093e+01    0.7959986    0.3983624 -43.25  0.004227415    1.743    0.426
         3 -11.8030    224.1307     24.4835   3.0271174910e+01   2.7296198296e+01    0.5817444    0.2209967 -55.44  0.002682324    2.464    0.594
         4 -12.0341    158.9155     19.1945   3.5462581039e+01   4.2497501618e+01     1.784897    0.6368021 -63.96  0.004092892    9.260    0.892
         5 -13.5722     77.9605     17.9770   5.1177599371e+01   6.1724513367e+01     1.140575    0.3746011  60.42  0.004003339    3.555    0.719
         6 -13.6938    146.8740     14.4133   3.5643028824e+01   4.5881142811e+01     1.120386    0.6035603 -84.26  0.005109762    2.252    0.556
         7 -13.2852    135.7663      2.7977   3.3545640224e+01   4.9598534036e+01     1.580212    0.5417257  79.52  0.005794071    3.333    0.700
         8 -14.8090     50.0422      8.1703   5.6314531929e+01   6.8361923263e+01      2.48776     1.046384  56.80   0.01062148    2.970    0.663
         9 -12.9943     68.2506      3.1210   4.7294545717e+01   6.5210433282e+01     1.479949     0.407588  60.13  0.005384579    3.522    0.716
        10 -15.3427    103.4504      8.5351   4.0858568595e+01   5.6860654671e+01     3.205745     1.319016  72.21   0.01300424    2.678    0.627
        11 -14.2188    123.9516      7.5640   3.6814601412e+01   5.2051665687e+01     1.716512     0.910003 -81.93  0.007519688    2.606    0.616
        12 -11.7011    189.0764      9.2248   2.9663508210e+01   3.6482251419e+01    0.8384861    0.3212147 -62.46  0.003438835    3.093    0.677
        13 -11.1292    156.2857     11.0636   3.3465375946e+01   4.3938874872e+01    0.3498296    0.1760352 -51.43  0.001691279    2.072    0.517
        14 -11.3325    161.7168      9.7933   3.2484635225e+01   4.2764982445e+01    0.3713086    0.1768886 -70.89  0.001603031    2.631    0.620
        15 -12.3205    153.1296      2.9292   3.1497637394e+01   4.5423748774e+01    0.6712751    0.3172614 -89.93  0.003050409    2.296    0.564
        16 -12.9103    169.4907      3.6032   3.0010405508e+01   4.1504970702e+01     0.749872    0.3868504 -83.26  0.003584298    2.008    0.502
        17 -13.0855    160.8688      2.8165   3.0646467610e+01   4.3597537575e+01     1.281665      0.31896  75.62  0.004383385    3.910    0.744
        18 -10.8856     20.2365      2.0760   6.7702122411e+01   7.3904169915e+01    0.3299087    0.1512149  35.82  0.001766931    1.998    0.500
        19 -11.2176    217.3584    212.0378   7.0790914858e+01  -1.0528457722e+00    0.5352552    0.2195777 -43.98  0.002431586    2.653    0.623
        20 -10.8400    233.0858    213.3645   6.8244543728e+01  -3.2647956767e+00    0.2300773    0.1584112 -33.71  0.001458615    1.404    0.288
        21 -11.1713    242.2816    210.0008   6.6110202834e+01  -3.9056796570e+00    0.3479036     0.210453 -41.93  0.001639611    1.828    0.453
        22 -10.1434    186.3151    210.3200   7.6445156268e+01   3.5721744409e+00    0.1372893   0.09133288  -4.99 0.0005102495    1.655    0.396
        23 -11.9814    224.7280    205.2866   6.8277373067e+01  -9.9672403383e-01    0.5135151    0.3119236 -48.02   0.00276791    2.123    0.529
        24 -10.4369    205.7608    207.9981   7.2231294487e+01   1.1613539093e+00    0.1662695   0.09732703 -36.10 0.0006340154    1.613    0.380
        25 -10.0304    197.6145    204.2061   7.3121022682e+01   2.9492323274e+00    0.1907973    0.1087617 -29.43 0.0009585969    1.706    0.414
        26 -11.2451    186.5350    202.8299   7.5077741365e+01   4.8310558332e+00    0.2951005    0.1830862 -45.27  0.001522659    1.733    0.423
        27  -9.9909    244.7196    201.5573   6.4222471154e+01  -2.9921546867e+00    0.2191671    0.0883179 -36.79  0.001073596    2.125    0.529
        28 -10.2367    228.9045    200.8581   6.6751940598e+01  -8.7238904306e-01    0.1999516     0.142114  -9.26  0.001229781    1.246    0.197
        29 -10.3635    210.5789    200.7942   7.0032920518e+01   1.6467376134e+00    0.1758632    0.1141172 -44.93 0.0009539746    1.722    0.419
        30 -10.5372    238.0057    198.5657   6.4791250111e+01  -1.7102453971e+00    0.2268581    0.1563377 -42.46  0.001377604    1.627    0.386
        31  -9.4311    133.0229    199.0476   8.6197088254e+01   1.4040433114e+01    0.1634247    0.1502755  19.39 0.0009435891    1.007    0.007
        32 -11.4887    247.0253    193.3973   6.2385251616e+01  -2.0882350678e+00    0.2329632    0.2232746 -43.41  0.001460369    1.612    0.380
        33 -10.9994    240.8128    192.2749   6.3184432917e+01  -1.1294134402e+00    0.4653923    0.1929003 -38.65  0.002261008    2.108    0.526
        34 -10.4398    224.3581    192.4828   6.6012190271e+01   1.0470969963e+00    0.2533508    0.1387653 -38.08  0.001334878    1.660    0.398
        35 -11.6636    214.9753    190.2934   6.7281485923e+01   2.7337611877e+00    0.3667555    0.1897307 -33.37  0.001821349    1.748    0.428
        36 -11.2493    210.7608    188.8829   6.7790009800e+01   3.5865322870e+00     0.349717    0.2270708 -44.93   0.00146278    1.652    0.395
        37 -11.1424    211.0086    182.9888   6.6619129162e+01   4.5453306679e+00    0.3697095    0.1676309 -35.40  0.001668012    2.021    0.505
        38 -10.8230    230.0988    187.4003   6.4071461451e+01   1.0561949483e+00    0.2485621    0.1641756 -38.95  0.001122515    1.446    0.309
        39  -9.3422    223.2751    188.2673   6.5415241960e+01   1.8732011355e+00     0.124805   0.08508823  -7.58            0    1.478    0.324
        40 -10.4808    250.2659    185.3410   6.0404191982e+01  -1.3072872088e+00    0.2923428    0.1185847 -36.61  0.001429603    2.033    0.508
        41 -11.2629    197.9570    182.7635   6.9050500662e+01   6.6064095063e+00    0.5169796    0.2770837 -53.38  0.002230685    2.564    0.610
        42 -10.4569    230.4089    180.7531   6.2763273560e+01   2.0697610167e+00    0.2393088    0.1064515 -40.74  0.001118985    2.034    0.508
        43 -10.4925    248.4992    178.7833   5.9462925661e+01  -9.4866257815e-02    0.2947759   0.09934667 -39.52  0.001283557    2.511    0.602
        44 -10.7841    225.6099    179.2306   6.3290637143e+01   3.0043132529e+00    0.1877186    0.1034311 -28.84 0.0009473797    1.646    0.392
        45 -11.5680    219.1437    177.1327   6.4014057725e+01   4.3068628246e+00     0.317174    0.1674659 -37.75  0.001428542    1.679    0.404
        46 -11.8625    241.5169    180.5075   6.0887383468e+01   5.7205628193e-01    0.4906659     0.214216 -44.28  0.002300749    2.339    0.572
        47 -11.6841    215.7603    173.0269   6.3810970655e+01   5.5174738258e+00    0.2878729    0.1648582 -37.04  0.001234248    1.548    0.354
        48 -10.3346    234.5191    175.2542   6.1026014604e+01   2.3665621333e+00    0.2780467    0.1806108  48.27  0.001539657    2.116    0.527
        49 -11.2412    246.2185    169.1938   5.8002360882e+01   1.6844504447e+00    0.3320851    0.1904895 -39.61  0.001552298    1.520    0.342
        50 -10.2392    234.9502    182.0216   6.2243968815e+01   1.2331147444e+00    0.2006415    0.1577817 -18.73 0.0009506955    1.022    0.021
        51 -11.5804    218.9929    168.4083   6.2321819216e+01   5.8047593681e+00    0.3675567    0.2262468 -33.29  0.001321979    1.418    0.295
        52 -10.1888    250.6057    159.2003   5.5421501506e+01   2.6290047160e+00    0.2397078    0.1606896 -23.71  0.001430738    1.294    0.227
        53 -10.9730    250.3610    152.5593   5.4167743209e+01   3.7000532179e+00    0.4146016    0.2157972 -29.45  0.001866867    1.696    0.410
        54 -10.1677    246.4774    150.9901   5.4426045072e+01   4.5112593933e+00    0.4167137    0.1606577 -35.74  0.001863984    2.155    0.536
        55 -11.0091    246.5244    162.4984   5.6667861011e+01   2.6873477249e+00    0.2669028     0.224482 -60.95  0.001486595    1.675    0.403
        56 -11.4713    246.6832    158.4775   5.5863328015e+01   3.2969242356e+00    0.4967204    0.2005317 -36.93  0.002314821    2.023    0.506
        57 -10.2259    240.4478    163.8143   5.7858578445e+01   3.3459378421e+00    0.2423082    0.1033916 -41.21  0.001122199    2.041    0.510
        58  -9.9877    159.8280    164.2202   7.3352278553e+01   1.6733601380e+01     0.211172    0.1697634 -12.22   0.00106928    1.338    0.253
        59 -10.8146    205.4893    169.0531   6.4895253574e+01   7.8406882252e+00    0.3067458    0.1206274 -45.74  0.001198826    2.596    0.615
        60 -10.8215    248.3031    145.8139   5.3137961975e+01   5.0628283204e+00      0.40864    0.2857421  42.18  0.002497441    1.750    0.429
        61 -10.4734    238.0212    158.7864   5.7250686360e+01   4.5100203560e+00    0.2438595    0.1563421 -36.15  0.001381846    1.304    0.233
        62 -10.1538    226.6258    156.7036   5.8667359138e+01   6.5964494633e+00      0.26421    0.1086292 -36.01  0.001133916    2.126    0.530
        63 -10.2650    233.3042    153.8249   5.7003845039e+01   6.0365570893e+00    0.2382392    0.1366812 -40.29  0.001243863    1.508    0.337
        64 -11.7065    227.1754    149.8424   5.7177460601e+01   7.6681297529e+00    0.5205199    0.3527063 -56.28  0.002737882    1.872    0.466
        65 -11.4069    235.7048    146.8599   5.5219773512e+01   6.8134284289e+00    0.4518346    0.2367627 -47.01  0.002062293    1.897    0.473
        66 -11.5023    244.4584    139.8060   5.2490360224e+01   6.6023394431e+00    0.3527232    0.3138272 -67.84  0.002028697    1.446    0.308
        67 -10.7999    238.6070    139.7937   5.3342485435e+01   7.5175525117e+00    0.2946503     0.199485 -38.34  0.001018152    1.232    0.188
        68 -12.5843    234.8204    134.9512   5.2910488354e+01   8.9236260040e+00    0.6101699    0.2579884 -45.89  0.002628732    2.231    0.552
        69 -10.4589    208.9365    137.2980   5.7587234140e+01   1.2965355558e+01    0.3213696    0.1678816 -45.05  0.001451924    1.788    0.441
        70  -9.7163    198.5133    136.5182   5.9280955283e+01   1.5018047007e+01    0.1425505    0.1279707 -32.03 0.0008101827    1.019    0.019
        71 -12.6334    231.7503    115.4522   4.9250323152e+01   1.2670243182e+01    0.7384962    0.4541503 -67.06   0.00344898    2.523    0.604
        72 -10.6456    242.7618    133.4959   5.1454662596e+01   7.8839484445e+00    0.2656587    0.1583942 -41.67  0.001099215    1.410    0.291
        73 -12.5804    241.5228    111.6270   4.7109975100e+01   1.1603385027e+01    0.6118168    0.2758199 -54.65   0.00253901    2.889    0.654
        74 -12.3384    248.4855    116.9325   4.7299695401e+01   9.6088804062e+00    0.6555344    0.2534708 -40.61  0.002498542    2.059    0.514
        75 -12.0674    244.8127    109.8029   4.6305427821e+01   1.1336899325e+01    0.3319579     0.217035 -53.33  0.001134016    1.506    0.336
        76 -10.5152    226.8569    133.1196   5.3739748320e+01   1.0558375242e+01    0.2064059    0.1694091 -50.21  0.001236195    1.250    0.200
        77 -11.8432    211.4425    127.4810   5.5001881566e+01   1.4265042670e+01      0.76105    0.4067381 -53.14  0.003323759    2.164    0.538
        78 -10.6842    230.3888    140.5907   5.4756048288e+01   8.7074341107e+00    0.2786568    0.1743274 -27.84  0.001431141    1.491    0.329
        79 -10.4884    203.1740    120.9007   5.4923958875e+01   1.7000694600e+01    0.2234896    0.1778718 -52.88 0.0007367012    1.263    0.209
        80 -10.1588    195.3970    113.6524   5.4596649419e+01   1.9850508859e+01    0.2847415    0.1223947 -43.76  0.001119933    2.128    0.530
        81 -11.2303    249.1960    107.6788   4.5319764898e+01   1.0938195255e+01    0.3715443    0.1673124 -54.12  0.001618081    2.692    0.629
        82 -11.5413    246.6021    101.2971   4.4323591929e+01   1.2361599869e+01    0.5348035    0.2008605 -53.87  0.001945443    3.795    0.736
        83 -11.2173    200.6840    104.8051   5.1606505347e+01   2.0367921697e+01    0.7028444    0.1665001 -39.09  0.002131741    3.745    0.733
        84 -12.1992    248.1992    128.1241   4.9610745035e+01   7.8863083329e+00    0.6884174     0.263506 -42.83  0.002668248    2.176    0.540
        85 -12.2281    217.5656     98.2916   4.7499239998e+01   1.8129097895e+01     1.451202    0.7719598 -41.75  0.006992237    1.616    0.381
        86 -11.9773    215.6259     93.8241   4.6761250217e+01   1.9244378838e+01     1.183265    0.2900687 -36.36  0.003746791    3.800    0.737
        87 -13.3352    241.4764    124.8368   4.9859062206e+01   9.4900855637e+00    0.9716741    0.3525827 -39.56  0.004165535    2.235    0.553
        88 -11.1807    249.1250     98.3411   4.3414493039e+01   1.2387535026e+01    0.4801788    0.1236534 -43.66  0.001797524    3.112    0.679
        89 -11.6344    248.9544     89.5664   4.1631557635e+01   1.3744052673e+01    0.4858083    0.2413159 -31.39  0.002416695    1.952    0.488
        90 -11.3982    244.9563     87.7148   4.1698099888e+01   1.4719878369e+01    0.3989429    0.1737853 -37.26    0.0017232    1.906    0.475
        91 -11.0184    243.3883     83.1820   4.0928244302e+01   1.5677818243e+01    0.2756435    0.1023176 -38.92  0.001068687    2.164    0.538
        92 -10.4361    242.0574     92.8193   4.3102050264e+01   1.4456455359e+01    0.2401699    0.1543805 -41.57  0.001058923    1.267    0.211
        93  -9.7793    235.4163     82.2390   4.1636838587e+01   1.7275130639e+01    0.1871146   0.09621502 -46.86 0.0007831687    1.647    0.393
        94 -11.3189    249.5023     80.4873   3.9708756610e+01   1.4992052863e+01    0.2966809    0.2125641 -56.52  0.001848347    1.250    0.200
        95 -11.3335    198.9099     68.2972   4.3076540171e+01   2.6783670209e+01    0.8978799    0.1762181 -43.43  0.002672492    4.297    0.767
        96  -9.9475    248.2189     73.8270   3.8475205600e+01   1.6183066161e+01    0.1548031    0.1322886 -30.03 0.0007997624    1.285    0.222
        97 -10.8996    229.8601     70.5295   3.9735437723e+01   2.0076153013e+01    0.3957385    0.1350103 -43.87  0.001660101    2.391    0.582
        98 -11.5273    203.7857     78.1940   4.4788658420e+01   2.4194215832e+01    0.6118652    0.3364071  80.44  0.002445801    2.742    0.635
        99 -10.1035    249.0032     64.8281   3.6557340963e+01   1.7313352694e+01    0.2354235    0.1139546 -47.31  0.001023878    1.658    0.397
       100 -11.2807    231.1258     62.9024   3.7936572146e+01   2.0930332579e+01    0.4563266    0.1729158 -37.84  0.002040039    2.215    0.549
       101 -10.5127    158.9569     62.6462   4.7939757742e+01   3.6801571555e+01    0.2775105     0.189359 -62.05  0.001230483    1.648    0.393
       102  -9.5864    250.2834     60.6531   3.5591091697e+01   1.7658070155e+01    0.1279175   0.07145914 -57.83 0.0007016683    1.646    0.393
       103 -10.2881    165.4247     60.1211   4.6084751225e+01   3.5660770318e+01    0.2718683    0.1678592 -72.07  0.001172506    2.173    0.540
       104 -10.6615    163.7987     53.8598   4.4604125798e+01   3.6980140555e+01    0.2738745    0.1791593 -55.39   0.00133457    1.593    0.372
       105 -10.4172    247.2086     48.0035   3.3300437314e+01   1.9904615483e+01    0.2973751    0.1233215 -57.98  0.001177697    2.461    0.594
       106  -9.9313    172.2135     50.1543   4.2247625108e+01   3.5519226922e+01    0.1943555    0.1453457 -66.41 0.0003976628    1.360    0.265
       107 -10.0906    226.0048    243.5166   7.4466595232e+01  -6.5823790086e+00    0.1703468   0.09526152  25.35   0.00103762    1.606    0.377
       108 -10.5942    158.8320     49.0460   4.4060650381e+01   3.8856102665e+01    0.2238583    0.1764287 -70.58 0.0008201477    1.317    0.241
       109  -9.6383    163.6252     46.2949   4.2498101775e+01   3.8090922798e+01    0.1482374    0.0986523 -72.79 0.0007025017    1.740    0.425
       110  -9.7585    169.4174     45.2011   4.1308742766e+01   3.6862106769e+01    0.1972907    0.1143365 -47.10 0.0009391435    1.686    0.407
       111 -10.7754    165.8616     40.8967   4.0639928679e+01   3.8279141144e+01    0.3389875    0.1950751 -65.51  0.001529156    2.099    0.523
       112 -12.3522    140.3576     39.4501   4.4416956499e+01   4.4624503982e+01    0.5559614    0.2710254 -54.72  0.002212473    2.655    0.623
       113 -10.5044     30.4250     40.5347   8.1285307429e+01   6.6663038887e+01    0.2589663    0.1193807  28.68  0.001210286    2.177    0.541
       114 -11.7811    128.6666     36.3197   4.5656010434e+01   4.7862176424e+01    0.4737293    0.2277578 -51.25    0.0019086    2.617    0.618
       115 -11.2593    125.9215     31.1652   4.4477780227e+01   4.9161600553e+01    0.2980185    0.2075269 -89.44  0.001285782    1.715    0.417
       116 -11.0085    238.3840     48.5398   3.4171528318e+01   2.1491815250e+01    0.3771451    0.1640406 -63.15  0.001675281    2.786    0.641
       117 -11.5102     25.8088     36.6081   8.2117951238e+01   6.7924624058e+01    0.3068377    0.1961086  35.15  0.001677892    1.757    0.431
       118 -11.3797     21.7687     34.7657   8.3571988361e+01   6.8705318940e+01    0.2715438     0.193224  33.16   0.00128676    1.609    0.378
       119 -11.1857    144.9816     36.0297   4.2532102719e+01   4.3938071862e+01    0.2254949    0.1559918 -71.47 0.0009833347    1.671    0.401
       120 -11.6859    103.8344     29.7905   4.8885648117e+01   5.4577758185e+01    0.3173649    0.2227707  73.88   0.00109394    1.610    0.379
       121 -13.0210    111.1098     31.8812   4.7913112879e+01   5.2618539408e+01    0.7403218    0.3778031  75.96  0.002848711    2.907    0.656
       122 -12.1022    109.3935     26.2808   4.6258866919e+01   5.3686841674e+01    0.3111401    0.2386093 -51.23  0.001724225    1.495    0.331
       123 -10.7010     31.7441     34.4465   7.8036273067e+01   6.7591406181e+01    0.2348396    0.1144199  34.46  0.001137201    2.088    0.521
       124 -10.7412     35.9508     31.5066   7.4555078663e+01   6.7524558238e+01    0.1934956    0.1166094  30.41  0.001037518    1.604    0.377
       125 -12.5247     26.9074     29.8324   7.8575431755e+01   6.8988630478e+01    0.5191963    0.2455204  19.51  0.002418589    2.365    0.577
       126 -12.1121     19.1383     28.8352   8.2522869217e+01   7.0045820240e+01    0.3317159    0.2363718  37.20  0.001424563    1.737    0.424
       127 -10.7562    246.6488    240.1549   7.0422705938e+01  -8.4238530957e+00    0.2049211     0.193854 -87.24  0.001468827    2.533    0.605
       128 -10.5886    183.1306    239.6973   8.1871124487e+01  -7.2659919533e-01    0.1933804    0.1413377  36.77  0.001194921    1.468    0.319
       129 -11.8201    217.3198    234.3054   7.4545271659e+01  -4.3097637031e+00    0.3751172    0.2567612 -35.30  0.001722878    1.544    0.352
       130 -10.6585    231.4057    237.1310   7.2509853179e+01  -6.3580590449e+00    0.2096477    0.1409229  37.94  0.001332808    1.951    0.488
       131 -10.9087    249.7015    234.9280   6.9082902609e+01  -8.0907355917e+00    0.1974414    0.1448465  18.92  0.001436943    1.395    0.283
       132 -10.6620    238.2451    231.1500   7.0367603064e+01  -6.3428670555e+00     0.186464    0.1497528  44.47   0.00124748    2.118    0.528
       133 -10.5181    199.0076    226.1926   7.6632970193e+01  -7.7826283023e-01    0.2215167      0.16477 -24.36  0.001392788    1.261    0.207
       134  -9.9545    218.4190    225.7583   7.2942521359e+01  -3.2294359275e+00    0.1707809   0.09582233 -24.86 0.0009519692    1.651    0.394
       135 -10.9440    206.9807    225.4988   7.5005438320e+01  -1.7269905291e+00    0.2166808    0.1729995 -43.60  0.001388193    1.623    0.384
       136 -10.8540     24.1516     18.3716   7.4587133909e+01   7.1169641039e+01     0.166526    0.1038678  36.70 0.0009512123    1.745    0.427
       137 -10.3403    190.5302    225.0061   7.8086020630e+01   5.5726639260e-01    0.1842631    0.1151925 -35.31 0.0007416739    1.594    0.373
       138 -11.8386     16.1321     17.3383   7.8860483810e+01   7.2284536210e+01    0.2857002    0.1691848  -3.26  0.001430291    1.794    0.443
       139  -9.7177    161.9761     15.4721   3.4036059499e+01   4.2148689388e+01    0.1848888   0.09519522 -78.36 0.0008074938    2.378    0.579
       140 -11.1528     11.9653     13.6997   7.9625961091e+01   7.3302057044e+01    0.1717266    0.1320194   1.98 0.0008451198    1.108    0.097
       141 -10.9939      3.9631     12.9012   8.4611876375e+01   7.4192313320e+01    0.2701786    0.1541443  16.83  0.001629933    1.673    0.402
       142 -11.2682    239.0982    220.7815   6.8494679344e+01  -5.0366124203e+00    0.2947865    0.2307438 -42.36  0.001984692    1.751    0.429
       143 -11.5410    193.4058    218.8689   7.6498737500e+01   1.1395914705e+00    0.3203731    0.2395426 -41.71  0.001926179    1.514    0.340
       144 -11.1547    249.1538    217.8758   6.6341925270e+01  -5.7993751287e+00    0.3262599     0.205838 -18.63  0.002119946    1.274    0.215
       145 -13.0230     18.7857     22.7715   7.9932091076e+01   7.1115246264e+01    0.5612908    0.2469554  36.95  0.002709324    2.591    0.614
       146 -10.1005    210.5068    218.5299   7.3172925302e+01  -1.1362847361e+00    0.2026698    0.1126884 -47.48  0.001032478    2.283    0.562
       147 -10.2410    202.2911    219.6630   7.4913380722e+01  -2.0960741791e-01    0.1062325    0.1034377  79.43 0.0004187541    1.641    0.390
       148 -10.3777     56.0593    216.6728   1.0698526387e+02   2.1317365748e+01    0.2088156    0.1578608  87.26 0.0007625994    1.327    0.246
