#   1 NUMBER                 Running object number                                     
#   2 MAG_AUTO               Kron-like elliptical aperture magnitude                    [mag]
#   3 X_IMAGE                Object position along x                                    [pixel]
#   4 Y_IMAGE                Object position along y                                    [pixel]
#   5 X_WORLD                Barycenter position along world x axis                     [deg]
#   6 Y_WORLD                Barycenter position along world y axis                     [deg]
#   7 A_WORLD                Profile RMS along major axis (world units)                 [deg]
#   8 B_WORLD                Profile RMS along minor axis (world units)                 [deg]
#   9 THETA_WORLD            Position angle (CCW/world-x)                               [deg]
#  10 FWHM_WORLD             FWHM assuming a gaussian core                              [deg]
#  11 ELONGATION             A_IMAGE/B_IMAGE                                           
#  12 ELLIPTICITY            1 - B_IMAGE/A_IMAGE                                       
         1 -12.2314    205.4507      2.1356   6.4407564411e+01   3.2049079617e+01     1.521229    0.7199393  72.39    0.0067924    2.028    0.507
         2 -13.2646    184.3930     24.2765   7.3124608420e+01   3.5372455652e+01     1.849435     1.294712 -20.35  0.006172737    1.515    0.340
         3 -13.0705    191.8468     17.3159   7.0112605666e+01   3.4132925517e+01     1.395689     1.016288 -47.49  0.004576143    1.308    0.236
         4 -11.3210     39.6814      6.6624   1.0603772163e+02   7.3444887086e+01    0.5183058    0.2864717 -20.81  0.002389369    2.266    0.559
         5 -11.9806    197.8218      9.5560   6.7190065320e+01   3.3334005645e+01    0.6057858    0.5543162  33.89  0.001209559    1.253    0.202
         6 -10.2414    144.1369    242.6613   1.2863982556e+02   9.8608905793e+00    0.1608673    0.1370905  51.90 0.0006549667    1.351    0.260
         7 -10.6992    140.0719    249.5514   1.3007556222e+02   9.5672426681e+00    0.2638663    0.1657151  54.80  0.001776993    1.758    0.431
         8 -10.5324    110.7144    248.9862   1.3538790897e+02   1.3574094402e+01    0.2599235    0.1914271  51.63  0.001115728    1.218    0.179
         9 -12.3021    100.1516    246.8531   1.3717355632e+02   1.5243593335e+01    0.7584851    0.4558772  61.20   0.00168042    1.728    0.421
        10 -11.3591    105.9633    246.1158   1.3603330759e+02   1.4588575035e+01    0.4204743    0.2636897  64.39  0.002263121    1.809    0.447
        11 -13.7543     54.0856    226.5444   1.4465293348e+02   2.4024871278e+01     2.261644     1.122152 -45.67   0.00130336    4.215    0.763
        12 -15.1573     63.3973    215.9101   1.4211949650e+02   2.4720093615e+01     6.749112     2.135112  46.27    0.0215544    2.217    0.549
        13 -10.0881    192.7043    194.2405   1.1318299625e+02   8.7386869386e+00    0.6476921    0.3655577 -60.88  0.002269269    6.866    0.854
        14 -11.0978     75.8817    193.1395   1.3761276565e+02   2.7224789727e+01    0.3496532    0.2511743 -40.37  0.002096716    2.077    0.518
        15 -11.0644     79.9938    186.4765   1.3602745347e+02   2.7929691734e+01    0.2544758    0.2449006 -47.35 0.0006876848    1.369    0.270
        16 -14.7920     15.9471    245.1891   1.5251039815e+02   2.4996512533e+01     2.125542     1.379278 -69.60   0.01375165    2.082    0.520
        17  -7.8419    181.6869    192.2780   1.1493530891e+02   1.0786133994e+01    0.1145005   0.09049422  54.11 0.0003130698    1.565    0.361
        18 -10.5795     87.7183    174.7457   1.3290930807e+02   2.9118860800e+01    0.2317269    0.2148193  48.24 0.0005978962    1.166    0.142
        19 -12.1137     57.5718    128.5578   1.3516696888e+02   4.3434039826e+01     2.186061    0.7460373 -82.61  0.005485481    7.154    0.860
        20 -12.1218     67.6379    144.0270   1.3430208551e+02   3.8528763984e+01    0.7975751     0.468748  65.19  0.003893262    1.813    0.449
        21 -10.9169     78.7907    159.2131   1.3324504212e+02   3.3622052315e+01      1.49849    0.5387126  60.33  0.004106291    6.116    0.836
        22 -10.2027    126.0519    174.0995   1.2376000778e+02   2.3120433149e+01    0.3578365    0.1749895  30.82  0.001566642    2.145    0.534
        23  -9.9626    138.7653    171.6854   1.2050120663e+02   2.1351872284e+01    0.2109657    0.2059232 -83.23  0.001312626    1.209    0.173
        24  -8.8459     36.4350    170.7308   1.4511010759e+02   3.6440450794e+01    0.1555121     0.103017 -70.47 0.0009515079    1.609    0.378
        25  -9.7522     29.8779    169.4814   1.4663591998e+02   3.7367734462e+01    0.1786142    0.1340784  77.60 0.0005260149    1.158    0.136
        26  -8.9768     39.3930    161.9296   1.4373645707e+02   3.7994423809e+01    0.3183077    0.1276572  55.31  0.001479155    2.234    0.552
        27  -8.1744    194.3162    156.3305   1.0613739640e+02   1.3669665794e+01    0.1391544   0.09373715  11.53  0.000704632    1.682    0.406
        28  -8.7725     51.7507    157.5876   1.4015089687e+02   3.7542979868e+01    0.2279938    0.1324837  43.65  0.001124894    1.469    0.319
        29  -8.5098     49.4938    151.4943   1.4016316934e+02   3.9152899178e+01    0.1293783    0.1074965  65.09 -0.0002075559    1.003    0.003
        30 -10.0321    105.4628    148.0312   1.2464500780e+02   3.1765766671e+01    0.5793495    0.3227274 -34.15  0.002348104    2.964    0.663
        31 -11.4334     93.6879    149.1178   1.2791611394e+02   3.3501217429e+01    0.2749622     0.243995  32.68 0.0005149269    1.198    0.166
        32  -9.5929     21.3483    145.7008   1.4735949558e+02   4.3314783086e+01    0.2271148    0.1492065  60.74 0.0009617619    1.274    0.215
        33 -12.6124     75.8245    171.9246   1.3549118265e+02   3.1390136451e+01     0.417216    0.2874003 -39.20  0.001678578    2.123    0.529
        34  -9.2894    133.5000    142.2758   1.1649962902e+02   2.7793746728e+01    0.4413688    0.1435811 -55.91  0.001296459    4.817    0.792
        35  -9.3087    113.7184    135.4364   1.2020704726e+02   3.2944527562e+01    0.2839248       0.2366 -13.89   0.00116752    1.568    0.362
        36 -10.0750    101.4775    132.5102   1.2297263045e+02   3.5794337384e+01     0.279137    0.2380627 -27.54 0.0007260807    1.463    0.317
        37 -10.8643     45.4084    129.9999   1.3904071102e+02   4.4551656715e+01    0.2866882    0.2412525  49.69  0.001779257    1.143    0.125
        38 -11.9930     93.3802    166.6777   1.3050827111e+02   2.9884569607e+01     2.647981     0.506069  45.99  0.001515586    4.848    0.794
        39 -10.2904     41.4697    126.3087   1.3982027859e+02   4.5856100063e+01    0.2796285    0.2059181 -88.27  0.001425925    1.251    0.201
        40  -8.7137    122.3200    122.0032   1.1513321069e+02   3.4119192376e+01    0.2350719    0.1151977 -29.76 0.0007045275    4.245    0.764
        41 -10.1321    168.2832    112.9664   1.0187812094e+02   2.5993375794e+01    0.3511725    0.2976467 -80.49   0.00102247    1.510    0.338
        42  -8.9943    109.6098    122.9081   1.1879899280e+02   3.6408846641e+01    0.2254099    0.1892868  35.16 0.0003336978    1.198    0.166
        43  -8.9352    204.7001    110.6005   9.4242679042e+01   1.8401576963e+01    0.3242123    0.1848504  32.23  0.001437741    1.985    0.496
        44 -17.1436      2.7481    129.6506   1.5168984868e+02   4.8334214734e+01     16.95774    0.9673326 -82.32   0.03346414   13.665    0.927
        45 -10.4341    249.6379    247.5847   1.1161782605e+02  -4.5007794805e+00    0.2297275    0.1365738 -26.81  0.001760926    2.056    0.514
        46  -9.8226    229.9160    207.4914   1.0886098051e+02   1.6094145552e+00    0.1838796    0.1481088   2.90 0.0003866358    1.206    0.171
        47 -10.9690    124.9935    244.0118   1.3230770522e+02   1.2325376897e+01    0.2416224    0.1734908  67.38 0.0008939832    1.751    0.429
        48 -11.3110    171.7707    220.9974   1.2097643720e+02   8.5851233939e+00    0.4629814    0.1918188  30.75  0.002283136    2.143    0.533
