#   1 NUMBER                 Running object number                                     
#   2 MAG_AUTO               Kron-like elliptical aperture magnitude                    [mag]
#   3 X_IMAGE                Object position along x                                    [pixel]
#   4 Y_IMAGE                Object position along y                                    [pixel]
#   5 X_WORLD                Barycenter position along world x axis                     [deg]
#   6 Y_WORLD                Barycenter position along world y axis                     [deg]
#   7 A_WORLD                Profile RMS along major axis (world units)                 [deg]
#   8 B_WORLD                Profile RMS along minor axis (world units)                 [deg]
#   9 THETA_WORLD            Position angle (CCW/world-x)                               [deg]
#  10 FWHM_WORLD             FWHM assuming a gaussian core                              [deg]
#  11 ELONGATION             A_IMAGE/B_IMAGE                                           
#  12 ELLIPTICITY            1 - B_IMAGE/A_IMAGE                                       
         1 -15.8643     81.5002    142.3426   2.9166791204e+02   5.6621910874e+00   0.06657556   0.05593489 -12.52  0.003232647    1.296    0.228
         2 -13.0816    134.9392      9.3220   2.9024734020e+02   6.8970927649e+00   0.03094243   0.01016125 -45.88  0.002180228    3.318    0.699
         3 -13.1718     55.5536      4.6963   2.9114620038e+02   7.4103774694e+00   0.02987996   0.01431334 -22.90  0.001923272    4.603    0.783
         4 -10.8050    149.4780      1.5462   2.9003102856e+02   6.9028243468e+00  0.006644146  0.006313823 -27.54 0.0001010958    1.057    0.054
         5 -10.6419     35.3471    210.6543   2.9261305258e+02   5.1342990517e+00  0.007230495  0.004904395  62.23 0.0007043194    1.804    0.446
         6 -17.6631    131.7827    105.7236   2.9086280159e+02   5.7967019404e+00    0.2751387    0.1236973 -69.42   0.02247024    2.560    0.609
         7 -16.9001    164.5777    114.8380   2.9053546269e+02   5.5007211617e+00     0.148505    0.1111245  -9.25   0.01082678    1.574    0.365
         8 -17.9193    220.0840    166.8827   2.9020170687e+02   4.5742210739e+00    0.5961353    0.1106394 -64.03    0.0308262    6.152    0.837
         9  99.0000    190.9559     60.9739   2.8990502956e+02   5.9727245763e+00     0.445278    0.3556094 -52.12   0.05108983    1.229    0.186
        10 -11.6443    242.8230    137.1581   2.8975919647e+02   4.7871769710e+00   0.01114006  0.008777328 -54.46   0.00123157    1.243    0.196
        11 -15.0815      4.2962    193.1816   2.9287074000e+02   5.5162424628e+00   0.07300411   0.03588402 -48.71  0.004250147    2.009    0.502
        12 -12.8749    105.1712    127.4263   2.9130285376e+02   5.6986682282e+00   0.01920321   0.01228945 -25.21  0.001217541    1.966    0.491
        13 -15.5965     21.9531    180.6724   2.9259055277e+02   5.5600809372e+00   0.06242959   0.03616302 -18.69  0.004281941    2.593    0.614
        14 -11.5821    196.1086    119.4087   2.9019588501e+02   5.2646374665e+00   0.02140647  0.008642019  46.02  0.001193649    2.892    0.654
        15 -15.2920     70.9501    147.8792   2.9182394767e+02   5.6587820909e+00   0.05901047   0.03681732  72.74  0.002257155    2.310    0.567
        16 -13.4036    100.7601    132.8004   2.9138641042e+02   5.6617415079e+00   0.02685796   0.01678015  82.62   0.00158051    2.327    0.570
        17 -16.2722     54.6390    157.3087   2.9207034666e+02   5.6433200243e+00    0.1141517   0.05756312 -50.62  0.009547797    1.923    0.480
        18 -10.8544     24.1432    105.1268   2.9211435040e+02   6.4256443624e+00   0.01044339   0.00881815 -29.88 0.0008000112    1.239    0.193
        19 -11.9297     18.5305     92.1509   2.9210230931e+02   6.6087442301e+00   0.01903746   0.01147098 -76.97  0.001243708    1.975    0.494
        20 -12.9266    161.7142    165.6334   2.9087307652e+02   4.9273266916e+00   0.01567061   0.01086587  47.94 0.0007696966    1.537    0.350
        21 -13.5424     94.2354    132.4126   2.9146012457e+02   5.7039799262e+00    0.0548217    0.0237754 -73.22  0.002324234    3.087    0.676
        22 -12.3704     16.0222    154.5211   2.9250384648e+02   5.8982929012e+00   0.01056093  0.008920667 -61.67 0.0004199556    1.175    0.149
        23 -10.9763     37.5061     65.9495   2.9172410773e+02   6.8037085158e+00   0.01008779   0.00654796 -65.42 0.0008066864    1.563    0.360
        24 -11.6244     13.1847     60.1304   2.9197325176e+02   7.0114531989e+00   0.01026069  0.008853509 -31.58 0.0005072608    1.196    0.164
        25 -11.2558     23.0000     37.9894   2.9172608142e+02   7.2119487779e+00    0.0111295  0.003735799 -62.81 0.0008044941    2.957    0.662
        26 -11.4896    103.0233    152.5184   2.9147796545e+02   5.4195156053e+00  0.009902299   0.00643307  29.11 0.0005422182    1.530    0.346
        27 -13.3929     99.8951     31.4326   2.9078900792e+02   6.8438025040e+00   0.02112172   0.01271911 -79.41   0.00197139    2.062    0.515
        28 -12.3580     87.7630     31.7474   2.9093247575e+02   6.9103750207e+00   0.01643352  0.008536988 -59.68 0.0009267809    1.862    0.463
        29 -13.3281    116.1367     29.7133   2.9058919343e+02   6.7696618533e+00   0.02445347   0.01596704  21.25  0.001981553    1.596    0.373
        30 -12.4747    111.3674    149.9386   2.9136534150e+02   5.4012318719e+00   0.01609742   0.00913291  53.32  0.001459738    2.140    0.533
        31 -12.5552    151.3091     26.0780   2.9015719368e+02   6.6077943353e+00   0.01825068   0.01226681 -43.66  0.001011043    1.520    0.342
        32 -11.8315     77.5027     29.0601   2.9103610921e+02   7.0009072173e+00   0.01010047  0.006462248 -62.00  0.000545151    1.548    0.354
        33 -12.3576    101.8142     21.4416   2.9070662329e+02   6.9485862152e+00   0.01716869  0.008872172 -56.60 0.0008992758    1.847    0.459
        34 -11.8771    120.4655     23.2623   2.9049994693e+02   6.8193942001e+00   0.01424012   0.01031408 -42.57  0.001535467    1.409    0.290
        35 -11.0598    168.8091     22.8216   2.8993365120e+02   6.5439018280e+00   0.01023286  0.008660724  21.59 0.0009470156    1.198    0.165
        36 -12.2772     90.1826     19.6440   2.9083158031e+02   7.0367800924e+00   0.01394192  0.008725119 -60.73 0.0006785836    1.570    0.363
        37 -11.1906    107.9914     18.9912   2.9061982354e+02   6.9412235595e+00  0.009813075  0.009407778 -57.39 0.0003652055    1.036    0.035
        38 -11.7076    131.0984     17.7852   2.9034301069e+02   6.8212501748e+00   0.01037032  0.009278088 -53.47 0.0004733709    1.102    0.092
        39 -10.6630    136.2535    215.4817   2.9146730802e+02   4.4955234582e+00  0.009039069  0.005962489  41.10 0.0007305593    1.540    0.351
        40 -12.2217    124.6218    157.0825   2.9125370136e+02   5.2415166342e+00   0.01608854  0.008824986  35.21  0.001026275    1.784    0.440
