#   1 NUMBER                 Running object number                                     
#   2 MAG_AUTO               Kron-like elliptical aperture magnitude                    [mag]
#   3 X_IMAGE                Object position along x                                    [pixel]
#   4 Y_IMAGE                Object position along y                                    [pixel]
#   5 X_WORLD                Barycenter position along world x axis                     [deg]
#   6 Y_WORLD                Barycenter position along world y axis                     [deg]
#   7 A_WORLD                Profile RMS along major axis (world units)                 [deg]
#   8 B_WORLD                Profile RMS along minor axis (world units)                 [deg]
#   9 THETA_WORLD            Position angle (CCW/world-x)                               [deg]
#  10 FWHM_WORLD             FWHM assuming a gaussian core                              [deg]
#  11 ELONGATION             A_IMAGE/B_IMAGE                                           
#  12 ELLIPTICITY            1 - B_IMAGE/A_IMAGE                                       
         1 -12.4630    178.1877     46.2095   5.3112882272e+01   3.4886064398e+01     1.158843    0.9682704  21.97  0.004199558    1.404    0.288
         2 -12.9390    197.5904     14.0651   4.1381255868e+01   3.4008505438e+01     1.432684     1.055162 -36.41  0.005998447    1.389    0.280
         3 -10.8260    212.4145     10.7725   3.9019105228e+01   3.0786953488e+01    0.4700949    0.2574557  -5.33  0.002006965    3.219    0.689
         4  -8.4743    116.7924     12.5371   5.3589245528e+01   5.4086754691e+01    0.3162632    0.1590872  58.76   0.00145329    1.810    0.447
         5  -9.5798    120.1855      8.8354   5.1450778640e+01   5.3641144637e+01    0.4150235    0.3040529  51.70  0.001533316    1.200    0.167
         6  -8.3253    238.0036      4.0121   3.5300605593e+01   2.5647870498e+01     0.183904     0.149832 -67.32 0.0003794952    1.019    0.018
         7  -9.2645    167.3902    224.1178   9.7212439076e+01   4.1790799701e+00    0.2529991    0.2259001 -71.30 0.0008547935    1.455    0.313
         8 -18.6296     41.5383    233.2478   1.2273645036e+02   2.1017467858e+01     4.896362     3.792856 -81.37   0.01700909    1.322    0.243
         9 -10.2776    178.1428    191.0459   8.9423111821e+01   7.9782228449e+00    0.2621704    0.2526408  44.92 0.0004013832    1.164    0.141
        10 -10.8272    128.2837    184.4536   9.9158253338e+01   1.8347166014e+01    0.4728039    0.3022747  86.77 0.0008026558    2.643    0.622
        11  -9.1166    236.8989    190.8796   7.7992012630e+01  -2.2113727755e+00    0.2024282    0.1522797   0.72 0.0003808737    1.210    0.174
        12  -8.2506     14.3526    188.5943   1.2486706951e+02   3.2888279243e+01    0.1634952     0.127433 -23.31 0.0008666039    2.173    0.540
        13  -8.9637     24.2123    187.8353   1.2280170330e+02   3.2120815971e+01    0.1802583    0.1631309  38.57  0.001320699    1.427    0.299
        14  -9.2522    165.9247    185.0974   9.0903187968e+01   1.1337050429e+01    0.4291499    0.3059143 -89.19  0.001898278    2.512    0.602
        15  -9.5977    183.7196    211.5119   9.1925558302e+01   3.4814752097e+00    0.5773575    0.1169711 -47.41  0.001543673    7.131    0.860
        16  -8.7855    152.9605    185.9805   9.3892677480e+01   1.3569498743e+01    0.1702743    0.1592509  34.01  0.000382258    1.004    0.004
        17  -8.8892    220.8717    210.4729   8.4588842613e+01  -2.5084097619e+00    0.2189062    0.1958115 -61.37 0.0006869988    1.743    0.426
        18 -10.1085    131.7434    195.0400   1.0011968261e+02   1.5563181347e+01     0.418198    0.2748426  17.41  0.001935726    2.146    0.534
        19  -8.7257    208.6781    205.0132   8.5894665604e+01   2.9204287462e-01    0.2047312    0.1625761  37.55 0.0003705794    1.279    0.218
        20 -13.9955     35.5233    213.5706   1.2247858797e+02   2.5533263017e+01     0.422753    0.2629687  27.79  0.001245569    2.077    0.518
        21  -8.3769     17.7186    179.3387   1.2350555355e+02   3.4596443916e+01    0.1193971    0.1062531  52.06 0.0002362426    1.329    0.247
        22  -9.2245    149.5217    177.9847   9.3186228796e+01   1.5815283701e+01    0.2541973    0.1914233  56.80 0.0004095247    1.431    0.301
        23  -9.0205      4.8843    176.3780   1.2597802326e+02   3.6346434484e+01    0.1907983    0.1374742 -50.02  0.001276748    1.769    0.435
        24  -8.5921     10.8564    169.8335   1.2425035593e+02   3.7305023883e+01    0.3471567     0.180805 -36.37 0.0009514156    3.618    0.724
        25  -9.1808    220.8354    175.6006   7.7872536295e+01   2.8887732414e+00    0.2213143    0.1548651 -36.82 0.0007055073    1.429    0.300
        26  -8.9048    199.0457    175.2282   8.2031335697e+01   6.9362237810e+00    0.2217872    0.1903092 -25.56 0.0002548933    1.149    0.130
        27  -9.9931    186.3819    175.0114   8.4581405528e+01   9.3704447349e+00    0.3664092    0.3385522  61.89  0.001041658    1.283    0.221
        28 -10.6632    123.1675    172.4557   9.8266772163e+01   2.1836307601e+01    0.3618882    0.3067104  -8.80  0.001282077    1.493    0.330
        29  -9.4862    158.5823    172.3761   9.0069465721e+01   1.5232968280e+01     0.526283     0.343968 -79.46  0.002054747    2.934    0.659
        30 -10.4675    240.2001    203.2348   7.9763841333e+01  -4.4993740043e+00    0.2186576    0.1853066   7.60   0.00144588    1.119    0.106
        31  -9.9605    117.2341    162.4022   9.7863973157e+01   2.5143097838e+01    0.3204625    0.2544346  82.60  0.001373177    1.452    0.311
        32  -9.7339    148.8486    157.1706   8.9200823544e+01   2.0313667330e+01    0.4847903    0.3422591  84.22  0.002038316    2.273    0.560
        33  -9.2825    209.8280    200.0353   8.4757756729e+01   8.7177045105e-01    0.2197924     0.195743  31.45 0.0003064028    1.220    0.180
        34 -11.3702    123.9025    141.6074   9.1986183283e+01   2.8677796518e+01    0.7463055    0.4526478  43.38  0.002049601    1.662    0.398
        35 -11.4547    133.9281    148.2978   9.0910448721e+01   2.5210783135e+01     1.481744    0.4307315 -55.08  0.003910351    4.687    0.787
        36  -9.9142    209.9125    195.1844   8.3829227912e+01   1.6239814385e+00    0.2444561    0.2178534  11.15 0.0004904204    1.075    0.070
        37  -9.7858    194.7430    198.4906   8.7420071541e+01   3.7186961024e+00    0.3622382    0.3494148  62.69   0.00228683    1.323    0.244
        38  -9.2175    191.6527    192.7558   8.6971089488e+01   5.2329267365e+00    0.3835219    0.2445082 -62.18   0.00169927    2.676    0.626
        39 -10.0809    108.0079    139.7330   9.5732017556e+01   3.2061361778e+01    0.3254068    0.2669941  63.94  0.001067074    1.313    0.239
        40 -11.2557    112.6371    136.3233   9.3771847717e+01   3.2026468715e+01    0.6206742    0.4753344 -61.24  0.002102085    1.317    0.241
        41 -11.6777    107.4795    133.3315   9.4498642575e+01   3.3671247028e+01     1.055284    0.4729697  55.38  0.003463682    3.325    0.699
        42 -10.4242    101.4427    135.4442   9.6588988441e+01   3.4234389064e+01    0.2744102    0.2631282 -41.93  0.000376072    1.088    0.081
        43 -11.0757      9.1234    221.9295   1.2779173744e+02   2.6581327154e+01    0.2264583    0.1410138  36.39  0.000986073    1.781    0.438
        44  -9.5150    130.2372    190.4072   9.9705353299e+01   1.6767156683e+01    0.2868766    0.1860621 -51.24  0.001056177    1.650    0.394
        45 -10.0479    117.4050    128.5849   9.0749849197e+01   3.2942682188e+01    0.3604577    0.2762952  14.59  0.001086604    1.658    0.397
        46 -10.8765    120.0493    184.4994   1.0104603334e+02   1.9773510602e+01    0.3907149    0.2860774 -76.92  0.002011553    1.590    0.371
        47  -9.2621    105.9729    123.7780   9.2749188405e+01   3.6204103908e+01    0.2657396    0.2300542 -33.99 0.0004997843    1.205    0.170
        48  -8.6430    145.6888    123.1524   8.2110427373e+01   2.8394773318e+01    0.2669852    0.2176544  34.21 0.0002274731    1.277    0.217
        49 -10.4012     93.8901    126.3997   9.6731455974e+01   3.7685603782e+01    0.4391434    0.2502614  47.99  0.001890405    1.915    0.478
        50  -9.4762    202.1139    121.1583   6.9159888772e+01   1.6314818491e+01    0.2313094    0.2174017 -18.26 0.0002814839    1.015    0.015
        51 -11.4044    124.7655    185.5126   1.0013556877e+02   1.8741359803e+01     0.537182    0.3671531 -71.95  0.002421779    1.759    0.432
        52  -9.0354    158.0477    193.8031   9.4179545341e+01   1.1127138848e+01    0.2265688    0.2045433 -49.57 0.0007563945    1.221    0.181
        53 -10.7752    138.8341    177.4953   9.5525449494e+01   1.7905553786e+01     0.811206     0.464565 -74.91  0.002894332    3.325    0.699
        54  -8.3214    168.2669    114.0940   7.4426234833e+01   2.5294393285e+01    0.2950669    0.2126282  82.86  0.001213933    2.104    0.525
        55 -11.9531    130.6965    168.4826   9.5754487713e+01   2.1339850451e+01    0.8624201    0.6427618 -88.87   0.00413521    1.760    0.432
        56  -9.4825    128.2453    162.6197   9.5223690825e+01   2.3087487182e+01    0.3220286    0.2347081  80.36  0.001483154    1.835    0.455
        57 -11.3414     24.8220    108.0557   1.1378485689e+02   5.0681929552e+01    0.4095046    0.3459302  55.61  0.001773174    1.365    0.268
        58 -10.1511    148.9939    192.3553   9.5888142319e+01   1.3040758573e+01    0.4123854    0.2733463 -68.14  0.001299416    2.060    0.515
        59  -9.0301     67.4937     99.7398   9.8553307187e+01   4.8095490104e+01    0.2529491    0.2044364  27.98  0.001390389    1.385    0.278
        60 -10.4667    144.3229    186.4981   9.5897822846e+01   1.5047976397e+01    0.5142027    0.3160668  54.87  0.001150055    1.796    0.443
        61  -9.2306     91.4038     97.8945   9.0523111934e+01   4.4825224359e+01    0.2496073    0.2142806  21.57 0.0003133789    1.268    0.211
        62  -7.4864    148.7049     97.2458   7.4416670590e+01   3.3224493701e+01    0.1488068    0.1246208 -88.50            0    1.480    0.324
        63  -8.8171     36.0444     94.2078   1.0768110465e+02   5.3012607079e+01    0.1792331    0.1559325 -56.07 0.0005084645    1.045    0.043
        64  -9.3218      8.5778     90.5508   1.1616903474e+02   5.5907114487e+01     0.225329    0.1492998  11.04 0.0008918252    1.938    0.484
        65  -8.0918     44.1681     86.1178   1.0311444831e+02   5.4100614650e+01    0.1684815    0.1514488  88.18 0.0005390927    1.295    0.228
        66 -10.0306    107.5573     77.6289   7.9626352210e+01   4.6197580049e+01    0.2690976    0.2509558 -12.11 0.0002442025    1.033    0.032
        67  -8.6419    203.7797     73.6385   5.6563159422e+01   2.4369722651e+01    0.2793536    0.1946203 -31.25 0.0008282714    1.424    0.298
        68 -11.8378    164.3730     60.7192   6.0021217011e+01   3.6158021093e+01     1.197328    0.9096221  11.70    0.0041666    1.682    0.406
        69 -10.1862    248.4499    248.2263   8.6119277681e+01  -1.1233201900e+01    0.2788272    0.2025617  34.80  0.001961861    1.547    0.354
        70 -10.8978    183.0014     39.4469   5.0362778565e+01   3.4604297022e+01     0.403484    0.3653291   5.35 0.0008631108    1.272    0.214
        71  -8.6769    152.9965     51.0085   5.9310271948e+01   4.0502435812e+01     0.236617    0.1796414 -74.08 0.0005280868    1.660    0.398
        72  -8.0727     79.9393     52.0000   7.9763374143e+01   5.6297353701e+01    0.2232029   0.07801316  41.29 0.0008066618    2.972    0.664
        73  -8.9620    250.5585    238.0792   8.4112695759e+01  -1.0378134720e+01    0.1525048   0.09793737 -22.96  0.000343564    1.503    0.334
        74  -8.4052    165.1055     21.4134   4.7734735157e+01   4.1320786456e+01    0.2062105    0.1850075   5.22  0.001198163    1.263    0.208
        75  -8.8949     33.4715     22.4442   8.6617304482e+01   6.7972076233e+01    0.2207926    0.1106889  28.60 0.0009206304    2.093    0.522
        76  -8.4639    132.1920     18.0985   5.2413620533e+01   4.9860668791e+01    0.2027524    0.1672451  35.65 0.0003256857    1.164    0.141
        77  -9.9543    144.0479    236.9319   1.0362445346e+02   5.8898342916e+00    0.2592318    0.2340106  -5.80  0.001029376    1.320    0.242
        78  -8.8676     43.5306     22.9774   8.2232706585e+01   6.6661991733e+01     0.284147    0.1566863  31.94  0.001046856    1.868    0.465
        79  -9.4236      9.0000    228.9178   1.2815343956e+02   2.5263736240e+01    0.1461966   0.04883299 -79.68 0.0003995387    2.612    0.617
        80  -8.3205    222.1159    227.8717   8.7388118765e+01  -5.1054784857e+00    0.1668877    0.1451146  18.56 0.0003736714    1.218    0.179
