#   1 NUMBER                 Running object number                                     
#   2 MAG_AUTO               Kron-like elliptical aperture magnitude                    [mag]
#   3 X_IMAGE                Object position along x                                    [pixel]
#   4 Y_IMAGE                Object position along y                                    [pixel]
#   5 X_WORLD                Barycenter position along world x axis                     [deg]
#   6 Y_WORLD                Barycenter position along world y axis                     [deg]
#   7 A_WORLD                Profile RMS along major axis (world units)                 [deg]
#   8 B_WORLD                Profile RMS along minor axis (world units)                 [deg]
#   9 THETA_WORLD            Position angle (CCW/world-x)                               [deg]
#  10 FWHM_WORLD             FWHM assuming a gaussian core                              [deg]
#  11 ELONGATION             A_IMAGE/B_IMAGE                                           
#  12 ELLIPTICITY            1 - B_IMAGE/A_IMAGE                                       
         1 -12.7021     82.3910     53.6848   1.0068263446e+02   5.5500776352e+01     1.754556     1.530716   1.28   0.01032212    1.115    0.103
         2 -11.1115    101.2898     43.6757   9.1084711242e+01   5.3528127233e+01     1.540453    0.9766508  31.81  0.007386011    1.685    0.407
         3 -12.6027     82.8724     80.3231   1.0927682697e+02   5.0189063028e+01     2.924609     1.119709 -57.40  0.003552166    3.785    0.736
         4 -12.3119     52.3162     37.1120   1.0530331837e+02   6.3130258663e+01     1.850225     1.259878 -51.48   0.01032456    1.738    0.425
         5 -12.8659    161.0131     13.9981   6.7701474094e+01   4.3042669485e+01     2.444298     1.671351  24.43   0.01140304    1.800    0.444
         6 -11.2827     68.9457     74.2707   1.1204330843e+02   5.3657872429e+01    0.9957402    0.4874724 -41.66  0.003512361    1.902    0.474
         7 -12.4651     39.7206     64.4339   1.1961205771e+02   5.9423766665e+01     2.050126      1.44432  20.62    0.0121454    1.634    0.388
         8 -12.2454     92.0550     17.3761   8.3193150731e+01   5.8975339178e+01    0.9380113    0.4121702  -8.02  0.003257929    4.034    0.752
         9 -13.6195     98.9437      7.2141   7.7055086688e+01   5.8553015329e+01    0.8852268     0.680437  46.60   0.00231175    1.173    0.147
        10 -12.2924    115.0686      6.9471   7.3281018165e+01   5.4945504031e+01     1.557082    0.5496397  50.39  0.004218522    2.345    0.574
        11 -12.2566    145.4399     10.8445   6.9081676570e+01   4.7258169880e+01     1.523463    0.7337845 -51.10  0.004925556    2.677    0.626
        12 -11.6539    132.4353      4.8054   6.9165390760e+01   5.1000773192e+01    0.6566285    0.3594617  45.14  0.001989212    1.697    0.411
        13 -12.3673    112.2234     21.6219   7.9662705541e+01   5.4109446977e+01    0.8533409      0.70432 -77.01  0.002225136    1.593    0.372
        14 -11.9293    130.8814     20.0578   7.4959905934e+01   4.9902056857e+01     1.224709    0.5862579  61.50  0.003992607    1.969    0.492
        15 -11.5951    127.1983     15.4298   7.4011792386e+01   5.1274534479e+01      1.37351    0.3231615  46.24  0.004217605    4.040    0.752
        16 -11.6037    117.2407     15.6723   7.6198993048e+01   5.3602165228e+01    0.3261484    0.3007211 -62.27 0.0006183105    1.273    0.214
        17 -11.6598    123.5743      9.9780   7.2708604819e+01   5.2670913470e+01    0.3787488    0.2898711  49.49 0.0005123413    1.168    0.144
        18 -12.2250     77.7266     29.9759   9.2987223026e+01   6.0163327988e+01     1.041557    0.5937787 -12.82 0.0009532192    2.167    0.539
        19 -12.1498     69.1709     20.0365   9.1598655522e+01   6.3044910301e+01     1.340901    0.5383722  32.04  0.005350844    3.069    0.674
        20 -12.5377     38.0314     46.9139   1.1476325250e+02   6.3118272666e+01     1.061296    0.8085083  63.27  0.005493225    2.177    0.541
        21 -10.8705     54.2693     17.6423   9.6058509817e+01   6.5816605885e+01    0.4442394    0.2930503  -9.92   0.00257803    1.482    0.325
        22 -10.5627     78.5903      7.1325   8.2589935624e+01   6.2773782144e+01    0.6784263    0.4960261   2.13  0.003506491    1.310    0.237
        23  99.0000     39.9705      4.9535   9.5736129091e+01   6.9542341440e+01     1.100294    0.3462038  40.20   0.00439232    3.186    0.686
        24 -11.0040     37.3947     27.8843   1.0776013897e+02   6.6581180654e+01     0.400874    0.3403547 -36.51  0.002040423    1.275    0.216
        25 -12.3132     18.8144     13.5848   1.1020529821e+02   7.0849513560e+01    0.8630304    0.5293441 -40.65  0.005137439    1.443    0.307
        26 -10.5899     26.3159      4.9842   1.0214601636e+02   7.1295963341e+01    0.6587964    0.2407727 -24.87  0.002757188    3.441    0.709
        27 -11.2897     68.8647      4.4939   8.4415038782e+01   6.4881808646e+01    0.7176243    0.3590879  35.42  0.003668021    1.863    0.463
        28 -12.5921     20.2185     42.3974   1.2080554185e+02   6.5674132675e+01    0.5846136    0.4309852 -76.53 0.0005581383    1.912    0.477
        29  -9.5975     15.1151     31.7731   1.1949715567e+02   6.8077706921e+01    0.8908289    0.3174854 -31.90  0.003781794    3.246    0.692
        30 -11.9546     41.5870     17.2338   1.0114853370e+02   6.7695355174e+01    0.8503193    0.5547163 -31.29  0.005236212    1.365    0.267
        31 -12.0045     57.8962      4.1488   8.8071413003e+01   6.6854826170e+01    0.7359768    0.4075033  52.89   0.00394062    2.148    0.534
        32 -11.8073     29.4202     26.1937   1.1064097556e+02   6.7753016960e+01     1.414452    0.4706614 -39.74  0.006345036    2.522    0.604
        33 -11.0234     13.1207     25.4384   1.1810170628e+02   6.9370797457e+01    0.5504817    0.3006461  -7.39  0.002041565    2.182    0.542
        34 -11.5140      3.1630      2.8828   1.1353974633e+02   7.3828356155e+01    0.8441995    0.2878256  17.43  0.004069271    3.651    0.726
        35 -11.3520      9.6043     19.4899   1.1750891105e+02   7.0670064039e+01    0.4332855    0.2546382  19.71  0.002798457    1.892    0.471
        36 -11.9325      3.1182     17.7961   1.2020031547e+02   7.1411734814e+01    0.4765927    0.1695445 -41.72  0.001268896    2.050    0.512
        37 -12.3739      4.4623     10.2519   1.1629119831e+02   7.2580609209e+01    0.7940818    0.4275659 -12.47  0.004823551    1.959    0.490
        38 -12.2095     66.8073     30.7843   9.7149597299e+01   6.1943766077e+01     1.079976    0.5027987  40.00  0.005068602    2.185    0.542
        39 -10.4922    161.9874     39.3631   7.5583515740e+01   3.9833604465e+01    0.5177838     0.252332 -26.46  0.001806059    2.214    0.548
        40 -11.3789     50.5390     10.8410   9.4275073287e+01   6.7269763760e+01    0.5441063    0.3459997  24.54  0.003082371    1.503    0.335
        41  -9.9888    186.3847     20.5290   6.6197136706e+01   3.5933721320e+01    0.7825941    0.5396519 -61.41  0.004040443    1.520    0.342
        42 -10.3923    189.3596      8.8196   6.2548217464e+01   3.6414044954e+01     1.017465    0.2871183  48.32  0.003224088    4.377    0.772
        43 -12.2980    206.5725      5.2445   5.9851026020e+01   3.2530341135e+01    0.8887942    0.4138786  55.75  0.004106649    2.158    0.537
        44 -10.7652    200.2647      6.6004   6.0808134438e+01   3.3934616099e+01    0.6749166    0.2893616 -52.10  0.002162772    2.443    0.591
        45  -9.6745    222.0378     11.6793   6.0053204524e+01   2.8170547894e+01    0.4217093    0.3516789 -67.96  0.002465755    1.054    0.051
        46  -9.6007    217.5025     13.7071   6.0967502733e+01   2.9026176008e+01    0.3065848    0.2554999  40.99  0.001470529    1.463    0.317
        47 -10.7599    212.4632     14.6793   6.1696890332e+01   3.0128807825e+01    0.5774679    0.2900398 -43.56  0.001898402    1.850    0.460
        48 -10.9437    223.5527      2.5155   5.7718565566e+01   2.8763649288e+01    0.7402036    0.3958031 -58.79  0.001697662    1.786    0.440
        49  -9.6350    229.8874      3.2631   5.7400508563e+01   2.7224903277e+01    0.3202351    0.2197143  31.01  0.001737662    2.186    0.543
        50  -9.0357    241.7319      1.5989   5.6160991688e+01   2.4727717825e+01    0.2450324    0.1490825 -84.36  0.001071989    1.547    0.353
        51 -10.9581    247.8967      6.1983   5.6743587747e+01   2.2895830591e+01    0.5993037    0.3420807 -57.77  0.002664193    1.538    0.350
        52 -10.3359    243.1259     12.2349   5.8434043692e+01   2.3288908607e+01    0.4282826    0.2901798 -29.57  0.001748731    1.541    0.351
        53 -10.0377    231.6826     19.4705   6.1066081737e+01   2.5060552019e+01    0.5603256    0.3702836 -45.34  0.002153512    1.362    0.266
        54 -11.1263    233.0002     11.1535   5.8991891266e+01   2.5684874156e+01    0.4016883    0.2771532 -51.41 0.0007191559    1.286    0.222
        55 -10.8205    245.9044     19.8565   5.9931937562e+01   2.1814247196e+01    0.5795344    0.3009234  81.23  0.002914176    2.002    0.500
        56 -10.0987    239.1475     17.5977   5.9977433111e+01   2.3576297264e+01     0.532829    0.2008097 -41.17  0.002015385    2.216    0.549
        57 -10.9179    202.6062     19.5919   6.4009296410e+01   3.1992034158e+01    0.4913029    0.3751093  77.59  0.001604358    1.233    0.189
        58  -9.1872    171.2058      1.3026   6.2461834744e+01   4.1656954962e+01    0.3153522    0.1130328  72.58  0.001220499    2.581    0.613
        59 -10.1909    180.5965      6.6553   6.2927787574e+01   3.8815804943e+01     0.469597    0.3416916 -13.42  0.002582789    1.634    0.388
        60  -9.8366    173.8916      8.6704   6.4322104055e+01   4.0310705021e+01    0.2418092    0.2048653 -69.12 0.0007489385    1.181    0.154
        61  -9.4300    175.0633      4.3434   6.2903773356e+01   4.0419190396e+01    0.3977845     0.225691  67.91  0.001255728    1.567    0.362
        62  -8.6124    238.4258      7.0332   5.7617494183e+01   2.4898178327e+01    0.1777169    0.1132714 -33.70 0.0004371986    1.540    0.351
        63 -12.1627     58.0245     69.5352   1.1440847455e+02   5.6181980692e+01     1.832574    0.7130602 -58.58  0.006694427    3.188    0.686
        64  -8.3270    236.3796      1.2455   5.6458184952e+01   2.5956394313e+01     0.118546   0.08603613  52.90 0.0006942375    1.642    0.391
        65  -8.3276    189.5143      1.4469   6.0501344252e+01   3.7074841901e+01     0.131194    0.1162691  80.42 5.866423e-05    1.050    0.048
        66  -8.3182    145.9971      1.2277   6.5757499006e+01   4.7966571644e+01    0.1643579    0.1000973  67.72            0    1.470    0.320
        67 -11.2682     21.9842     96.2004   1.3300742931e+02   5.3975720593e+01    0.4583077    0.3736067 -23.22  0.002007975    1.452    0.311
        68  -9.1048    183.9806    250.4871   1.1913331246e+02  -1.3101838224e+00    0.1891173   0.09293874  39.31    0.0010409    1.615    0.381
        69 -11.0726     26.0666     85.6602   1.2968596759e+02   5.6049879894e+01    0.5361056    0.4103987  63.62  0.003323813    1.620    0.383
        70 -10.9424     29.0711     82.2107   1.2793346853e+02   5.6571584403e+01    0.4818391    0.3700312 -69.90  0.001014309    1.226    0.184
        71 -11.8550     15.8598    104.9256   1.3629484008e+02   5.2428544642e+01    0.9131725    0.4960735  -3.31   0.00456621    3.056    0.673
        72 -10.6169     15.3479     98.9512   1.3554046634e+02   5.3838810057e+01    0.3585951    0.2392109 -62.21  0.001367944    1.185    0.156
        73 -10.4587    104.7508    116.4896   1.1246975915e+02   3.8331220818e+01    0.5365891    0.3138005  41.07  0.002360588    1.788    0.441
        74  -9.8607     97.8361    114.8141   1.1398123336e+02   3.9956630681e+01    0.3311935    0.2771911  37.52  0.001209131    1.277    0.217
        75  -9.4544     41.5499    118.4708   1.3090289876e+02   4.6989727774e+01    0.2131167    0.1569167  50.28 0.0006831341    1.505    0.335
        76  -9.1710     39.2004    115.4187   1.3106989625e+02   4.7951531326e+01    0.2483932    0.1628925 -83.40 0.0009308202    1.548    0.354
        77  -9.6527     12.9593    117.4279   1.3883443457e+02   4.9753430450e+01    0.2415415    0.2056135  60.66  0.001038908    1.307    0.235
        78  -8.8140     27.8991    115.8308   1.3440057753e+02   4.8926698776e+01    0.1827522    0.1372084 -57.39 0.0002958918    1.197    0.165
        79  -9.9894    133.1680    111.7268   1.0376563327e+02   3.3736572073e+01    0.4454101    0.4297754  86.99   0.00201426    1.068    0.064
        80  -9.8206    133.8660    103.6977   1.0144849021e+02   3.5293192212e+01    0.6377951    0.2559348 -42.69  0.002213449    2.453    0.592
        81 -11.3257     53.2940     87.7935   1.2100374613e+02   5.2802908735e+01     1.046633     0.960134 -86.37   0.00659916    1.211    0.174
        82  -8.9545     93.5732    111.4011   1.1436583455e+02   4.1480624483e+01    0.2602572    0.1963068 -22.10 0.0007261183    1.683    0.406
        83  -9.7495    105.3022    109.7034   1.1064592109e+02   3.9766544724e+01    0.3285782    0.2991888 -49.67  0.001791638    1.050    0.048
        84 -10.7350     67.5696    107.7002   1.2113212044e+02   4.6376555710e+01     0.683986    0.3643472 -39.53  0.002988968    2.125    0.529
        85 -10.2085     73.8979    108.1369   1.1933604860e+02   4.5372385366e+01    0.3306434    0.2995898  55.88 0.0007417103    1.199    0.166
        86  -9.3842     34.6619    109.1808   1.3134729367e+02   4.9863366958e+01    0.2581434    0.2121851   3.28  0.001619934    1.567    0.362
        87  -9.4694    120.5302    109.0605   1.0634315881e+02   3.6943434604e+01    0.2346593    0.2092469  44.86 0.0006879221    1.155    0.134
        88 -10.0531     42.3163     87.2457   1.2454366891e+02   5.4167007823e+01     1.040882    0.3575221 -61.65  0.004060982    2.690    0.628
        89  -8.4661     97.5606    104.0074   1.1138089932e+02   4.2462084827e+01    0.3198245    0.1815604  59.35  0.001260633    2.487    0.598
        90  -9.6585     75.4140    102.3534   1.1752333120e+02   4.6484914371e+01    0.3269479    0.2228876 -63.15 0.0009483864    1.456    0.313
        91  -8.1519    105.7627    102.9712   1.0877641996e+02   4.1183509404e+01    0.1920145    0.1207044 -47.45  0.000472489    1.517    0.341
        92  -8.3688     39.3873    103.2502   1.2883544365e+02   5.0785876239e+01     0.128052   0.08949524 -31.95 0.0005477266    1.667    0.400
        93  -9.4713      8.1351     93.8292   1.3699802542e+02   5.5484081920e+01    0.3135016    0.1754209  51.03   0.00173275    2.233    0.552
        94 -10.9714      4.2936     99.8058   1.3903775599e+02   5.4358987248e+01    0.5176001    0.2911939 -75.90  0.002972779    1.448    0.309
        95  -9.2019      9.6138     99.8316   1.3743189761e+02   5.4025180491e+01    0.2099081      0.17166  69.17 0.0009382709    1.359    0.264
        96 -11.9174      3.5835     80.7974   1.3640679922e+02   5.8671342391e+01    0.5881303    0.3103721 -61.35  0.003440766    1.407    0.289
        97 -10.7872      3.2666     89.2929   1.3785679438e+02   5.6792012994e+01    0.5799854     0.239692 -52.59  0.002939064    1.915    0.478
        98 -11.4705     13.4949     88.9615   1.3449151963e+02   5.6242213692e+01    0.3755239    0.2806892 -61.23 0.0008194437    1.056    0.053
        99  -8.8498    140.8311    101.8038   9.9189998557e+01   3.4154761379e+01    0.2180019    0.1892031 -85.47 0.0009239673    1.336    0.252
       100  -9.3161     81.5431    102.1776   1.1562913991e+02   4.5580210952e+01    0.2435116         0.21  38.78 0.0008864382    1.259    0.206
       101 -10.6977    116.4708     99.6141   1.0490227433e+02   3.9818197822e+01    0.5882469    0.4256589  24.34  0.002711008    1.686    0.407
       102 -11.1181    117.6365     41.0481   8.5661929118e+01   5.0365819591e+01     1.049132    0.6813968 -85.70  0.004123589    3.083    0.676
       103  -9.2756    234.3407    248.3389   1.1013676436e+02  -8.4799482656e+00    0.2267222    0.1592265  63.80  0.001196914    3.610    0.723
       104  -9.8641    141.9754    243.9314   1.2587402869e+02   6.1680919588e+00     0.278995    0.1484405  34.99 0.0009178236    1.715    0.417
       105  -8.8451     37.5017    241.9958   1.4433031700e+02   2.1022972117e+01    0.1562736   0.06553704  75.74 0.0008105123    2.556    0.609
       106  -9.4053    210.9477    240.7094   1.1296747849e+02  -4.1923395601e+00    0.2011213    0.1675665 -30.32  0.001158805    1.458    0.314
       107  -9.1955    113.4920    239.4940   1.3061690625e+02   1.1275502870e+01    0.1203001   0.09583504  54.19 0.0008105949    1.009    0.009
       108 -10.0124     13.5351    237.9190   1.4805840347e+02   2.4319598049e+01    0.2261403    0.1409599 -58.57  0.001576896    2.234    0.552
       109  -9.5033     12.4859    232.4873   1.4796844284e+02   2.5398894418e+01    0.2229784    0.1166566  66.23  0.001089911    1.447    0.309
       110  -8.7560      3.6087    246.1929   1.4998367529e+02   2.3852090019e+01    0.1286017   0.07363852 -76.75 0.0009490107    1.705    0.414
       111  -9.1418     26.2323    212.9656   1.4447864996e+02   2.7666578332e+01    0.1463733   0.07677824 -81.30 0.0008881732    1.669    0.401
       112  -9.7515    123.9990    206.0033   1.2441000393e+02   1.5554757766e+01    0.1854303    0.1624038  54.01            0    1.014    0.014
       113  -8.1309    244.4948    204.5372   1.0107485077e+02  -4.7375568291e+00    0.1248817   0.09883249   6.39 1.344519e-05    1.038    0.036
       114  -8.8844    234.0000    200.9995   1.0222299755e+02  -2.6184147252e+00    0.1964141   0.06685886 -35.14 0.0008058796    2.966    0.663
       115 -10.4839     26.6109    191.6069   1.4289368457e+02   3.1950070163e+01    0.3412838    0.2221194 -81.57  0.001991328    1.301    0.231
       116 -11.1299     17.7935    186.4203   1.4426784123e+02   3.3910883457e+01    0.3638594    0.2961227 -46.30  0.001857185    1.746    0.427
       117  -9.5664     11.8706    184.6797   1.4532667538e+02   3.4826163940e+01    0.2119977    0.1335333 -84.14  0.001260207    1.273    0.214
       118 -10.8546      6.1746    185.7539   1.4651902805e+02   3.5105534968e+01    0.4968874    0.1418508  55.94  0.002225421    3.284    0.695
       119  -9.3326      1.4383    177.7952   1.4695476856e+02   3.7167967081e+01    0.2093166   0.08605797 -84.23  0.001119513    1.986    0.496
       120  -9.4691     38.4470    175.3370   1.3900276558e+02   3.4187862273e+01     0.226731   0.09818994 -67.73 0.0008663743    2.008    0.502
       121  -9.8320    159.1422     96.5076   9.3408138298e+01   3.1013544730e+01     0.397829    0.3586702  84.25  0.001727672    1.223    0.183
       122  -9.5580    187.8890     92.8028   8.6425663319e+01   2.4862412001e+01    0.4984509    0.1926761 -43.23  0.001711658    2.550    0.608
       123 -10.2961    120.6773     91.3829   1.0143452917e+02   4.0688994360e+01    0.4611123    0.3094211  59.02  0.001432002    1.750    0.428
       124 -11.0282    119.7530     86.4858   1.0024519394e+02   4.1888928863e+01    0.8613985    0.3453135  47.73  0.003049777    2.594    0.615
       125 -10.1303     90.1575     78.1678   1.0633376936e+02   4.9384123609e+01    0.5811013    0.3017218  33.76  0.002438673    2.199    0.545
       126  -9.7020    110.6384     58.9231   9.3911698971e+01   4.9052913643e+01    0.5419226    0.2752821  29.40  0.001973246    2.871    0.652
       127 -10.9873    121.6058     56.1195   8.9983154626e+01   4.7125879067e+01    0.8054434    0.6052835  33.73   0.00402844    1.377    0.274
       128 -11.5080     97.3088     61.7512   9.8786462484e+01   5.1263722280e+01     1.120567    0.7133943 -18.06  0.004027349    1.981    0.495
       129 -11.1182    105.6419     53.6739   9.3488536678e+01   5.1005089084e+01    0.6051286    0.3215378  38.50  0.002591137    1.984    0.496
       130 -11.3565    109.7998     66.0408   9.6564476095e+01   4.7953914253e+01    0.9380356      0.60925 -17.30   0.00410568    1.964    0.491
       131 -10.5785    102.1775     70.6959   1.0031278479e+02   4.8622939670e+01    0.5832404    0.4038129 -53.75  0.002366818    1.605    0.377
       132 -12.2692    122.6416     66.8847   9.3327575004e+01   4.5029805495e+01     1.391962      1.08026 -62.68  0.005648371    1.573    0.364
       133 -10.1324    126.7775     63.9032   9.1272266680e+01   4.4628432763e+01    0.4075864     0.253296  29.17 0.0008475329    2.007    0.502
       134 -11.6760    106.7075     86.4148   1.0386816791e+02   4.4567685682e+01     1.049085    0.6481646 -28.47  0.004488487    1.922    0.480
       135 -11.9751    100.5523     78.9324   1.0340669151e+02   4.7304685630e+01     1.008569    0.7908224 -43.63   0.00511197    1.222    0.182
       136  -9.0021    206.4961     92.0253   8.2856169647e+01   2.0602186293e+01    0.2381214    0.1398543 -37.04  0.001035576    1.606    0.377
       137  -9.0263    194.2281     90.0901   8.4513726764e+01   2.3828747486e+01    0.2356009    0.2069545   5.09  0.001029949    1.288    0.223
       138  -9.6569     74.1471     89.0405   1.1452623411e+02   4.9685292087e+01    0.3352136    0.2433427  20.06   0.00172595    1.652    0.395
       139  -9.1702     76.2583     83.6449   1.1235992037e+02   5.0544510724e+01    0.4236044    0.2283058 -66.85  0.001391755    2.846    0.649
       140 -10.2892      9.3720     86.1412   1.3536765341e+02   5.7143273962e+01    0.2738816    0.1478175 -78.25 0.0007249545    1.760    0.432
       141  -9.6411    162.0628     88.0533   9.0372064133e+01   3.1929676941e+01    0.2342523    0.2213063 -63.29 0.0004662079    1.087    0.080
       142  -9.8429    161.4564     82.6451   8.8941537260e+01   3.3072871908e+01    0.5374767    0.4209416 -75.38  0.002514918    1.585    0.369
       143  -9.8090    152.9111     87.3325   9.2208249103e+01   3.4244070086e+01    0.3664207    0.2667137  36.01 0.0009972176    1.495    0.331
       144  -9.3016    238.3016     86.1951   7.6476954434e+01   1.4391209641e+01    0.2244488    0.1731343 -16.78  0.001073097    1.415    0.293
       145  -9.7632    217.7766     79.6235   7.7828503913e+01   2.0022123079e+01    0.7164863    0.3422814 -15.39  0.002131317    4.526    0.779
       146 -11.5433    148.3828     76.0345   8.9884687785e+01   3.7417134988e+01     1.091949    0.6180902  37.15  0.004349674    2.062    0.515
       147 -10.4608    152.6975     67.6821   8.6349428091e+01   3.7843401514e+01    0.8797311    0.4943276  56.69  0.003429282    1.810    0.447
       148 -10.6604    134.4692     80.9729   9.4736437373e+01   3.9744163571e+01    0.6670759     0.428775 -31.53  0.002914549    1.632    0.387
       149 -10.5246    138.5369     75.3088   9.1989857447e+01   3.9872093701e+01    0.5754856    0.2176217 -37.53  0.001775535    2.628    0.620
       150 -11.1555    140.4326     68.3261   8.9343786916e+01   4.0681708500e+01    0.7196052    0.5426018  69.21  0.003158827    1.532    0.347
       151  -9.6141    123.2642     81.0263   9.7650866180e+01   4.2227070589e+01    0.3645186    0.2643239  21.04 0.0009706324    1.722    0.419
       152  -9.1158     63.0069    168.1303   1.3263604120e+02   3.2844844908e+01     0.234226    0.1701311 -75.10  0.000904126    1.250    0.200
       153 -10.2680     36.7875     75.7961   1.2372705105e+02   5.7282144484e+01    0.2502856    0.1866183 -39.84 0.0004377199    1.214    0.176
       154  -8.2857     24.2886     75.3076   1.2809224450e+02   5.8505431711e+01    0.1280018   0.07624148 -39.70 0.0006990514    1.574    0.365
       155  -8.9831    192.8918     74.1330   8.0408321270e+01   2.6853659412e+01    0.2393314    0.1981185 -61.53 0.0006499642    1.262    0.207
       156  -9.4171    215.0367     71.9485   7.6260664661e+01   2.1872483552e+01    0.3330998    0.2082247 -23.82  0.001006659    1.764    0.433
       157 -10.0302      4.7025     70.6545   1.3419970431e+02   6.0840278780e+01    0.5130001    0.2906299  21.92  0.001998256    2.190    0.543
       158 -10.8587     13.2319     56.5752   1.2782146667e+02   6.3333084762e+01    0.2618065    0.2113888  24.54  0.001828379    1.529    0.346
       159 -10.3309     10.7997     63.4829   1.3042982941e+02   6.2032140883e+01    0.5644677     0.238466 -65.04  0.002815657    2.006    0.502
       160  -9.2524     21.6113     63.3076   1.2622773727e+02   6.1313812252e+01    0.3007984    0.1476112 -46.50 0.0007326296    1.635    0.388
       161 -11.5593     16.0557     61.4412   1.2791666739e+02   6.2119131450e+01    0.5060014     0.275218  19.70  0.001489551    2.218    0.549
       162  -9.3665     20.3204     58.2952   1.2543428184e+02   6.2467922096e+01    0.1890942    0.1351177 -36.57 0.0004330905    1.231    0.188
       163 -10.5336    250.1875     67.3593   7.0479682410e+01   1.4667664845e+01    0.5779877    0.1919544 -28.95  0.002031942    3.233    0.691
       164  -8.7617    202.4155     69.3671   7.7522396359e+01   2.5297463074e+01    0.2799712    0.1425243 -16.54 0.0009546183    3.187    0.686
       165 -10.3102    157.9264     50.1558   7.9761076687e+01   3.9339588298e+01    0.6520957     0.504809  72.47  0.002740034    1.369    0.269
       166 -11.6435    140.1347     51.7673   8.4022784091e+01   4.3483090496e+01     1.017452    0.3875785  47.63   0.00197112    2.562    0.610
       167  -9.8732    152.8052     56.2140   8.2723185729e+01   3.9692435863e+01    0.5174702    0.3628953   5.88  0.001825777    1.977    0.494
       168 -10.7419    150.2429     51.6684   8.1800085871e+01   4.1025561938e+01    0.8021369    0.4584574 -11.82  0.003084772    2.587    0.614
       169 -10.8574    164.7871     56.8960   8.0528156220e+01   3.6601833282e+01    0.6502019    0.4622029  31.56  0.002390123    1.657    0.396
       170 -10.5786    178.1874     60.3742   7.9081810547e+01   3.2701052758e+01    0.7819252     0.491593   9.52  0.002935608    2.814    0.645
       171 -11.6231    174.1302     57.3508   7.8918377523e+01   3.4185719301e+01     1.331991    0.6902926 -23.00  0.002194456    2.330    0.571
       172  -8.9207    188.9272     64.7308   7.8462372123e+01   2.9339970276e+01    0.2685886    0.2020723  89.63 0.0008221808    1.558    0.358
       173 -10.1120    132.4476     68.4393   9.1319621610e+01   4.2528561983e+01    0.4966711    0.3408663  74.55  0.002142914    2.017    0.504
       174  -9.2245     27.7265    167.6124   1.4061995944e+02   3.7016782611e+01    0.2668298    0.1084561 -62.19  0.001313658    2.175    0.540
       175  -9.2153    218.9907     60.7420   7.2794706271e+01   2.2636137111e+01    0.3042824    0.2533441  35.02  0.001028718    1.418    0.295
       176  -9.6581    222.3592     57.2188   7.1442088220e+01   2.2355809892e+01    0.3514821    0.2876409  82.32  0.001356537    1.268    0.211
       177 -10.3031    201.4182     57.5899   7.4476563364e+01   2.7340099592e+01    0.5196483    0.3665382   6.83  0.002355029    2.087    0.521
       178  -9.6406    158.6340     58.2090   8.2151376173e+01   3.7933587054e+01    0.4181448     0.289079  -5.17  0.001596588    1.948    0.487
       179 -10.0753      3.1969     57.6079   1.3207285404e+02   6.3711269896e+01    0.3223085       0.2402 -79.00  0.002182383    1.431    0.301
       180  -9.2598    250.6244     57.5243   6.8139024353e+01   1.5966020249e+01    0.2332507    0.1203478 -27.96  0.001067513    1.965    0.491
       181  -8.9407    236.2222     55.0209   6.9176323114e+01   1.9477685917e+01     0.186527    0.1039877 -33.40 0.0008738596    1.669    0.401
       182 -11.2738     89.1304     34.1520   9.1026631300e+01   5.7406650306e+01    0.7370958    0.5681791  29.75  0.003057938    1.250    0.200
       183  -8.6862    192.8405     53.8626   7.4757764270e+01   3.0012290603e+01    0.2031221    0.1628812 -71.26 0.0003964886    1.325    0.245
       184  -9.8877    186.4662     53.2823   7.5607912665e+01   3.1692366137e+01    0.3135585    0.2266048  15.95  0.001091652    1.907    0.475
       185  -9.3679    188.8202     49.2367   7.4073469677e+01   3.1684442106e+01    0.3358944    0.2295851 -52.32 0.0008241727    1.508    0.337
       186 -11.2204     25.8045     53.0649   1.2175387996e+02   6.3096586443e+01    0.3794403    0.2336461 -16.21 0.0008596778    1.901    0.474
       187 -10.1964     28.6303     49.2029   1.1940513660e+02   6.3616747849e+01      0.21623    0.1607351 -40.19 0.0003177546    1.083    0.077
       188 -10.3009    114.7143     51.1281   9.0060343518e+01   4.9477878514e+01     0.450878     0.368253 -24.57   0.00236714    1.218    0.179
       189  -9.6269      7.5351     49.9498   1.2845863621e+02   6.5056310341e+01    0.3408202    0.2713846  59.59  0.002336262    1.775    0.437
       190  -9.1418    155.1240     34.0857   7.5128985820e+01   4.2252486125e+01    0.3277265    0.2333727  -1.12 0.0007703969    1.762    0.432
       191  -8.7016    125.7675     28.0886   7.8969148282e+01   5.0202825875e+01    0.2416736    0.1367023 -37.83 0.0003149766    1.867    0.464
       192  -9.4851    129.7517     46.4147   8.4598381717e+01   4.6774778430e+01    0.3128587    0.2396965 -13.41 0.0007137483    1.426    0.299
       193 -10.3787    130.4330     40.4390   8.2348306081e+01   4.7477320073e+01    0.4543157    0.3331942 -38.07  0.001137688    1.414    0.293
       194 -10.8331    135.1801     34.2241   7.9111849123e+01   4.7174277610e+01    0.4071402    0.3101492  36.66 0.0004621198    1.316    0.240
       195 -11.4884    141.0154     40.3826   7.9996298612e+01   4.4929152812e+01    0.7612054    0.6241569  54.33    0.0040715    1.172    0.147
       196 -10.4457    148.3698     34.9565   7.6681533857e+01   4.3833532311e+01    0.6609093    0.2777494  57.98  0.002584832    2.192    0.544
       197 -10.1624    124.7794     37.3354   8.2559791470e+01   4.9241056646e+01    0.3407027    0.2902767 -16.90  0.001092507    1.201    0.167
       198  -9.8154    125.3137     32.9616   8.0850261800e+01   4.9697675401e+01    0.3013808    0.2313908  -4.74 0.0009385117    1.433    0.302
       199  -8.8368    212.9559     50.4695   7.0934612077e+01   2.5553572845e+01    0.2055398    0.1356955  64.08 0.0005307379    1.532    0.347
       200  -8.9811    183.1940     50.1948   7.5247818597e+01   3.2963308709e+01     0.207952    0.1678715 -67.15 0.0008138323    1.313    0.239
       201 -10.8277    106.9321     30.0491   8.4288550125e+01   5.4263124726e+01     1.285404    0.4146861  54.48  0.004594044    3.020    0.669
       202 -10.0227    220.7366     45.1698   6.8572928738e+01   2.4420319870e+01    0.4305337    0.2662648 -46.52  0.002130261    1.506    0.336
       203  -9.1293      9.1935    167.3485   1.4463312917e+02   3.8766862734e+01    0.1654542    0.1480037  10.03  0.001189069    1.649    0.394
       204  -9.7856     13.6671    165.3799   1.4351456245e+02   3.8816093871e+01    0.2507923    0.1770445  78.47  0.001685387    1.172    0.147
       205 -10.5002      2.5268    159.8422   1.4550716725e+02   4.0937657104e+01    0.5541036    0.2012495 -83.72  0.002661453    2.370    0.578
       206 -10.7352     21.7056    138.4876   1.3903698819e+02   4.4190498860e+01    0.3388114     0.223639 -28.18  0.001884225    2.290    0.563
       207 -10.4203     11.8174     41.4804   1.2422004860e+02   6.6477164889e+01    0.3972748    0.2486389 -27.24  0.002067063    1.506    0.336
       208 -10.4955     16.6942    158.8288   1.4228439542e+02   4.0003416975e+01     0.389434    0.2739768 -44.34  0.002465248    1.849    0.459
       209 -12.0242     19.2252    147.7952   1.4064522571e+02   4.2271467773e+01    0.6858642    0.5362337 -61.92  0.003056111    1.295    0.228
       210 -10.5590     34.9404    150.0308   1.3708946311e+02   4.0274887979e+01    0.3007053    0.2683771  70.34   0.00122269    1.172    0.147
       211 -10.8527     39.0494    146.1971   1.3560737229e+02   4.0735412253e+01    0.4626587    0.3168837 -77.56  0.001574211    1.246    0.198
       212  -9.8254     67.0837    148.3505   1.2883952019e+02   3.6855958492e+01    0.2691075    0.1862816 -76.46  0.001000067    1.370    0.270
       213  -9.2361     60.9219    147.4745   1.3026858225e+02   3.7874651961e+01    0.2205326    0.1558829 -47.94   0.00073081    1.545    0.353
       214  -9.7963      1.4504    144.1675   1.4451975027e+02   4.4482089858e+01    0.4498018   0.08198627 -74.07  0.001616109    3.977    0.749
       215 -10.4596     24.3206     34.3988   1.1620581647e+02   6.6821636770e+01    0.2524243    0.2194827 -76.79   0.00113551    1.687    0.407
       216  -9.7150      5.2624    147.1734   1.4388478636e+02   4.3535033577e+01     0.259465    0.1463768 -64.89   0.00157235    1.520    0.342
       217 -11.3772      4.5324     27.0708   1.2292691258e+02   6.9673606366e+01    0.4362607    0.2948765  17.33   0.00302525    1.723    0.420
       218 -10.0336      6.7605    142.6715   1.4313434411e+02   4.4435011915e+01     0.365418    0.2208095  65.22  0.002236308    1.623    0.384
       219  -9.0400     10.1474    157.5827   1.4364906076e+02   4.0834251092e+01    0.2355054    0.1116347 -61.38 0.0009217062    1.905    0.475
       220  -9.0258     80.8930    139.6399   1.2380154633e+02   3.6924072241e+01    0.2486401    0.1747955 -52.33 0.0006790267    1.388    0.279
       221  -9.7685     48.7758    138.6109   1.3208042533e+02   4.1438889562e+01    0.4766378    0.2425801  56.83  0.002205355    2.311    0.567
       222  -9.9682     54.6307    137.5884   1.3038515624e+02   4.0987758920e+01    0.2800047    0.2097889  86.93  0.001102741    1.323    0.244
       223  -9.4064    214.1657     43.2039   6.8875677379e+01   2.6257180795e+01    0.4646051    0.2873273  14.76  0.001871183    3.043    0.671
       224  -9.0589    207.5151     45.8374   7.0431782935e+01   2.7516849221e+01    0.4470406    0.2636902  74.79  0.001535849    1.823    0.451
       225  -9.1500    206.1389     42.8234   6.9806771095e+01   2.8262192676e+01    0.4036296    0.1598249  49.45  0.001505417    2.799    0.643
       226  -8.5252    200.3815     45.7107   7.1374440176e+01   2.9290665746e+01     0.189995    0.1373939 -22.42 0.0008163358    1.525    0.344
       227 -11.7843    164.4014     62.7541   8.2393876781e+01   3.5773227712e+01    0.9422507    0.7517849  46.75  0.004738412    1.263    0.208
       228 -11.2146     55.7824    129.0048   1.2867880959e+02   4.2878847250e+01    0.8708722    0.2595543 -58.45  0.003072609    2.751    0.637
       229  -9.9407    230.6235     44.5840   6.7267329399e+01   2.2184857872e+01    0.4239482    0.2131494  55.07  0.001932337    2.116    0.527
       230  -9.2721    249.3998     42.9421   6.4890779347e+01   1.8198422163e+01    0.3708801    0.2028969 -24.14   0.00176773    2.054    0.513
       231  -9.1738    156.5144     44.0426   7.8086052120e+01   4.0573367098e+01    0.2053835    0.1458289 -27.68 0.0003449084    1.470    0.320
       232  -9.5082    126.0334     49.2775   8.6494062620e+01   4.7209651125e+01    0.4612903    0.1759473 -42.89  0.001153892    2.852    0.649
       233  -9.4924    196.5146     42.3521   7.0990518956e+01   3.0708019503e+01    0.2377792     0.229575 -83.52 0.0005767365    1.046    0.044
       234  -9.9861    190.8835     40.3345   7.1227584046e+01   3.2387369753e+01    0.3034102    0.2253936 -13.85 0.0005909311    1.599    0.375
       235  -9.9370    192.7281     36.8378   6.9977616182e+01   3.2380868349e+01     0.384901    0.2915383 -87.21  0.002005717    1.383    0.277
       236 -10.3240    180.5790     38.3768   7.2198711239e+01   3.5247512434e+01    0.5316565    0.3484965 -36.53  0.002035594    1.522    0.343
       237 -10.3654      3.7697    135.1571   1.4316591559e+02   4.6346012293e+01    0.3931829    0.2703643  66.55  0.001813908    1.424    0.298
       238  -9.9712    194.6551     30.6697   6.7990592655e+01   3.2672317390e+01    0.3586262     0.287457   6.69  0.001301213    1.592    0.372
       239  -8.9585    201.8528     26.3432   6.5907062898e+01   3.1401462170e+01    0.3927479    0.1709259 -52.79  0.001549648    2.563    0.610
       240  -9.4379    199.2648     31.5607   6.7643300545e+01   3.1412809458e+01    0.3188803    0.2281622  54.69  0.001667274    1.427    0.299
       241 -11.1327    203.4282     37.0979   6.8617280711e+01   2.9682502648e+01    0.5647886    0.4603112  32.89  0.002106877    1.477    0.323
       242 -10.5865    210.4337     33.0516   6.6672500881e+01   2.8477448032e+01    0.4506851    0.3998581  -0.74 0.0003604143    1.369    0.270
       243  -9.9314     12.1716    125.3578   1.4000030185e+02   4.7983436571e+01    0.2702125    0.2516752  22.39  0.001285463    1.402    0.287
       244  -9.7410    235.2192     39.1235   6.5434844439e+01   2.1849275541e+01    0.5002615    0.2064995 -45.68  0.002133651    2.179    0.541
       245 -10.5723    246.3142     33.1228   6.2923845073e+01   2.0127843603e+01    0.4888678    0.2453802  55.85 0.0005685841    2.211    0.548
       246 -10.8852    237.1060     32.4324   6.3640553886e+01   2.2270031878e+01    0.4638374     0.372319  74.38  0.002795754    1.271    0.213
       247  -9.5481    242.2121     31.5655   6.2946157976e+01   2.1229593516e+01    0.2845653    0.1928217  54.89 0.0009778707    1.674    0.403
       248  -8.4040    228.4968     39.4221   6.6231058330e+01   2.3358323524e+01    0.1322519    0.1230467 -68.94 0.0001181677    1.062    0.059
       249  -8.7006    173.1969     38.9181   7.3531169048e+01   3.7049926062e+01     0.227712    0.1828748 -68.66  0.001150743    1.338    0.252
       250  -9.5830    168.6068     36.5657   7.3568686971e+01   3.8522796790e+01    0.3419798    0.2608905 -51.67  0.001142423    1.371    0.271
       251  -8.5488    221.8493     36.1033   6.6141381672e+01   2.5347124703e+01    0.1802743    0.1616505  38.62 0.0009844791    1.330    0.248
       252  -9.9668      9.0966    134.8520   1.4181414768e+02   4.6035168574e+01    0.2171209    0.1969987  20.53 0.0006777297    1.473    0.321
       253  -9.9444    185.7164     14.0039   6.4422392528e+01   3.6801719760e+01    0.3730631    0.1799946  67.37  0.001670693    1.883    0.469
       254 -10.6567     15.4809    132.4859   1.3994501952e+02   4.6089726909e+01    0.3155646    0.2832457 -76.39  0.001506498    1.176    0.150
       255 -11.1274    176.8019     29.6718   7.0185954862e+01   3.7301562149e+01    0.4875695    0.4217453 -25.72  0.001234033    1.240    0.194
       256 -10.7785    183.4861     27.3688   6.8550886390e+01   3.5881895461e+01    0.4073391    0.3480727  42.42 0.0008469174    1.264    0.209
       257 -10.7001     12.8645    129.8622   1.4032746678e+02   4.6895701265e+01    0.3887188     0.299853 -61.77  0.001594991    1.229    0.187
       258 -10.6526     72.1567    128.7453   1.2412448762e+02   4.0775215715e+01    0.3698923    0.2963047  56.69  0.001476458    1.317    0.241
       259  -9.7044     77.2536     41.4394   9.7803783496e+01   5.8497850024e+01    0.2651723    0.2356528  51.33  0.001243458    1.371    0.270
       260 -10.7886    226.8235     28.6461   6.3751896746e+01   2.5104796677e+01    0.5678988    0.2811366 -46.97  0.001939679    1.852    0.460
       261  -9.3136    192.9154     25.0680   6.6651784425e+01   3.3776754524e+01    0.3674707    0.2085244  25.56  0.001184774    2.987    0.665
       262  -8.8224    219.8529     25.2840   6.3631785120e+01   2.7153474763e+01    0.2127811    0.1583355 -66.95 0.0003841277    1.277    0.217
       263  -9.9744     74.6504    125.0846   1.2272416485e+02   4.1282347884e+01    0.3021889    0.2087308  45.50   0.00102907    1.541    0.351
       264  -9.4452     45.8305    132.1699   1.3189726284e+02   4.3291165692e+01    0.2514997    0.1550017 -62.46   0.00135167    1.396    0.283
       265 -10.1930    214.0484     24.9698   6.4164666880e+01   2.8582061993e+01     0.294352    0.2079033 -60.20 0.0007456531    1.363    0.266
       266  -9.7469    216.2479     21.1215   6.2952728053e+01   2.8500138467e+01    0.4267128    0.2617294  80.33   0.00118995    1.612    0.380
       267  -8.8657    209.7568     18.6003   6.2977808008e+01   3.0352657400e+01    0.1932726    0.1583066 -89.61 0.0003898217    1.131    0.116
       268  -9.1177     95.4862    130.5723   1.1815055314e+02   3.6713431107e+01    0.2981388    0.1361923 -54.75 0.0009505601    2.079    0.519
       269 -10.8309     65.1130    130.5335   1.2638602894e+02   4.1322199087e+01    0.3108071    0.2838575  42.57   0.00127278    1.226    0.185
       270 -10.8851     67.0356    123.5199   1.2455271029e+02   4.2724953253e+01    0.7980909    0.3333697 -42.24    0.0029555    3.054    0.673
       271 -10.0490     65.5458    114.7752   1.2324228790e+02   4.4993373469e+01    0.5967999    0.2075099  42.94  0.002231796    3.153    0.683
       272 -10.3620     38.0223    127.7208   1.3334579338e+02   4.5171590267e+01    0.4346739    0.2065903 -37.66  0.001805091    3.221    0.690
       273  -8.1876     19.9404    119.5147   1.3716923976e+02   4.8737485430e+01    0.4211093    0.2387109  82.80  0.002202136    1.968    0.492
       274  -9.1592     28.0730    120.5650   1.3504899540e+02   4.7803156709e+01    0.5882238    0.2150188 -77.08 0.0007614321    3.045    0.672
       275  -9.6643    241.1744     23.6503   6.1201789133e+01   2.2419654533e+01    0.3095112     0.183649 -61.45 0.0009859512    1.617    0.382
       276 -10.4444     25.8268    128.1677   1.3670771617e+02   4.6225372377e+01    0.3506451    0.3468561  68.61   0.00255606    1.268    0.212
       277 -10.8565     48.5403    125.5637   1.3010599227e+02   4.4549261981e+01    0.3676831     0.274138 -85.02  0.002117297    1.298    0.230
       278 -10.2600     21.9868    127.9994   1.3771157589e+02   4.6596382035e+01    0.3786096      0.21848  75.62  0.002013315    1.929    0.482
       279 -10.0946     97.9878     22.1200   8.3524975443e+01   5.7180686251e+01     0.225022    0.2110033  17.65   0.00049448    1.086    0.079
       280  -9.8146     92.1541    120.9176   1.1697055765e+02   3.9521443315e+01    0.4284977    0.2327639 -38.35  0.001756658    2.203    0.546
       281  -9.4147    197.8561     16.8237   6.3796013994e+01   3.3471051619e+01    0.2574995    0.1729666  69.67 0.0007689971    1.393    0.282
       282  -9.6273    177.9130     19.9017   6.7125021589e+01   3.8143298941e+01    0.2906598    0.2438355 -46.53  0.001661801    1.215    0.177
       283  -8.9287     86.9537     15.8407   8.4001427675e+01   6.0190911091e+01    0.2332435    0.1529945   1.03  0.001225103    1.662    0.398
       284  -9.1709    178.8228     14.9214   6.5540699529e+01   3.8443368695e+01    0.2061242    0.1684572  47.17 0.0004123538    1.277    0.217
       285  -8.7413     61.4738     15.6499   9.2357681462e+01   6.4920956653e+01    0.1214305    0.1041722   9.13 0.0002063257    1.079    0.073
       286  -9.6203     17.6213    123.0616   1.3826434518e+02   4.8098464684e+01    0.4135046    0.1784308 -80.58  0.001817157    2.230    0.552
       287  -9.8168     17.8198     82.0676   1.3178090411e+02   5.7494461672e+01    0.6086314    0.3340659 -22.41  0.003136686    2.472    0.595
       288  -9.8063     36.6630     98.1329   1.2870203515e+02   5.2244122215e+01    0.4887039    0.3140071 -12.63   0.00252008    2.290    0.563
       289 -10.0729     23.8273    108.3202   1.3443715355e+02   5.1026001055e+01    0.8577905    0.4219769  -0.49  0.003592893    4.135    0.758
       290 -11.0996     47.9019    101.1448   1.2576402798e+02   5.0369529912e+01    0.9308131    0.4326807 -50.80  0.003312767    1.859    0.462
       291 -10.3459     28.1008    102.0954   1.3211743145e+02   5.2111364793e+01    0.3958554    0.3133292  64.60  0.001969245    1.442    0.307
       292 -11.4165      4.9940    117.7027   1.4105187977e+02   5.0235409342e+01    0.7823279    0.2405314 -67.39  0.003509983    2.316    0.568
       293 -11.5058     35.6735     91.5442   1.2769211741e+02   5.3855439187e+01    0.8893209    0.6532709  34.97  0.005366974    1.598    0.374
