#   1 NUMBER                 Running object number                                     
#   2 MAG_AUTO               Kron-like elliptical aperture magnitude                    [mag]
#   3 X_IMAGE                Object position along x                                    [pixel]
#   4 Y_IMAGE                Object position along y                                    [pixel]
#   5 X_WORLD                Barycenter position along world x axis                     [deg]
#   6 Y_WORLD                Barycenter position along world y axis                     [deg]
#   7 A_WORLD                Profile RMS along major axis (world units)                 [deg]
#   8 B_WORLD                Profile RMS along minor axis (world units)                 [deg]
#   9 THETA_WORLD            Position angle (CCW/world-x)                               [deg]
#  10 FWHM_WORLD             FWHM assuming a gaussian core                              [deg]
#  11 ELONGATION             A_IMAGE/B_IMAGE                                           
#  12 ELLIPTICITY            1 - B_IMAGE/A_IMAGE                                       
         1 -14.5876    239.0307     72.3721   4.1861047591e+00   1.7993737662e+01      1.90941  0.006464385 -34.93   0.00444639    8.470    0.882
         2 -15.0694    248.1136     55.5893   3.5982782316e+02   1.8561939263e+01     3.803128    0.3749605 -37.32   0.01275774    4.349    0.770
         3 -13.0392      2.8153     50.9271   7.1352748589e+01   6.9055766454e+01    0.8076113    0.2017239 -67.50  0.002917803    3.049    0.672
         4 -14.6293    248.5388     20.9866   3.5259182276e+02   2.2521340534e+01     2.653606    0.4701577 -33.80   0.01061297    3.452    0.710
         5 -12.8467     12.2498     23.9485   5.5899231488e+01   7.4830487186e+01    0.6178706    0.2727527 -33.73  0.002665323    2.442    0.590
         6 -12.7617      6.1945     11.9074   5.5578192655e+01   7.7832141480e+01    0.8415589    0.3614492 -33.18  0.003783958    2.420    0.587
         7 -11.2661     19.8246     14.6370   4.4216535880e+01   7.5894273824e+01    0.2924211    0.1794205 -21.30  0.001484897    1.849    0.459
         8 -12.3939     15.3088      7.6442   4.3637417312e+01   7.7721688261e+01      0.48706    0.2763663 -15.29  0.002324825    2.304    0.566
         9 -12.1228     25.9061      4.0113   3.1482986760e+01   7.6763910639e+01    0.3853771    0.2476021  12.11  0.002017837    1.822    0.451
        10 -11.9866     10.1684      2.2818   4.4894517656e+01   7.9267370911e+01    0.5284904    0.2125611  21.33  0.002290494    2.739    0.635
        11 -10.4377     41.8047      2.3984   1.9603514222e+01   7.3969497965e+01    0.1999241    0.1025988  42.79 0.0009523553    1.736    0.424
        12  -9.6552    222.4832    104.5076   1.3065498103e+01   1.6353035448e+01    0.1286443    0.1083136 -36.80 -2.263212e-05    1.014    0.014
        13 -12.7706    248.2966    215.6015   2.9923742172e+01  -2.4014481851e+00    0.9503711    0.2811435 -25.09  0.003860011    4.433    0.774
        14 -11.1944    246.9937    206.0134   2.8613774444e+01  -1.1517596764e+00    0.2388936    0.1296287 -35.41   0.00122727    1.782    0.439
        15 -11.6302    240.1985    239.4429   3.4689880550e+01  -4.2411727339e+00      0.26406    0.1400437 -21.81  0.001208097    1.592    0.372
        16 -11.0026    243.5086    235.5176   3.3619974455e+01  -4.1371647852e+00    0.2313106     0.124769 -17.77  0.001088498    1.539    0.350
        17 -11.0580    244.9988    230.5108   3.2664092674e+01  -3.7383853867e+00    0.2647088    0.1266812 -32.96  0.001175229    1.952    0.488
        18 -11.5863    248.9349    225.3953   3.1316287560e+01  -3.5611866884e+00    0.3680921    0.1918734 -26.76  0.001900592    1.604    0.377
        19 -11.7079    247.1447    239.5308   3.3647155474e+01  -4.9062449999e+00    0.3855212    0.1895923 -15.98  0.001742047    1.790    0.441
        20 -11.3661    249.8909    232.9922   3.2295281958e+01  -4.4736945564e+00    0.3011023    0.1820333 -12.76  0.001561032    1.259    0.206
        21 -12.3365    242.8582    246.2122   3.5236592519e+01  -5.2032481256e+00     0.501992    0.2341632 -20.35  0.003104384    1.896    0.473
        22 -11.1071    248.9931    250.0234   3.4839999849e+01  -6.1449177559e+00    0.3189214    0.1341541  19.36  0.002040262    2.072    0.517
        23 -10.8988    248.8566    245.1509   3.4184698370e+01  -5.6425749628e+00    0.2833718    0.1481319 -20.61  0.002038263    1.565    0.361
        24 -12.3041    234.1743    244.6769   3.6365820906e+01  -4.2225827658e+00    0.4315821    0.2006307 -21.10  0.002239004    1.985    0.496
        25 -11.5607    225.5212    248.4843   3.8272568918e+01  -3.7903781744e+00    0.2798075    0.1614797 -22.47  0.001923664    1.545    0.353
        26 -12.2839    225.9753    241.4365   3.7218733423e+01  -3.0602241066e+00    0.3252525    0.1603456 -26.36  0.001949474    1.853    0.460
        27 -12.3292    212.0434    248.1663   4.0457835576e+01  -2.3944953882e+00    0.4123153    0.2276699  -0.41  0.002648934    1.722    0.419
        28  -9.7917    183.3562    250.3081   4.5808514446e+01   4.5320148775e-01    0.1178067   0.06814331   2.44 0.0007042202    1.726    0.421
        29 -10.6612     50.1547    250.0878   7.3475779845e+01   1.6265727961e+01    0.2871172    0.1191797  33.80  0.001517656    1.706    0.414
        30 -11.5218     36.8192    248.6655   7.6295280747e+01   1.7919770071e+01     0.483853    0.1591833  43.72  0.002411292    2.044    0.511
        31 -12.3476     25.8800    228.7442   7.7855563853e+01   2.2790058765e+01    0.4920075    0.2445258  63.04    0.0026897    1.831    0.454
        32 -12.4749      6.6982    236.3985   8.2401137345e+01   2.3067208133e+01    0.6471524    0.2423747  46.30  0.003492232    1.793    0.442
        33 -12.2463      4.9795    228.2286   8.2579212170e+01   2.4806799090e+01    0.5434512    0.2419358  53.32  0.002121684    1.668    0.400
        34 -11.7803      2.3449    221.0658   8.3001798861e+01   2.6468146373e+01    0.4108819    0.2093766  79.48   0.00182494    1.852    0.460
        35 -11.5321      3.5758    250.1408   8.3364475652e+01   2.0786496578e+01    0.3694576    0.1954754  23.49  0.001945587    1.778    0.437
        36 -12.6079      3.3625    243.1488   8.3266596598e+01   2.2082516969e+01    0.5700666    0.2757072  60.22  0.003464535    1.637    0.389
        37 -11.6776    231.5324    235.0190   3.5409795078e+01  -2.9025755867e+00    0.3207116    0.1566924 -24.70  0.001800131    1.827    0.453
        38 -12.5743     20.2589    249.0338   7.9854756076e+01   1.9481091458e+01    0.8585504    0.2349638  27.26   0.00383294    2.809    0.644
        39 -10.5315     32.9768    236.4575   7.6583509629e+01   2.0578294910e+01    0.2570451   0.07300337  56.43  0.001027766    3.348    0.701
        40 -11.1006    206.8788    234.4016   3.9421948344e+01  -2.0970936378e-01    0.2242373    0.1189731 -18.00  0.001333593    1.920    0.479
        41 -10.2306    177.0000    234.9969   4.4963487735e+01   3.1994709045e+00    0.1689329   0.06347141 -42.89 0.0008127466    3.014    0.668
        42 -12.2642    236.7445    228.6664   3.3658484119e+01  -2.7138547509e+00    0.3392085    0.1732483 -28.71   0.00206553    1.729    0.422
        43 -12.0498     29.5283    240.6192   7.7536411997e+01   2.0135536300e+01    0.4357658    0.2073921  55.32  0.002074145    1.736    0.424
        44 -11.3952    217.4999    232.0096   3.7263167996e+01  -1.0854290850e+00    0.2598701   0.09355954 -36.19   0.00136411    2.735    0.634
        45 -14.7207      4.9169    170.7509   8.0802978134e+01   3.7566603569e+01     2.066907    0.6052572  75.05   0.00713726    3.736    0.732
        46 -10.6788    229.5355    227.2640   3.4589975238e+01  -1.8082244376e+00    0.2408765   0.08738118 -33.07  0.001291837    2.544    0.607
        47 -10.1709    223.4191    225.7812   3.5360977869e+01  -9.7972796908e-01    0.1528584   0.08191973 -20.77 0.0008565521    1.702    0.412
        48  -9.4947    225.4775    230.4971   3.5724074561e+01  -1.7587546777e+00    0.1098516    0.0781971  -0.31 2.375886e-05    1.019    0.018
        49 -12.1700    239.2523    219.6842   3.1917732428e+01  -1.9417468368e+00    0.3270969    0.1470767 -26.24   0.00167375    1.954    0.488
        50 -10.7846    227.5237    219.5504   3.3748496930e+01  -6.7486300496e-01    0.2140289   0.09133905 -33.80  0.001210238    2.168    0.539
        51 -10.7307     24.1528    217.2418   7.7758067805e+01   2.5301934294e+01     0.257307    0.1103167  60.68  0.001244502    2.114    0.527
        52 -10.7487    233.2842    212.2156   3.1690322541e+01  -4.1507040046e-01    0.2409972    0.1232662 -26.25   0.00143542    1.698    0.411
        53 -11.6433    240.0327    207.0827   2.9830594596e+01  -5.3077392434e-01    0.2859523    0.1321158 -34.43  0.001697358    1.955    0.488
        54 -13.2827     12.2190    205.6314   8.0193309773e+01   2.8885814942e+01    0.6459372    0.3028923  50.39   0.00338044    1.654    0.395
        55  -9.7572    225.2850    206.3625   3.2040528841e+01   1.2222920681e+00     0.118989   0.06975432  -6.97 0.0007020322    1.685    0.407
        56 -10.0168    235.4645    202.9355   2.9867661438e+01   4.8645224478e-01    0.1641187   0.09048421 -30.98 0.0009768869    1.592    0.372
        57 -10.7107    250.5234    200.3294   2.7185200479e+01  -8.5278718134e-01    0.2878064   0.08563703 -35.76  0.001394796    2.905    0.656
        58 -12.0832    246.4799    193.1322   2.6596684826e+01   4.6262704622e-01    0.4158289      0.17879 -43.19  0.002133135    2.914    0.657
        59 -11.5579    243.2358    199.6681   2.8151188430e+01   2.0135191619e-02    0.3629338    0.1208338 -33.03  0.001815728    2.583    0.613
        60 -12.2115      3.4957    197.1771   8.2093234889e+01   3.1484306869e+01    0.5541736    0.2620401  73.71  0.002774491    1.918    0.479
        61 -13.1433     13.8124    218.3506   8.0262495318e+01   2.6036652612e+01      1.14698    0.1670953  48.43  0.004197978    3.618    0.724
        62 -10.5372    237.4639    197.5429   2.8677602841e+01   9.3500530636e-01    0.2203896   0.09109188 -34.36  0.001127949    2.121    0.528
        63 -13.9780      4.7630    187.1181   8.1445731017e+01   3.3677806235e+01     1.711877    0.4346271  79.81  0.005584736    4.608    0.783
        64 -10.9938    249.4981    184.4376   2.4703060630e+01   1.2016651713e+00    0.2091554    0.1285619 -31.95  0.001096762    1.415    0.293
        65 -11.1207    241.8645    180.8475   2.5196039199e+01   2.5564088626e+00    0.2534961    0.1387349 -41.54  0.001490106    1.971    0.493
        66 -10.4086    237.6313    187.1468   2.6910148490e+01   2.2460362967e+00     0.167337   0.08474223 -24.91  0.000953264    1.738    0.425
        67  -9.6143    235.5123    180.5062   2.6087911588e+01   3.3784719874e+00    0.1159981   0.08981753 -12.00 0.0008105262    1.007    0.007
        68 -10.8656    248.1436    175.8900   2.3428949834e+01   2.4441596819e+00    0.1631078    0.1341651 -27.56  0.001220228    1.319    0.242
        69 -11.9689     12.1695    248.8619   8.1552945703e+01   2.0259284129e+01    0.4782138    0.1714211  38.10  0.001744164    1.795    0.443
        70 -11.2900    246.9298    168.4002   2.2284081124e+01   3.5646952688e+00    0.2142348     0.134342 -39.59  0.001188117    1.601    0.375
        71 -12.1781     14.2263    231.8255   8.0614105127e+01   2.3282750416e+01    0.5005853    0.2245905  52.41  0.002247531    1.683    0.406
        72 -11.4922    245.9860    157.5055   2.0450681972e+01   5.1327434933e+00    0.2189276    0.1335047 -40.44 0.0009582216    1.591    0.371
        73 -10.0159    237.5533    158.0208   2.1737565576e+01   6.1789105723e+00    0.1846087   0.09582902 -33.10  0.001030531    1.601    0.375
        74 -12.1324     11.0328    225.6839   8.1144491148e+01   2.4787925955e+01    0.4758705    0.2121914  41.88  0.001989726    1.593    0.372
        75 -12.9770      4.1185    136.7141   7.9468592617e+01   4.6285801319e+01    0.5165927    0.2423312  80.17  0.002268105    2.033    0.508
        76 -12.7626      3.0677    128.2788   7.9361668905e+01   4.8579525918e+01    0.5879713    0.2130375  80.70  0.002175568    2.852    0.649
        77 -12.8555      2.3240    143.4586   8.0413513059e+01   4.4633676431e+01    0.4733738    0.2029254 -82.53  0.002060894    2.123    0.529
        78 -12.6181     15.6459    240.0821   8.0559737095e+01   2.1565765747e+01    0.6796262    0.2336073  42.62  0.002922679    1.893    0.472
        79 -10.3601    241.8427    153.0255   2.0198297622e+01   6.2908485739e+00     0.182947    0.1157517 -48.31 0.0009449619    1.934    0.483
        80 -11.2783    243.8689    139.5707   1.7376633369e+01   7.8728865075e+00    0.3043039    0.1528076 -41.30  0.001268424    1.793    0.442
        81 -11.6006    242.3987    133.8529   1.6466198087e+01   8.8806198227e+00    0.2918486     0.148655 -34.37  0.001031646    1.587    0.370
        82 -11.4912    249.7372    150.8858   1.8725458744e+01   5.5324124928e+00     0.306706    0.1202068 -39.90  0.001482115    2.238    0.553
        83 -11.3270    247.7595    144.3116   1.7761935532e+01   6.6837647642e+00    0.3976136    0.1992108 -52.04  0.001851621    3.248    0.692
        84 -11.4071    244.2260    148.5818   1.9038089231e+01   6.5792744173e+00    0.2310355    0.1314684 -33.22   0.00122654    1.426    0.299
        85 -10.7991    234.8139    146.2714   1.9912457120e+01   8.2151568152e+00    0.2812634    0.1274215 -40.92  0.001299888    2.002    0.501
        86 -12.4735    243.2628    118.6887   1.3360185876e+01   1.0881734102e+01    0.6985805    0.2524108 -51.61  0.002185958    6.094    0.836
        87 -10.5613    250.4912    140.0319   1.6600308711e+01   6.8938637833e+00    0.2320761   0.08893985 -37.90  0.001146768    2.113    0.527
        88 -11.4313    247.9237    112.5101   1.1564863750e+01   1.1033068700e+01    0.3012421    0.1339994 -40.18 0.0009306492    1.815    0.449
        89 -13.2663    243.5467    107.3535   1.1036034603e+01   1.2425441237e+01    0.6376271    0.2868705 -41.19  0.003281382    1.822    0.451
        90 -11.5543    248.0082    129.7867   1.4955347785e+01   8.6385937591e+00    0.3576399    0.1979869 -43.84   0.00140278    1.701    0.412
        91 -10.8579    249.5009    124.0292   1.3651412410e+01   9.2148989196e+00    0.2348546    0.1712909 -37.05 0.0009851597    1.160    0.138
        92 -11.7405    248.7488    118.6168   1.2679870352e+01   1.0068446961e+01    0.4135421    0.1749415 -37.07  0.001562049    1.855    0.461
        93 -11.4204    237.8094    138.6258   1.8013021600e+01   8.8725046826e+00    0.3879757    0.1683503 -51.02   0.00155723    3.796    0.737
        94  -9.8960    198.7655    135.0352   2.3302968993e+01   1.5680281167e+01    0.1856276    0.1014452 -38.01 0.0008889152    1.661    0.398
        95  -9.8436    232.6535    134.3112   1.7878726880e+01   1.0258771627e+01    0.1164745   0.08988969 -58.69 0.0007045778    1.710    0.415
        96 -10.1066    233.1472    129.1398   1.6776190586e+01   1.0936370787e+01    0.1693766    0.1284474 -45.33 0.0006786308    1.338    0.253
        97 -10.0432    220.6136    128.2141   1.8371415839e+01   1.3066967160e+01    0.1859087    0.1053392 -27.96 0.0009530036    1.651    0.394
        98 -12.6375      7.5072    125.4908   7.7569791877e+01   4.9058870995e+01    0.4649308    0.1670497  81.03  0.001638614    3.078    0.675
        99 -11.8464    241.8801    125.6093   1.4913301744e+01   1.0116480072e+01    0.3367901    0.1686197 -39.85  0.001654572    1.675    0.403
       100 -12.7136    238.9960    119.2885   1.4015908432e+01   1.1452283098e+01    0.4640163    0.1458199 -42.70  0.001914488    2.858    0.650
       101 -11.0052    234.6245    122.7698   1.5289618991e+01   1.1632781805e+01    0.1761282   0.09429145 -41.17  0.000730602    1.617    0.382
       102  -9.6508    212.7682    122.7427   1.8397236473e+01   1.5238962514e+01    0.2117488   0.08630737 -44.97 0.0008804362    2.404    0.584
       103 -10.4459    230.5989    116.2435   1.4482753171e+01   1.3229568858e+01    0.2429262   0.09808394 -38.58 0.0009173904    2.038    0.509
       104 -12.1957      4.2474    116.1374   7.8146349613e+01   5.1761975005e+01    0.2819776    0.1576374 -87.96  0.001337093    1.637    0.389
       105  -9.8696    220.0000    114.9477   1.5661932592e+01   1.5201824349e+01    0.2170163   0.06326326 -36.36 0.0007996588    2.923    0.658
       106 -10.4377    227.5712    124.3245   1.6567638926e+01   1.2524015159e+01    0.2455032   0.09990276 -39.54  0.001125872    2.078    0.519
       107 -11.8817    194.4503    246.3018   4.3267601990e+01  -2.8991933533e-01    0.2968151    0.1607044 -18.04  0.001807391    1.954    0.488
       108 -12.3790    247.6391    104.6548   1.0018868939e+01   1.2157937389e+01    0.7923738    0.2164033 -42.85  0.003168493    3.135    0.681
       109 -13.8646    242.5374     95.0243   8.6127466838e+00   1.4303130200e+01    0.8929294    0.2908463 -37.48  0.003954981    2.353    0.575
       110 -13.9638    247.9091     87.9683   6.5833129818e+00   1.4386557479e+01     1.295972    0.4203814 -39.55  0.005894788    2.311    0.567
       111 -13.1694    248.5998     77.3692   4.3257268065e+00   1.5684500463e+01    0.8049621    0.4170559 -43.24  0.004575456    1.519    0.342
       112 -12.5312      2.3760    211.3295   8.2756614250e+01   2.8490079507e+01    0.8741556    0.2404557  87.07  0.003441981    3.816    0.738
       113 -11.3613    235.7268     95.3435   9.4492136447e+00   1.5397066115e+01    0.2407544    0.1179333 -41.92 0.0008983795    1.680    0.405
       114 -10.9963    231.5074     91.0008   9.0084762560e+00   1.6743851098e+01    0.1994887    0.1024187 -36.69 0.0009944832    1.586    0.369
       115 -11.3073    236.8770     90.1140   8.2072230883e+00   1.5937362695e+01    0.1950925    0.1411825 -49.36  0.000687157    1.254    0.202
       116  -9.6501    226.3096     87.6737   8.8908237842e+00   1.8150055188e+01    0.1308691   0.08431414 -57.63 0.0006696577    1.657    0.397
       117 -12.0284      6.3664     86.0013   7.4511225201e+01   5.9777321565e+01    0.3240694    0.1203324 -78.19  0.001243491    2.455    0.593
       118  -9.8071    235.2737     82.6362   6.7802713650e+00   1.7258532029e+01    0.1299864   0.07700223 -53.60 0.0003873103    1.663    0.399
       119 -12.0275      3.2344     77.0145   7.5027057336e+01   6.2311142677e+01    0.2835855    0.1877165 -55.38  0.001484554    1.372    0.271
       120 -10.6007    248.7309    135.3302   1.5931527514e+01   7.7759768853e+00     0.262051    0.1322009 -42.88  0.001060488    1.845    0.458
       121 -11.4047    177.2918    244.7611   4.6216935934e+01   1.8569966820e+00    0.2724878    0.1439057 -16.39  0.001486549    2.362    0.577
       122 -10.6789     44.8884    244.7898   7.4342125791e+01   1.7781332058e+01    0.2505792    0.1101731  43.52  0.001352073    1.648    0.393
       123 -11.6963      2.8541    105.1203   7.7896662552e+01   5.4800498813e+01    0.2237155    0.1725054  65.32  0.001163618    1.247    0.198
       124 -11.1118    230.5059    103.5182   1.1816440257e+01   1.5109906299e+01    0.2659974    0.1033107 -35.93  0.001194665    2.112    0.526
       125 -11.3838      8.4281     44.3111   6.6021134935e+01   7.0419713600e+01    0.2647794    0.1083628 -63.29  0.001141288    2.104    0.525
       126 -12.0089      1.9204     94.5832   7.7442154341e+01   5.7678131293e+01    0.3372839    0.1730436 -76.02  0.001558985    1.717    0.418
       127 -12.1164      2.5020     40.6697   6.9409593070e+01   7.1589787589e+01    0.4497744    0.1930289 -65.23  0.002050745    1.993    0.498
       128 -11.4990    238.5203    102.5252   1.0632303913e+01   1.3912981653e+01    0.2554819   0.09931812 -35.35 0.0009665832    2.072    0.517
       129 -11.0333    218.8766    243.9052   3.8727700598e+01  -2.6153884819e+00    0.1713225    0.1078566  -1.69 0.0008153114    1.281    0.219
       130 -11.8822      1.6361     25.2853   6.5819228534e+01   7.5230902860e+01    0.3960457     0.155547 -70.15   0.00171812    2.524    0.604
       131 -11.6494    202.2444    241.3968   4.1217227364e+01  -5.5230770164e-01    0.3504032    0.1360482 -29.96  0.001828578    2.751    0.636
       132 -10.3777    209.6305    242.1848   4.0046107061e+01  -1.4477639692e+00    0.1464987   0.08206134 -21.25 0.0009457938    1.684    0.406
       133 -10.5414     38.1277    240.3139   7.5613179912e+01   1.9319461554e+01    0.2877783      0.10674  44.81  0.001439872    1.926    0.481
       134 -10.7713    202.7902    249.5689   4.2233726027e+01  -1.5850648129e+00    0.2133759    0.1285332  -2.36 0.0009790157    1.493    0.330
       135 -10.3937    220.1479    238.3850   3.7740416111e+01  -2.1160076714e+00    0.1845319    0.1142522 -16.23  0.001074572    1.389    0.280
       136 -10.3565    184.3044    238.3469   4.4043063564e+01   1.8761833325e+00    0.1193115    0.0719754  -1.96 0.0007041219    1.694    0.410
