#   1 NUMBER                 Running object number                                     
#   2 MAG_AUTO               Kron-like elliptical aperture magnitude                    [mag]
#   3 X_IMAGE                Object position along x                                    [pixel]
#   4 Y_IMAGE                Object position along y                                    [pixel]
#   5 X_WORLD                Barycenter position along world x axis                     [deg]
#   6 Y_WORLD                Barycenter position along world y axis                     [deg]
#   7 A_WORLD                Profile RMS along major axis (world units)                 [deg]
#   8 B_WORLD                Profile RMS along minor axis (world units)                 [deg]
#   9 THETA_WORLD            Position angle (CCW/world-x)                               [deg]
#  10 FWHM_WORLD             FWHM assuming a gaussian core                              [deg]
#  11 ELONGATION             A_IMAGE/B_IMAGE                                           
#  12 ELLIPTICITY            1 - B_IMAGE/A_IMAGE                                       
         1 -12.2539     22.2947      2.2038   2.9082721463e+01   7.7170661567e+01    0.5885084    0.2909257  22.73  0.002540224    2.755    0.637
         2 -11.7119      2.0387      4.3380   5.0677182571e+01   7.9387492708e+01     0.542931     0.218996 -48.80  0.002627806    2.204    0.546
         3 -11.7903     10.0036     17.0074   5.0109714649e+01   7.6218988555e+01    0.3225698    0.1891817 -29.58  0.001352909    1.702    0.412
         4 -11.8586      1.4972     24.9515   6.1428376586e+01   7.5166106719e+01    0.5770085    0.1253135 -64.62  0.002009528    3.819    0.738
         5 -12.0442     13.2415     12.6901   4.4605618255e+01   7.6713308397e+01    0.3516744    0.1949897 -39.85   0.00138818    1.722    0.419
         6 -12.6899     14.4106      6.0859   3.9003241953e+01   7.7738304723e+01    0.5306031    0.3657097 -18.45  0.003093914    1.478    0.324
         7 -12.1141      5.7694     19.4960   5.5282080615e+01   7.6070372830e+01    0.4007355    0.2376058 -46.78  0.001948295    1.500    0.333
         8 -12.8296      7.1774     10.8737   4.9311895287e+01   7.7688197217e+01    0.8726463    0.3470922 -38.20  0.003861327    2.504    0.601
         9 -11.6729     10.0008      1.9194   4.0151023651e+01   7.8990671803e+01    0.5152372    0.1917086  25.19   0.00215632    2.928    0.658
        10 -12.2883     14.2415     22.1597   4.9093568792e+01   7.4760492009e+01    0.4712669    0.1376117 -50.37  0.001821603    2.969    0.663
        11 -12.0300     19.8136     12.3800   3.8643465398e+01   7.5940424217e+01    0.3075587    0.1929399 -20.20  0.001600962    1.814    0.449
        12 -11.4765    148.1680      8.1759   3.5456179999e+02   4.6434140030e+01     0.201797    0.1373349 -65.47  0.001050464    1.350    0.259
        13 -11.7151     25.0200      7.6726   3.1162192834e+01   7.5925442243e+01      0.24225    0.1684168  -5.53  0.001336452    1.633    0.388
        14 -10.9065    134.3227      4.6666   3.5487410748e+02   5.0290147723e+01    0.1477683    0.0857859 -62.59 0.0004845521    1.705    0.414
        15 -10.1385    213.8712      1.9578   3.4827604883e+02   3.1890613161e+01    0.1559694    0.1310434 -45.53 0.0003432958    1.223    0.182
        16 -10.9227     30.2318      2.5850   2.3534383577e+01   7.5731471250e+01    0.1865264     0.104306  36.46 0.0009144025    1.655    0.396
        17 -11.2496    181.2385    220.1513   3.9442513544e+01   4.8089331980e+00    0.2710062    0.1739392   3.17 0.0006073954    1.524    0.344
        18  99.0000    226.9005    195.5388   2.7517752985e+01   2.7960475602e+00      2.33782     1.197775 -27.29   0.01365596    1.701    0.412
        19 -15.0379    201.4060    237.1890   3.8228111584e+01   1.4961678340e-01      4.48072     1.912033  -1.15   0.01202844   10.082    0.901
        20 -13.9106    196.0150    227.1677   3.7743552310e+01   2.0653911215e+00     2.392524     1.115613  -1.09  0.009575943    4.205    0.762
        21 -14.8003    175.5191    241.6768   4.3565497846e+01   2.4255858397e+00     1.751616    0.8211065 -21.53  0.008637226    2.866    0.651
        22 -15.6323    160.4877    241.8483   4.6493047585e+01   4.1427806963e+00     3.805944     1.695175  26.45    0.0179808    1.859    0.462
        23 -16.2464    248.2916    123.2711   1.1356214282e+01   1.0153809015e+01     3.098142     0.276879 -37.62  0.008131128    7.250    0.862
        24 -16.7925    248.4736     85.0478   3.7535951445e+00   1.5410445331e+01     3.015386    0.8269846 -29.93   0.01049632    4.336    0.769
        25 -18.1950    246.9014     52.3710   3.5719560637e+02   1.9921687865e+01     5.788881     2.529047 -32.48    0.0305524    1.929    0.482
        26 -11.7462     64.7152    247.9095   6.7579543258e+01   1.4506600131e+01    0.5018244     0.184399  37.53  0.001897297    1.940    0.484
        27 -10.9733     37.4538    239.8508   7.3182193178e+01   1.8898585166e+01    0.3724503    0.1467647  42.00  0.001346051    1.830    0.454
        28 -12.2047     49.3201    249.6358   7.1079252119e+01   1.5855729136e+01    0.5407557    0.1894159  29.16  0.002089532    2.157    0.536
        29 -11.6867     44.0957    243.9319   7.1912639612e+01   1.7447247382e+01    0.5013422    0.1470238  35.16  0.001800602    2.252    0.556
        30 -12.2288     35.5813    247.3912   7.3969457740e+01   1.7670085841e+01    0.6592493    0.1944006  45.69  0.003038095    2.396    0.583
        31 -11.8691     29.6424    239.9263   7.4937407369e+01   1.9659893900e+01    0.4584268    0.2483202  49.11  0.002236685    1.442    0.306
        32 -12.3368      2.5866    212.4312   8.0172468131e+01   2.7701872304e+01    0.5408548    0.3317614  49.88  0.002878055    1.262    0.208
        33 -11.6422      2.0426    205.7931   8.0112715791e+01   2.9191712133e+01    0.3889404      0.21573 -77.86   0.00168122    1.868    0.465
        34 -11.6134      2.2531    220.4559   8.0470103889e+01   2.6029696900e+01    0.4030019    0.2072235  86.19   0.00147452    1.911    0.477
        35 -12.0450      5.4286    235.4580   8.0148308968e+01   2.2734842033e+01    0.5112945    0.2287067  41.70  0.002899081    1.577    0.366
        36 -12.1052      4.5754    227.9572   8.0139383540e+01   2.4298883952e+01    0.5713589    0.2509512  54.05  0.002907293    1.749    0.428
        37 -11.4338     13.3907    231.4131   7.8254034227e+01   2.2844282682e+01    0.5028413    0.2166789  47.17  0.002545241    1.703    0.413
        38 -11.4600     11.0277    225.6143   7.8599040593e+01   2.4224901366e+01    0.4108807    0.1666999  43.26  0.002014603    1.766    0.434
        39 -11.5471      3.6272    250.1215   8.0886577684e+01   2.0108763586e+01    0.3679825    0.1760955  28.28  0.002179713    1.701    0.412
        40 -12.3688      3.4272    243.1872   8.0771174298e+01   2.1416500456e+01    0.5328193    0.2697414  54.04   0.00223445    1.490    0.329
        41 -12.6397     15.3285    240.1827   7.8116246964e+01   2.0953036467e+01    0.9291336    0.1760564  40.98  0.003999413    2.734    0.634
        42 -12.5019     18.9315    248.4906   7.7615860496e+01   1.9060002338e+01    0.7859761    0.1625485  31.09  0.003370808    2.870    0.652
        43 -12.1046     11.7098    248.3816   7.9148467871e+01   1.9730661428e+01    0.4943832    0.1810555  39.29  0.002063224    1.800    0.444
        44 -11.1339    186.6002    218.5261   3.8185416559e+01   4.3900222409e+00    0.2718456    0.1757917  -5.84  0.000969106    1.526    0.345
        45 -11.4978    148.2503    220.6149   4.6154542960e+01   8.9436577495e+00    0.3128005    0.1897915 -23.35  0.001443285    1.943    0.485
        46 -13.5087    222.7327    228.2733   3.3330722125e+01  -9.8106723605e-01     1.837318    0.7867031   7.93  0.008012565    3.917    0.745
        47 -10.9555    159.2105    217.1196   4.3364842638e+01   8.0774596800e+00     0.252462    0.1784106  -2.42 0.0008300357    1.419    0.295
        48  -9.9572    154.4494    218.4464   4.4544317839e+01   8.4863788642e+00    0.1258447    0.1024182   9.62 0.0001084557    1.034    0.032
        49 -10.5522     32.0829    222.6387   7.3526225929e+01   2.2869914052e+01    0.3564395    0.1144691  45.12  0.001569338    2.308    0.567
        50 -10.3314     24.5019    217.4459   7.5086476764e+01   2.4700740867e+01     0.215657   0.09966177  78.14   0.00103102    2.335    0.572
        51 -11.9866    130.1336    223.0354   5.0403646811e+01   1.0917193258e+01    0.2348519    0.1569529  24.81 0.0006799194    1.265    0.210
        52 -11.0648    225.8746    212.2161   3.0375063588e+01   7.0693878393e-01    0.3147712    0.1396772 -23.84  0.001679961    2.246    0.555
        53 -11.2969    194.9426    214.3956   3.6012739140e+01   3.9721507578e+00    0.2765151    0.1646104  11.91  0.001070982    1.632    0.387
        54 -10.7770    180.3927    214.6997   3.8782080830e+01   5.7271378750e+00    0.2310421      0.15222  11.33 0.0008419022    1.396    0.283
        55 -15.8494    225.0793    241.5963   3.4873728710e+01  -2.8025052642e+00     2.407747     1.198009   2.98    0.0143409    2.125    0.529
        56 -10.2312    151.3113    215.2964   4.4751120976e+01   9.4225262675e+00    0.1277559    0.0869188  -2.84 0.0002635739    1.597    0.374
        57 -10.3285    187.3124    212.9316   3.7195831772e+01   5.1231005089e+00    0.4064169    0.1493524  24.73  0.001731853    2.997    0.666
        58 -15.9689    247.8843    222.5731   2.8582410623e+01  -2.7942193910e+00     3.170703    0.5357947 -36.97   0.01232741    5.153    0.806
        59 -10.5486     28.4955    211.9847   7.3827113169e+01   2.5488594906e+01     0.273568     0.115262  88.90  0.001214855    2.711    0.631
        60 -10.8853     21.4942    211.4925   7.5537495837e+01   2.6265183140e+01     0.241668    0.1170486 -83.62  0.001210898    2.166    0.538
        61 -10.2715    216.3417    211.2480   3.1784457718e+01   1.8949401877e+00    0.1434518   0.09286783 -36.74 0.0005932053    1.595    0.373
        62 -10.0062    200.8313    208.7494   3.4065595349e+01   4.0656780594e+00    0.1967612     0.102835  -6.80 0.0009298607    2.670    0.626
        63 -10.5612    187.4704    208.4248   3.6460300382e+01   5.7763076965e+00    0.2382954    0.1550459  -0.28 0.0006468843    1.550    0.355
        64 -12.8532     12.3190    204.2123   7.7504501769e+01   2.8695754466e+01    0.5800572    0.2095091  41.11   0.00269318    2.037    0.509
        65 -10.3401    207.8047    204.4725   3.2153766672e+01   3.8281528033e+00    0.2367686    0.1343231   8.52 0.0009717546    1.940    0.485
        66  -9.8183    210.3023    201.6934   3.1271129270e+01   3.9187119705e+00    0.1714769    0.1024022 -37.33 0.0005615272    1.632    0.387
        67 -12.4184      3.7988    197.1269   7.9401473303e+01   3.0998385133e+01    0.5004236    0.2611949  75.85   0.00203041    1.759    0.432
        68 -12.3769      3.7880    188.3659   7.9100052650e+01   3.3029105822e+01    0.6834936    0.2273087  62.56  0.002770263    2.759    0.637
        69 -11.4156      5.5612    183.2658   7.8429515711e+01   3.4103543466e+01    0.2972848    0.1672792 -84.51  0.001361724    1.708    0.415
        70 -12.2847      2.0276    178.5909   7.9219840529e+01   3.5494251344e+01    0.5295125    0.2211709  80.31  0.002345287    2.289    0.563
        71  -9.7829    215.1734    197.4254   2.9742330668e+01   3.9301232210e+00    0.2063712    0.1222527 -33.86 0.0008242961    1.529    0.346
        72 -11.8806     14.6114    196.9585   7.6606013300e+01   3.0142367288e+01    0.3494463      0.14724  64.11  0.001572717    2.244    0.554
        73 -10.3984    219.3615    194.2010   2.8510053443e+01   3.8753345115e+00    0.2229324    0.1191804 -32.18 0.0007736241    1.631    0.387
        74 -11.5281     19.7932    195.1966   7.5160907089e+01   3.0088311935e+01    0.3542189   0.08690549  57.38  0.001118915    4.340    0.770
        75 -12.0065     11.5106    191.0387   7.7155541309e+01   3.1782191198e+01    0.2912728    0.1626998  81.35  0.001125554    1.707    0.414
        76 -12.0759     10.0123    187.0096   7.7379052436e+01   3.2857087526e+01     0.264247    0.1776984  59.25  0.001323377    1.257    0.204
        77  -9.7378    210.0000    189.0619   2.9204684062e+01   5.7795807867e+00    0.1754554   0.05978372 -39.12 0.0004252597    2.692    0.628
        78  -9.9743    220.0234    187.3721   2.7243009239e+01   4.7577655840e+00    0.2083583    0.1320446 -33.45 0.0007845898    1.407    0.289
        79 -10.0552    217.5993    183.3230   2.6938358116e+01   5.6452058099e+00    0.1892908   0.09949359 -37.19 0.0006954575    1.714    0.417
        80  -9.4918    134.3200    186.6646   4.4149203371e+01   1.7085599407e+01    0.1359123    0.1060114  63.81 0.0007049573    1.703    0.413
        81  -9.2693    210.2573    182.9745   2.8103679700e+01   6.6492165846e+00    0.1438353   0.09055314 -33.50 0.0003237769    1.420    0.296
        82 -11.6314     16.9946    181.1979   7.5169196427e+01   3.3665876131e+01    0.2563198    0.1455336  73.01  0.001281396    1.673    0.402
        83 -10.7134    218.6257    177.7723   2.5793683894e+01   6.3226519120e+00    0.1984871       0.1209 -34.17 0.0004878046    1.437    0.304
        84 -13.2903      5.6177    139.5948   7.6245952016e+01   4.5200839926e+01     1.009068    0.2804846  74.95  0.002792741    5.139    0.805
        85 -12.3547      2.3881    142.9769   7.7526309276e+01   4.4509268232e+01    0.4194018    0.1581845  87.13  0.001625057    2.583    0.613
        86 -13.2027      6.9644    175.5759   7.7714596064e+01   3.5861546187e+01    0.7359589    0.2804146  65.60  0.003026329    2.535    0.606
        87 -13.9912      3.2383    164.0294   7.8282377444e+01   3.9011648246e+01     0.819018    0.5449935  63.54  0.004531775    1.308    0.235
        88 -16.8432    248.1047     16.6574   3.4981290810e+02   2.3837193886e+01     2.053221    0.5788527 -36.06   0.01003623    2.403    0.584
        89  -9.2147    215.4437    172.9841   2.5454447942e+01   7.4549221618e+00    0.1665604    0.1020662 -33.75 0.0003448027    1.421    0.296
        90 -10.6490    212.3132    162.5370   2.4040410461e+01   9.4844352264e+00    0.2165585    0.1359829 -31.78 0.0005707016    1.378    0.274
        91 -10.8739    221.0703    161.4016   2.2420583454e+01   8.4257117893e+00    0.2105659    0.1455028 -35.07  0.000374967    1.275    0.216
        92 -11.0767    221.6882    156.0654   2.1320746123e+01   9.1431358877e+00    0.2092344    0.1443749 -33.19 0.0005636974    1.231    0.188
        93 -10.0020    220.6777    151.8193   2.0666498263e+01   9.9320506290e+00    0.2417966    0.1735939 -18.64  0.000771526    1.274    0.215
        94 -11.3720    222.7076    146.0914   1.9249407107e+01   1.0509996147e+01    0.3502963    0.1923881 -19.69  0.001748957    2.114    0.527
        95 -10.3378    215.8115    155.4575   2.2128400356e+01   1.0077618187e+01    0.1862579    0.1295917 -30.84 0.0004201177    1.221    0.181
        96 -10.8172    218.0847    167.8224   2.4083797093e+01   7.8716961690e+00    0.1928201    0.1436873 -25.36  0.000479754    1.121    0.108
        97  -9.9383    214.1059    147.8035   2.0914279841e+01   1.1524424212e+01    0.2290234    0.1533546  36.84  0.001338518    1.672    0.402
        98  -9.1980    205.2966    153.3222   2.3440985941e+01   1.1982404842e+01     0.129789   0.08956186  -8.38 0.0003574721    1.620    0.383
        99  -9.9086    211.2420    154.6788   2.2717026046e+01   1.0870056664e+01     0.192219   0.08553468 -44.45 0.0001972938    2.227    0.551
       100  -9.4594    210.9262    151.2004   2.2092038016e+01   1.1467618128e+01    0.2370366    0.1401396 -20.18 0.0004495052    1.844    0.458
       101 -10.1945    218.2670    143.6171   1.9439120304e+01   1.1550735326e+01    0.1886039     0.124866 -19.28 0.0004216463    1.511    0.338
       102  -9.3507    207.2617    143.6475   2.1191275219e+01   1.3245234577e+01    0.1227762   0.09408945 -56.29   0.00052514    1.615    0.381
       103 -10.1860    213.6068    141.6004   1.9761483176e+01   1.2580117119e+01    0.2194776    0.1055939 -34.55 0.0007535729    1.817    0.450
       104 -12.2036      3.2488    128.1285   7.6352931038e+01   4.8417839937e+01    0.5661554    0.1819964  75.97   0.00181886    3.741    0.733
       105 -10.0575    104.2337    250.6623   5.9164293002e+01   9.4887076088e+00     0.254326   0.09580624  25.38 0.0008388738    2.283    0.562
       106 -10.8265      5.4971    110.4874   7.4161294804e+01   5.3076335851e+01    0.1390256    0.1251876 -81.95 0.0008103956    1.028    0.027
       107 -10.2569    208.2216     99.1849   1.1519268363e+01   2.0272798692e+01     0.348719    0.1181459 -43.94 0.0007089592    2.603    0.616
       108 -11.1108      1.6961     94.5358   7.4341404846e+01   5.7601538109e+01    0.2608947    0.1139877 -79.98  0.001084279    2.065    0.516
       109 -10.0436    204.3354     93.6600   1.0804517392e+01   2.1877193061e+01     0.297157    0.1155562  50.66  0.001239457    2.921    0.658
       110  -8.9358    207.2987     88.6432   9.2405596615e+00   2.2097444931e+01    0.1387048   0.08890869 -59.36  0.000703571    1.704    0.413
       111 -10.7439    211.0247     85.7068   8.0783292320e+00   2.1838789741e+01    0.3025231    0.1704875 -25.96  0.001467291    1.940    0.484
       112  -9.7159    209.6640     81.2298   7.2201334558e+00   2.2776191228e+01    0.1749894    0.1084316 -31.87 0.0005416879    1.505    0.336
       113 -11.8738    109.5792    248.3353   5.7788985497e+01   9.2340270061e+00    0.4179322    0.2180888  32.39  0.002021193    1.478    0.323
       114  -9.4223    203.2654     71.5878   5.7464909982e+00   2.5484086240e+01    0.1442825   0.08317987 -56.60  0.000696004    1.760    0.432
       115  -9.7886    210.9970     66.7136   3.6781340998e+00   2.4646240377e+01     0.322866     0.201864  30.84  0.001537509    2.786    0.641
       116 -11.3478      3.3781     53.2295   6.7664674252e+01   6.8366529676e+01    0.1882495    0.1198976 -85.87 0.0009031725    1.669    0.401
       117 -12.5693    113.3552    244.1484   5.6546523662e+01   9.4652250661e+00     0.518401     0.237302  21.30  0.002249089    2.079    0.519
       118 -11.6416      2.0253     40.4722   6.5710591768e+01   7.1552564363e+01    0.3538795     0.180719 -73.12  0.001605352    1.927    0.481
       119 -11.3367      3.0876     33.5893   6.2972274703e+01   7.3120965709e+01    0.4150611    0.1139159 -53.53  0.001631542    2.682    0.627
       120 -12.4812      6.0117     29.1890   5.9104490566e+01   7.3949178876e+01     0.464263    0.2856519   5.93  0.002493184    1.653    0.395
       121 -12.3916      8.2180     25.5895   5.5818162427e+01   7.4583484969e+01     0.335001    0.2836375  25.83  0.002114995    1.280    0.219
       122 -11.3854     74.0571    249.8893   6.5664097769e+01   1.3113149395e+01    0.4770266    0.1231924  35.52  0.002033812    2.549    0.608
       123 -11.9765      9.0906     37.0694   5.9425807090e+01   7.1945690357e+01    0.3473745    0.1416961 -52.87  0.001532846    2.061    0.515
       124 -10.9460     89.8781    248.6686   6.2095125062e+01   1.1506134564e+01    0.2684847    0.1741397  32.48 0.0007009818    1.186    0.157
       125 -10.3838     77.0761    245.6298   6.4666258715e+01   1.3517840458e+01    0.1898871     0.146381  53.29 0.0006145149    1.272    0.214
       126 -10.7993     83.8883    243.0822   6.2935551072e+01   1.3177635068e+01    0.2914771    0.1445277  27.80 0.0009752333    1.631    0.387
       127 -11.2495     56.9507    241.2628   6.8863302969e+01   1.6575244926e+01     0.431751    0.1420974  39.73  0.001559086    2.160    0.537
       128 -15.5713    243.7358    186.6536   2.3475874062e+01   2.0496494391e+00     5.273597     1.745172 -47.40   0.01498582    9.446    0.894
       129 -10.4295     96.9688    243.5632   6.0071211223e+01   1.1540598255e+01    0.2825653   0.09700064  28.92  0.001075195    2.305    0.566
       130 -11.2384     45.2011    236.6266   7.1245398874e+01   1.8718224676e+01    0.5568728    0.1113743  38.52  0.002202887    2.901    0.655
       131 -11.3095    112.7712    237.4200   5.5954932532e+01   1.0663321484e+01    0.2960189    0.1078867  21.63  0.001144908    3.122    0.680
       132 -11.9246     26.4953    229.1642   7.5164857913e+01   2.2082621801e+01    0.3986347    0.2196897  83.61  0.002238611    1.933    0.483
       133 -10.1030     48.2019    229.7858   7.0125820565e+01   1.9739302524e+01    0.2322026   0.08135551  53.61 0.0009596391    2.839    0.648
       134 -10.3215     32.3545    229.1350   7.3801101676e+01   2.1514566706e+01     0.258682    0.1313491  54.11  0.001395517    1.679    0.404
       135 -11.9754     18.7453    221.9890   7.6665578440e+01   2.4283268352e+01    0.5136948    0.2184464  71.14  0.002462788    2.407    0.585
       136 -12.2865     12.6951    216.9615   7.7905561361e+01   2.5883761805e+01    0.5034823    0.2446653  49.88  0.002102364    1.602    0.376
       137 -11.0805     13.2056    211.2076   7.7563288083e+01   2.7076066070e+01    0.2589333     0.130259  69.42  0.001200339    1.852    0.460
       138 -16.8275    244.9663    158.8851   1.8455764363e+01   5.6335465475e+00     5.299826     1.051937 -42.67   0.01655102    5.968    0.832
