#   1 NUMBER                 Running object number                                     
#   2 MAG_AUTO               Kron-like elliptical aperture magnitude                    [mag]
#   3 X_IMAGE                Object position along x                                    [pixel]
#   4 Y_IMAGE                Object position along y                                    [pixel]
#   5 X_WORLD                Barycenter position along world x axis                     [deg]
#   6 Y_WORLD                Barycenter position along world y axis                     [deg]
#   7 A_WORLD                Profile RMS along major axis (world units)                 [deg]
#   8 B_WORLD                Profile RMS along minor axis (world units)                 [deg]
#   9 THETA_WORLD            Position angle (CCW/world-x)                               [deg]
#  10 FWHM_WORLD             FWHM assuming a gaussian core                              [deg]
#  11 ELONGATION             A_IMAGE/B_IMAGE                                           
#  12 ELLIPTICITY            1 - B_IMAGE/A_IMAGE                                       
         1 -14.0661      7.8674     17.0441   1.3203662167e+02   7.2595366766e+01     3.545618     0.856223 -56.23   0.01436801    2.634    0.620
         2 -14.3485    196.0379     15.0591   6.9692046100e+01   3.4053424938e+01     2.818819     1.525463  22.50   0.01161356    2.538    0.606
         3 -10.5012     81.6220    248.5993   1.4190790830e+02   1.6774614227e+01    0.2086268    0.1295028  52.48 0.0007910117    1.341    0.254
         4 -10.8475    249.2814    249.4282   1.1408258472e+02  -3.3285934621e+00    0.2851982     0.131504  23.77  0.001945778    1.566    0.361
         5 -11.2859    139.6050    248.4182   1.3183487049e+02   1.0021434620e+01     0.262972    0.1893601 -46.34  0.002060204    1.866    0.464
         6 -11.1854    124.1658    250.1695   1.3466987997e+02   1.1679754500e+01    0.3858761   0.09926707  37.08  0.001865458    2.725    0.633
         7 -11.3639     95.0720    241.1331   1.3901878916e+02   1.6305386583e+01    0.2559349    0.2030589 -39.79  0.001752199    1.754    0.430
         8 -10.8800     98.9567    249.5059   1.3897892834e+02   1.4717730802e+01    0.2541463    0.1411155  45.73   0.00142715    1.402    0.286
         9 -10.4602     97.1674    245.2281   1.3896474757e+02   1.5498872739e+01    0.1559776    0.1304957  77.31 0.0005523439    1.400    0.286
        10 -10.8475     67.0056    243.3062   1.4410315742e+02   1.9084377405e+01    0.3046837    0.1545304  82.31  0.001681291    2.659    0.624
        11 -10.5915     67.2796    250.4383   1.4447085808e+02   1.8044146117e+01    0.1954989    0.1497138  60.25  0.001086189    1.184    0.155
        12  -9.6846     63.7014    250.6845   1.4508933670e+02   1.8378170723e+01    0.1525954    0.1262496  20.51 0.0005159692    1.495    0.331
        13 -10.9292     46.3743    248.7323   1.4789873652e+02   2.0373137753e+01    0.2840073    0.1348313  61.50   0.00100188    1.884    0.469
        14 -11.0398     29.1691    249.6261   1.5076726214e+02   2.1836492348e+01    0.4512663    0.1405764  32.61  0.002672377    2.537    0.606
        15 -12.4273     35.4449    244.1231   1.4952669396e+02   2.2070244480e+01    0.5598387    0.3643071  51.99  0.004674694    1.099    0.090
        16 -12.0033     29.2724    242.8269   1.5050624107e+02   2.2821572453e+01    0.6686289    0.1957835  56.11  0.002099062    2.707    0.631
        17 -15.6902      6.7761    238.7633   1.5408586399e+02   2.5334787420e+01     10.37595     1.103791 -79.06   0.04055684    7.929    0.874
        18 -14.0839     11.3907    207.0275   1.5236781118e+02   3.0108644376e+01     1.376106    0.8088977  73.38   0.00593249    1.417    0.294
        19 -10.5399     21.2260    238.6410   1.5170113243e+02   2.4155563643e+01    0.1505271    0.1111114  66.49 0.0009155679    1.145    0.126
        20 -10.4888    193.9793    236.6858   1.2115422475e+02   4.4847161353e+00    0.2506162    0.1477013 -50.89  0.001499643    3.289    0.696
        21 -14.7597     59.6055    213.2786   1.4354747719e+02   2.4546206146e+01     7.470993          nan  40.47   0.02289291    6.672    0.850
        22 -10.2983     35.3515    230.0697   1.4895170505e+02   2.4218085292e+01    0.2162822    0.1382474  58.51  0.000737619    1.215    0.177
        23  -9.3044     37.4338    226.4917   1.4842014468e+02   2.4590936322e+01    0.1575055    0.1179935  59.58 0.0006074467    1.058    0.055
        24 -11.1581    229.8712    230.5157   1.1441907000e+02   5.7814565816e-01    0.4459915    0.2800947 -48.96   0.00242938    4.414    0.773
        25 -10.9894    173.7138    222.2243   1.2278195840e+02   8.8060273329e+00    0.3234568    0.2657523  54.08  0.002339019    1.694    0.410
        26 -14.0758     53.2976    223.3955   1.4537668269e+02   2.3538527447e+01    0.9393837    0.6500338  72.83  0.006307477    1.373    0.272
        27 -10.5690     27.3670    221.1669   1.4998995623e+02   2.6372038847e+01    0.1907577    0.1024693  44.53 0.0008350557    1.399    0.285
        28 -10.1902    152.3159    248.0631   1.2960695672e+02   8.4932094688e+00    0.1416676    0.1122968  27.96 0.0005019757    1.097    0.088
        29  -8.7827    152.5245    212.9399   1.2546895063e+02   1.2931646201e+01     0.136775    0.1139844 -36.38 0.0003631873    1.454    0.312
        30 -12.8214     47.0291    232.9555   1.4703041149e+02   2.2656913817e+01    0.3053421    0.2686291  64.11 0.0009002327    1.219    0.180
        31  -9.8762     76.8295    244.6251   1.4247748914e+02   1.7850182897e+01    0.1492504   0.06421954  42.41  0.000591512    1.669    0.401
        32 -11.7163     69.8314    197.9776   1.4034162827e+02   2.6072142691e+01    0.4257619    0.2823004  52.23  0.001562636    1.295    0.228
        33 -10.2832    194.8276    198.1857   1.1544716337e+02   8.8248280952e+00    0.2730558    0.1845473 -58.81  0.001424806    3.278    0.695
        34 -11.7306     75.4492    190.7535   1.3851582781e+02   2.6725677512e+01    0.2388851     0.216594 -29.16 0.0007695036    1.413    0.292
        35  -9.4176    106.7631    182.1241   1.3078088283e+02   2.4274491945e+01    0.1693584    0.1429175  53.38 0.0003326932    1.136    0.120
        36 -11.0011     84.0011    178.2404   1.3535211237e+02   2.8019825982e+01    0.2072441    0.1914908  59.60 0.0003619251    1.056    0.053
        37 -13.2505     71.7257    175.9263   1.3786426032e+02   2.9973586887e+01    0.4297462     0.260984 -41.24  0.001806922    2.239    0.553
        38 -12.1096     90.6663    168.7045   1.3268347353e+02   2.9000425828e+01    0.8897418    0.4486976  47.25  0.004457111    1.891    0.471
        39 -13.1108     65.8652    142.0564   1.3532988178e+02   3.7745484411e+01     2.367209     1.088227  82.52  0.003305018    5.357    0.813
        40  -9.9465    101.9870    152.1676   1.2761439818e+02   3.0723954677e+01    0.3193601    0.2390882 -35.62 0.0007968824    1.551    0.355
        41  -9.3548    104.5468    148.2149   1.2634200895e+02   3.1150130560e+01    0.2130671    0.1558577 -36.08 0.0006693262    1.568    0.362
        42 -12.0955     91.0016    151.8082   1.3027151052e+02   3.2375689772e+01    0.2571718    0.2344063  -6.86 0.0005612739    1.270    0.213
        43 -11.1521     46.8105    147.1100   1.4086632919e+02   3.8737154884e+01    0.3348312    0.1630652 -68.16  0.001716995    1.913    0.477
        44 -12.9169     30.5974    140.5426   1.4441581598e+02   4.1714988885e+01    0.5086755    0.3179315  46.66  0.003052247    1.518    0.341
        45 -10.3765     89.9606    138.7016   1.2848470187e+02   3.5310316302e+01    0.2407333    0.1964971  55.74 0.0005684201    1.234    0.190
        46  -9.1669    242.3061    138.6884   9.5980792337e+01   8.9198000866e+00    0.1134392   0.09658383 -39.10 0.0002231382    1.617    0.382
        47  -9.8079    112.0157    137.3062   1.2253247509e+02   3.2234393022e+01    0.3324775    0.2373054 -11.28  0.001240736    1.975    0.494
        48 -10.5536     99.7158    134.6205   1.2521334537e+02   3.4744202576e+01    0.2547834    0.2208685 -20.60 0.0009940605    1.309    0.236
        49  -8.6347    117.5009    129.5247   1.1959660432e+02   3.2939879375e+01      0.13871    0.1332875   7.04 -2.113806e-05    1.029    0.028
        50  -8.7111    192.0542    143.9696   1.0589708436e+02   1.6863535172e+01     0.162095    0.1380406   0.63 0.0003796193    1.030    0.029
        51  -9.2562    108.6704    124.0714   1.2078348120e+02   3.5580727728e+01    0.1837495     0.172043 -44.82 0.0003230473    1.070    0.066
        52 -10.8753    168.2535    113.3405   1.0369558226e+02   2.6452073717e+01    0.3684962     0.321886 -83.17   0.00104983    1.621    0.383
        53  -9.0467    203.4747    111.5286   9.6248528333e+01   1.9637893346e+01    0.1461034    0.1217816   0.68 0.0001007477    1.074    0.069
        54  -8.7213     77.9714     88.9971   1.2191869006e+02   4.8408366301e+01    0.1633074    0.1598043  14.00 0.0004086757    1.091    0.084
        55 -11.0744     83.4238    244.4226   1.4131348967e+02   1.7158072833e+01    0.4063857    0.1767004  60.29  0.002254653    2.875    0.652
