#   1 NUMBER                 Running object number                                     
#   2 MAG_AUTO               Kron-like elliptical aperture magnitude                    [mag]
#   3 X_IMAGE                Object position along x                                    [pixel]
#   4 Y_IMAGE                Object position along y                                    [pixel]
#   5 X_WORLD                Barycenter position along world x axis                     [deg]
#   6 Y_WORLD                Barycenter position along world y axis                     [deg]
#   7 A_WORLD                Profile RMS along major axis (world units)                 [deg]
#   8 B_WORLD                Profile RMS along minor axis (world units)                 [deg]
#   9 THETA_WORLD            Position angle (CCW/world-x)                               [deg]
#  10 FWHM_WORLD             FWHM assuming a gaussian core                              [deg]
#  11 ELONGATION             A_IMAGE/B_IMAGE                                           
#  12 ELLIPTICITY            1 - B_IMAGE/A_IMAGE                                       
         1 -10.6531    167.6667     49.2023   8.0166542340e+01   3.7078367530e+01    0.7105871    0.5678773  70.49  0.003604449    1.279    0.218
         2  -8.8044    189.5943     14.4869   6.6308571301e+01   3.5758220946e+01     0.368262    0.2432338 -83.77  0.001476025    1.621    0.383
         3  -9.5592    234.8266      6.2088   5.9696274132e+01   2.5506723161e+01    0.3473757    0.2412869 -35.76 0.0009366438    1.405    0.288
         4  -8.1448    249.1994      3.4130   5.7984978183e+01   2.2528709197e+01    0.1772709    0.1037007 -84.04  0.000951355    1.671    0.402
         5  -7.8742    206.9950      1.6517   6.0940409450e+01   3.2655935993e+01    0.1845179    0.1494368  84.72 0.0008621539    1.114    0.102
         6  -7.4233    134.1817    241.1245   1.2907392508e+02   8.4734857445e+00    0.1603513    0.1141964  57.80 0.0005209058    1.273    0.215
         7  -9.0159     54.8749    250.4503   1.4363006719e+02   1.8192472007e+01    0.2028031    0.0986798  49.07 0.0003721596    1.549    0.354
         8  -9.3524     47.4685    249.5774   1.4477384011e+02   1.9231347729e+01    0.2756639    0.1418761  45.70  0.001834874    1.582    0.368
         9  -6.9856     85.5319    240.5309   1.3769324733e+02   1.5827313623e+01    0.1147599   0.08661107  61.14 7.462142e-05    1.007    0.007
        10  -7.0032    106.7637    236.6113   1.3353602968e+02   1.3410550942e+01   0.09846655    0.0901273 -17.10 0.0006915912    1.645    0.392
        11 -11.2994     57.3062    229.9504   1.4178650820e+02   2.1410645537e+01    0.8411413    0.4279662  53.24   0.00517372    1.550    0.355
        12  -8.6364     56.4143    221.1554   1.4126431148e+02   2.3125157079e+01    0.3736548     0.165172  83.35  0.001106673    2.931    0.659
        13  -6.7944    101.5043    233.5613   1.3417922444e+02   1.4704883237e+01    0.1175546   0.09359961  56.64 0.0002011575    1.041    0.040
        14  -8.2339     80.0950    232.3543   1.3793658039e+02   1.7980963866e+01    0.1892404    0.1389438  80.46 0.0003103243    1.249    0.200
        15  -7.0899    104.1773    228.3886   1.3314964246e+02   1.5189058836e+01      0.16115   0.08862122  52.07 0.0001607549    1.507    0.337
        16  -7.9312     33.2692    228.7937   1.4585461140e+02   2.4461054272e+01    0.1563388    0.1045441  69.94 0.0005096003    1.102    0.092
        17  -7.6118    131.0014    224.4471   1.2765274854e+02   1.1645450021e+01    0.1885657    0.1011633  44.92  0.000500963    1.537    0.349
        18  -7.8445    158.1784    222.9462   1.2230730560e+02   7.3696281712e+00    0.1787241     0.148077  54.77 0.0003634451    1.171    0.146
        19  -7.3980    107.1450    223.1179   1.3201687856e+02   1.5655052977e+01    0.1654684    0.1202949  70.24 0.0004466522    1.319    0.242
        20  -7.4334     81.0200    223.0194   1.3690992937e+02   1.9516027976e+01    0.1426509    0.1109649  63.03 0.0003476074    1.018    0.018
        21  -7.7152    137.9547    222.0405   1.2602118373e+02   1.0904085674e+01    0.1847907    0.1538035  49.29 0.0003248985    1.007    0.007
        22  -7.8921     94.9036    221.7231   1.3417988011e+02   1.7750904775e+01    0.1671859    0.1421734  51.46 0.0004981263    1.184    0.156
        23  -7.4842     76.1015    221.8236   1.3771045879e+02   2.0416284198e+01     0.182834    0.1241307  67.43 0.0005998372    1.253    0.202
        24  -6.7629    126.3154    220.2635   1.2801941150e+02   1.3115577769e+01    0.1137917   0.09230605  21.26            0    1.544    0.352
        25  -7.7067    117.4510    220.1211   1.2970315416e+02   1.4567496628e+01    0.1992944    0.1473638  39.98 0.0005450207    1.285    0.222
        26  -6.8478     89.6557    220.2846   1.3502165598e+02   1.8781367476e+01    0.1267795   0.07411062  64.55 0.0002973625    1.643    0.391
        27  -7.0729    111.3503    219.2530   1.3077075400e+02   1.5684853285e+01    0.1125796   0.09196055  22.62 0.0003473077    1.595    0.373
        28  -7.2490     84.5405    218.5252   1.3581059123e+02   1.9841185326e+01    0.1213384   0.09479674  65.60 5.484507e-05    1.032    0.031
        29  -6.9326     78.5001    217.4835   1.3685029839e+02   2.0886481544e+01    0.1199887   0.09459472  66.46 1.255036e-05    1.004    0.004
        30  -7.8663     73.0657    216.0389   1.3773880159e+02   2.1905371738e+01    0.1965685    0.1124769  67.73  0.001122374    1.667    0.400
        31  -7.6255     68.4756    215.5742   1.3856088251e+02   2.2611198446e+01    0.1154323   0.09419375  67.89 8.407397e-05    1.074    0.068
        32  -7.0841    146.5762    214.5331   1.2333280095e+02   1.0704743698e+01    0.1267293    0.1085574  46.46 0.0001288203    1.015    0.015
        33  -7.1650    122.4095    214.5519   1.2804874957e+02   1.4749403407e+01    0.1241005    0.1058745  55.20 0.0001150487    1.029    0.028
        34  -7.4320     87.5077    213.4677   1.3472093318e+02   2.0355196713e+01    0.1218915   0.09915251  65.12 0.0001330634    1.013    0.013
        35  -7.9324    114.9755    212.3495   1.2922674129e+02   1.6349502010e+01    0.1752924    0.1353094  50.32 0.0002374915    1.109    0.098
        36  -8.5008     70.8969    211.8761   1.3775680287e+02   2.2989057563e+01    0.1674134    0.1125923  68.28 0.0004158972    1.284    0.221
        37  -8.4712     65.1134    211.0620   1.3878505833e+02   2.3915991385e+01    0.1623116    0.1477079  74.67 0.0003730769    1.266    0.210
        38  -6.8693    143.6566    210.6834   1.2335147883e+02   1.1858946251e+01    0.1258822   0.09775015  12.14 0.0002494851    1.715    0.417
        39  -7.0759    127.5312    210.4217   1.2649740663e+02   1.4639854831e+01    0.1272079    0.1083543  50.80 0.0001618818    1.043    0.041
        40  -9.1046     64.4027    203.2803   1.3819150469e+02   2.5527854107e+01    0.2516123    0.2193183  50.89  0.001320625    1.296    0.228
        41  -9.4604     69.3597    200.7964   1.3696527178e+02   2.5361470880e+01    0.2355476    0.1718299  53.09 0.0009278478    1.219    0.180
        42  -7.1735     67.5228    197.5089   1.3699670923e+02   2.6267888146e+01    0.1726321    0.1038235 -84.94 0.0001861188    1.657    0.396
        43  -9.3190     67.6621    206.1894   1.3783518816e+02   2.4523882167e+01    0.2329205    0.1843742 -82.51  0.001130595    1.225    0.183
        44  -9.4862     73.8397    208.0641   1.3681651265e+02   2.3321930530e+01    0.2900235    0.1791291  82.78  0.001338442    1.653    0.395
        45  -7.4654    110.1446    208.5277   1.2970309225e+02   1.7826079113e+01     0.183019    0.1082541  44.84  0.000369891    1.470    0.320
        46  -7.6554     96.5837    208.1703   1.3235461824e+02   2.0006492949e+01    0.1791927    0.1298162  81.13  0.000439048    1.387    0.279
        47  -7.6888    135.9814    207.0188   1.2434506036e+02   1.3817839256e+01    0.1885682    0.1702662  62.23 0.0005051608    1.073    0.068
        48  -7.7311     58.7572    207.4172   1.3966996273e+02   2.5444174725e+01    0.1489658    0.1068051  34.77 0.0009489396    1.654    0.396
        49  -7.6551    118.2205    205.7609   1.2772963459e+02   1.7032302621e+01    0.1869733    0.1491519  63.64 0.0005797838    1.141    0.123
        50  -6.9373     52.3206    205.6813   1.4075007965e+02   2.6588302283e+01    0.1251316   0.06894056  67.86 0.0007042872    1.665    0.399
        51  -7.6484    159.2347    204.2469   1.1930593238e+02   1.0227256088e+01    0.1796239     0.136928  57.48 0.0005087056    1.335    0.251
        52  -7.7102    153.1622    203.7980   1.2043936016e+02   1.1383636363e+01    0.1846091     0.161792  59.38 0.0004628838    1.133    0.118
        53  -6.8610    107.2827    204.7085   1.2979475027e+02   1.9000023080e+01    0.1270304   0.08571016  69.43 0.0003472661    1.532    0.347
        54  -8.3585     79.8625    203.8521   1.3519354559e+02   2.3301676798e+01    0.1685971     0.151202  71.56 0.0004304116    1.165    0.142
        55  -7.3311     57.0298    202.9961   1.3960529178e+02   2.6532725486e+01    0.1428187    0.1117318  78.82 0.0003862579    1.048    0.046
        56  -9.4682    177.7366    201.0357   1.1515314574e+02   7.4340408160e+00    0.2259642    0.2044389  37.22 0.0002812508    1.059    0.056
        57  -8.3948     76.1268    198.8667   1.3540399801e+02   2.4816724990e+01    0.1899673    0.1387218  71.42 0.0004367179    1.204    0.169
        58  -7.4810     59.5228    199.4777   1.3878906629e+02   2.6918222685e+01     0.119528   0.09653958  74.79 8.025642e-05    1.027    0.027
        59  -7.8123    107.0067    197.8997   1.2896898711e+02   2.0354423329e+01    0.1883561    0.1622857  66.10 0.0003193636    1.013    0.013
        60  -8.1718     91.8253    197.0815   1.3199416102e+02   2.2886538507e+01    0.1825997    0.1585678  72.19 0.0003988176    1.049    0.047
        61  -7.4460    141.8468    196.1974   1.2153917086e+02   1.4747968103e+01    0.1723305    0.1525616  19.62 0.0004388703    1.283    0.221
        62  -7.4555     63.5319    196.4853   1.3769624334e+02   2.7003167584e+01    0.1207652   0.09922796  75.53 -4.536576e-08    1.035    0.034
        63  -8.7170    192.7573    194.1412   1.1105016296e+02   5.8032848389e+00    0.2476876    0.1650825 -32.60  0.001327877    1.651    0.394
        64  -6.8307     57.4620    194.5100   1.3872312161e+02   2.8185598311e+01    0.1196082   0.09794822  77.63 0.0005888034    1.043    0.042
        65  -6.7553     46.6446    194.3054   1.4086601580e+02   2.9549124012e+01     0.128148   0.06948357  66.73 0.0003286398    1.717    0.418
        66  -6.9464    136.4368    192.4804   1.2207389531e+02   1.6400820460e+01    0.1342538    0.1183631  58.29 0.0002042413    1.040    0.038
        67  -7.3836    141.8718    189.7939   1.2051258897e+02   1.5930985768e+01    0.1844248    0.1456105  66.22 0.0004151055    1.329    0.248
        68  -8.0876     82.1940    189.6154   1.3309113698e+02   2.5829823384e+01    0.2085795    0.1561935  68.10  0.000409051    1.192    0.161
        69  -7.6103     16.7681    188.7343   1.4626611049e+02   3.3866737684e+01    0.1521658   0.09522544  73.04 0.0005379189    1.280    0.219
        70  -7.1725     75.2349    187.6325   1.3432152834e+02   2.7235305210e+01    0.1283505   0.08236813  78.81 0.0006909206    1.599    0.375
        71  -7.3092     88.9685    185.9892   1.3119794728e+02   2.5574257663e+01    0.1706208     0.154963 -25.22  0.000330091    1.542    0.352
        72  -7.2501    143.9830    183.0635   1.1894699546e+02   1.6819551620e+01    0.1559435    0.1505495  82.75 0.0003929635    1.089    0.082
        73  -7.3226    174.5082    182.4787   1.1251111134e+02   1.1162229794e+01    0.1383897    0.1250316  31.04 -4.810121e-05    1.024    0.023
        74  -7.2663    165.2852    182.3550   1.1437003081e+02   1.2944329628e+01    0.1375129    0.1065554   1.86 0.0004829216    1.668    0.401
        75  -7.3696     76.7797    181.7300   1.3328129808e+02   2.8255920622e+01    0.1771698    0.1261563  72.65 0.0004544334    1.325    0.245
        76  -6.8258    109.3453    179.7012   1.2588874961e+02   2.3629240222e+01    0.1419032   0.09504777  70.38  0.000274604    1.677    0.404
        77  -7.0499     86.4317    179.4673   1.3088771629e+02   2.7324499631e+01    0.1303398    0.1120737  76.88 0.0008057581    1.009    0.009
        78  -7.1114     36.2858    179.7097   1.4166753371e+02   3.3756787248e+01    0.1206468   0.07142787  70.63 0.0006954994    1.536    0.349
        79  -7.1822     49.0280    174.9963   1.3851399369e+02   3.3319328895e+01    0.1473545    0.1194038  81.86 0.0004990124    1.006    0.006
        80  -7.0433     53.2178    172.0186   1.3727964284e+02   3.3460797897e+01    0.1593515   0.08864442 -71.42 0.0007765818    1.622    0.384
        81  -7.8104     39.0384    164.4879   1.3960691423e+02   3.6743049488e+01    0.1825154    0.1350692 -84.73 0.0003911326    1.122    0.109
        82  -7.2216     97.6914    164.3689   1.2613065725e+02   2.8819718662e+01    0.1460637   0.09793412  77.69  0.000703564    1.761    0.432
        83  -6.7934    121.7204    162.3233   1.2021932015e+02   2.5116123693e+01    0.1423543    0.1060522  81.02 0.0003538525    1.588    0.370
        84  -7.5228     50.6818    157.0712   1.3610633790e+02   3.7073091058e+01    0.1754544    0.1377352 -77.94 0.0004210823    1.112    0.100
        85  -7.0382    132.5216    156.0124   1.1654396184e+02   2.4433370165e+01     0.189057     0.125344 -81.39 0.0007753324    2.215    0.549
        86  -7.1976      8.7662    148.9537   1.4493096829e+02   4.2987521165e+01    0.1541485   0.07560243 -76.30 0.0008697081    1.598    0.374
        87  -9.0196    123.5297    146.6433   1.1679912919e+02   2.8156706462e+01    0.2856185    0.2415075  70.40  0.001140023    1.221    0.181
        88  -7.9149    188.6458    137.9105   1.0030393394e+02   1.6381723321e+01    0.2417478      0.19218  33.99 0.0004974619    1.270    0.212
        89  -7.5547    134.8473    138.1155   1.1228615041e+02   2.7790272265e+01    0.1965456    0.1790601  -5.36 0.0004995514    1.273    0.215
        90  -8.0260    120.7132    131.3817   1.1425994910e+02   3.2049303158e+01    0.3305509    0.2344948  88.32  0.001280355    1.959    0.489
        91  -7.6345    163.6771    121.3538   1.0162897391e+02   2.5110556377e+01    0.1598291    0.1226999 -81.29 0.0007046975    1.759    0.431
        92  -7.5992    181.0593    115.0046   9.6283665431e+01   2.2381172113e+01    0.1787702    0.1760758   0.10            0    1.005    0.005
        93  -7.5499     23.8258    111.7110   1.3696151422e+02   5.0173203823e+01    0.1770638    0.1389438 -40.26 0.0005988246    1.445    0.308
        94  -7.5955    239.0254    111.7611   8.5005182871e+01   1.0000912144e+01    0.1739209    0.1202615  52.70 0.0005453111    1.580    0.367
        95  -8.1296    133.9771    106.8469   1.0493341003e+02   3.4667879069e+01    0.2598473    0.1849495  13.65  0.001093889    2.060    0.515
        96  -7.7865    205.9243     89.8447   8.4959037828e+01   2.1023014759e+01    0.2228865    0.1989631  14.53  0.000450623    1.232    0.188
        97  -8.7172    146.5117     86.0302   9.6014418798e+01   3.6050989338e+01    0.2518017    0.2135786  51.22 0.0009045577    1.191    0.161
        98  -9.2645    149.0218     82.3264   9.4326081592e+01   3.6161453759e+01    0.3479259    0.1862882  44.75  0.001376521    1.910    0.476
        99  -8.5729    184.8784     78.0924   8.5543454407e+01   2.8140595406e+01    0.2434219    0.2095033 -69.12 0.0009680926    1.263    0.208
       100  -8.7741    164.9739     71.8351   8.7653055780e+01   3.4161401448e+01    0.2269531    0.1764471  -2.86 0.0008939508    1.586    0.369
       101 -10.1574    157.1026     67.1608   8.7891797933e+01   3.6908889031e+01    0.4929689    0.3299135  15.10  0.002003118    2.222    0.550
       102  -8.0155    139.2277     70.6196   9.3061765525e+01   4.0626447099e+01    0.2189911    0.1377876  41.42 0.0009403421    1.650    0.394
       103  -9.3637    162.4365     68.0520   8.7035563379e+01   3.5434846868e+01    0.3129144    0.2064892 -11.40  0.001292316    2.041    0.510
       104  -9.7002    244.9974     54.9803   7.0445199982e+01   1.7217484817e+01    0.2679158     0.238932  60.19 0.0004528239    1.237    0.192
       105  -8.2590    249.0370     50.9651   6.9030333108e+01   1.6863356376e+01    0.2638966    0.2112593 -12.61 0.0007932839    1.467    0.318
       106  -9.1470    152.3081     54.4479   8.4890165090e+01   4.0167632158e+01    0.2841332    0.2601055 -67.79 0.0007889517    1.175    0.149
       107  -8.1042    130.0206     55.4940   9.0355822671e+01   4.5387696399e+01    0.2201665    0.1449953  52.20 0.0004602323    1.515    0.340
       108 -10.1795     43.4282    247.0476   1.4527299543e+02   2.0129115691e+01    0.4608522    0.3254212   5.97  0.002474016    4.538    0.780
       109  -7.2351    239.0378     45.0319   6.8690726923e+01   1.9916566797e+01    0.1623676    0.1463421 -60.83 0.0003134888    1.014    0.014
       110  -7.9476    144.3306     56.2812   8.7234453308e+01   4.1844258320e+01    0.1548108    0.1137062  24.20 0.0003743419    1.606    0.377
       111  -7.5987    115.4703     41.9746   8.9282312494e+01   5.0832063354e+01     0.212899    0.1381163 -31.14 0.0003977616    1.538    0.350
       112  -7.6245    186.1742     41.1461   7.4570874221e+01   3.3452914110e+01    0.2103219    0.1908139  29.99  0.000482824    1.209    0.173
       113  -7.6332    157.8015     34.4115   7.7250648595e+01   4.1630915411e+01    0.1981806    0.1261484  49.80 6.661185e-05    1.506    0.336
       114  -7.1681    197.6038     50.7871   7.5603181004e+01   2.9202782594e+01    0.2209714    0.1244637 -42.80 0.0009522716    1.734    0.423
       115 -10.2071    140.6003     32.0961   7.9813228660e+01   4.6255099518e+01    0.2628861    0.2514021   3.66 0.0003366103    1.065    0.061
       116  -7.6583    151.0387     27.6593   7.6243826093e+01   4.4188747158e+01    0.2041224    0.1722781  55.89 0.0004024599    1.115    0.103
       117  -8.9191    168.6682     23.6965   7.1961005264e+01   4.0138126402e+01    0.5007288    0.3410988  18.81  0.002363453    1.906    0.475
       118  -8.0770    165.9965     22.4905   7.1995441623e+01   4.0962955293e+01    0.3985539    0.2561688  16.31  0.001789461    2.131    0.531
       119  -8.7358    183.4632     23.8505   6.9840527633e+01   3.6304326558e+01    0.3420521    0.2348818  79.00 0.0009618319    1.460    0.315
       120  -9.1694     32.3729    247.9409   1.4708674487e+02   2.1240153593e+01    0.3038954    0.1177551 -89.68  0.001684912    2.735    0.634
       121  -9.3613     37.5275    244.0376   1.4604945182e+02   2.1317395936e+01    0.2440757   0.07267275  52.82  0.001277928    2.453    0.592
       122  -8.2058     63.9526    242.9994   1.4161108451e+02   1.8296972962e+01    0.1688488    0.1248405  65.21 0.0006115749    1.015    0.014
