#   1 NUMBER                 Running object number                                     
#   2 MAG_AUTO               Kron-like elliptical aperture magnitude                    [mag]
#   3 X_IMAGE                Object position along x                                    [pixel]
#   4 Y_IMAGE                Object position along y                                    [pixel]
#   5 X_WORLD                Barycenter position along world x axis                     [deg]
#   6 Y_WORLD                Barycenter position along world y axis                     [deg]
#   7 A_WORLD                Profile RMS along major axis (world units)                 [deg]
#   8 B_WORLD                Profile RMS along minor axis (world units)                 [deg]
#   9 THETA_WORLD            Position angle (CCW/world-x)                               [deg]
#  10 FWHM_WORLD             FWHM assuming a gaussian core                              [deg]
#  11 ELONGATION             A_IMAGE/B_IMAGE                                           
#  12 ELLIPTICITY            1 - B_IMAGE/A_IMAGE                                       
         1 -12.0557      5.7347    137.0853   1.3753262639e+02   4.6446242191e+01     1.260483    0.5247352 -80.51   0.00559828    2.427    0.588
         2 -12.5782    159.2691     55.9412   7.4294504019e+01   3.8235246441e+01     1.298327     1.048477  47.45  0.003499221    1.254    0.203
         3 -12.9667    172.1173     40.5757   6.8018765995e+01   3.7304507855e+01     1.020507    0.9002263  45.70  0.004082586    1.275    0.216
         4  -9.9079    169.7738     19.7419   6.3079472301e+01   4.0317546864e+01    0.2948904    0.2393115   2.12  0.001194801    1.740    0.425
         5 -13.1576    188.8616      8.4202   5.8060180432e+01   3.7074893166e+01     1.041797    0.8229604  84.43   0.00422691    1.020    0.019
         6 -12.2022    205.4368      2.9473   5.5241389091e+01   3.3903663401e+01     1.593801    0.3461555  74.08  0.005442229    4.389    0.772
         7 -10.1779    204.4240    166.5042   9.2253440744e+01   6.8690252293e+00     1.490664    0.3731515 -45.66  0.004312376    3.882    0.742
         8  -9.5203    150.3825    249.8179   1.1891609845e+02   3.4203525279e-01    0.2428419    0.2249359 -54.87  0.001206308    1.247    0.198
         9  -9.0271    133.2698    250.0490   1.2247924848e+02   3.1469103585e+00    0.2011774    0.1721136 -57.69 0.0008528404    1.340    0.254
        10 -18.6899     55.9805    232.4742   1.3634951659e+02   1.8703707085e+01     5.123375     4.251932  55.89   0.02199582    1.188    0.158
        11 -10.1327    163.1861    203.0522   1.0845272061e+02   7.2266743376e+00     0.444195    0.2796312 -75.95  0.001315919    2.809    0.644
        12 -10.0346    137.5537    172.1598   1.0842239929e+02   1.9137686442e+01     0.321472     0.258137  75.30  0.001008172    1.437    0.304
        13  -8.9620    153.2803    202.7076   1.1061286424e+02   9.1636693106e+00    0.2702336    0.1826555 -64.76  0.001236792    1.781    0.438
        14 -11.4274    194.0309    168.0470   9.4699937632e+01   8.6033847199e+00     1.135294    0.5153657 -56.90  0.001901161    3.125    0.680
        15  -9.4534    125.0704    172.8727   1.1165017097e+02   2.1407007924e+01    0.2740987    0.2250137 -37.23 0.0004362435    1.344    0.256
        16 -11.0898    203.4504    200.1650   9.9314778294e+01   3.9661187747e-01    0.3882038    0.3631697  88.83  0.002275988    1.342    0.255
        17 -10.5202     61.0492    166.9837   1.2708854802e+02   3.3509076259e+01     0.298279    0.2366083  22.02 0.0003699049    1.553    0.356
        18 -11.5311     60.0034    163.5491   1.2682228816e+02   3.4506924233e+01    0.5882325    0.3866906 -20.84  0.002605437    2.535    0.606
        19  -9.3916     17.9715    170.4525   1.3831512608e+02   3.7503837085e+01    0.3037713    0.1948393 -73.68 0.0009955623    1.266    0.210
        20  -9.2079    242.2704    170.0000   8.5963800930e+01  -7.1843719906e-01    0.2578644     0.193294  46.16 0.0006050126    1.542    0.352
        21 -10.3850     24.7357    166.4545   1.3622753419e+02   3.7831816834e+01    0.3031443    0.2720752   0.06  0.001788366    1.493    0.330
        22 -11.9846     24.3347    156.9873   1.3516630419e+02   4.0169117324e+01    0.7258064    0.5190942 -73.05  0.001741275    1.154    0.133
        23  -9.5661    120.9583    165.1074   1.1112866467e+02   2.4073493713e+01    0.4004958    0.2661453  65.62 0.0009644322    1.887    0.470
        24  -8.6347      4.0945    229.0179   1.4603668678e+02   2.5505692647e+01    0.1473379    0.1002371 -72.57 0.0004399534    1.417    0.294
        25  -9.7757    157.4330    200.2103   1.0921420564e+02   8.9160297839e+00    0.2844446     0.236994  62.34  0.001478391    1.305    0.234
        26  -9.1750    242.8976    165.0299   8.4850433646e+01   8.2525410829e-02    0.2012151    0.1791944 -32.27 0.0005868535    1.024    0.024
        27  -8.8947    140.9441    199.2666   1.1281460636e+02   1.2240571264e+01     0.281952    0.2154549 -45.67 0.0007185571    1.380    0.275
        28  -8.8465    164.0090    162.0692   9.9981998653e+01   1.6060392252e+01    0.2215253    0.2194278 -42.04            0    1.018    0.018
        29  -8.7200    242.9845    160.2744   8.3867497109e+01   9.4021666623e-01    0.1779519    0.1687981 -19.47  0.000388047    1.102    0.092
        30  -9.7719    130.7582    214.6589   1.1777898216e+02   1.0723482373e+01    0.2984207    0.2229302 -77.88 0.0005745734    1.577    0.366
        31 -11.1864     14.9233    152.4944   1.3701697687e+02   4.2083850343e+01    0.5592957    0.3002342 -47.06  0.002901111    1.931    0.482
        32 -10.3410    210.9030    158.1107   8.9184773074e+01   7.2968591247e+00    0.2555056    0.2302873  55.44 0.0003669585    1.217    0.178
        33  -9.9122    102.3183    158.3674   1.1461950966e+02   2.9188386597e+01    0.2651857    0.2431596 -67.22 0.0003284276    1.043    0.041
        34 -11.3450    105.5323    152.5806   1.1257518735e+02   3.0038267764e+01    0.8450208    0.6121733   9.50  0.003399957    2.009    0.502
        35 -12.2303     92.5114    151.9536   1.1597138179e+02   3.2487982554e+01    0.5968944    0.4488504  16.74  0.002008497    1.703    0.413
        36  -9.1314    153.4282    194.3015   1.0901610428e+02   1.0965108798e+01    0.3540249    0.1806018 -43.55  0.001418061    2.079    0.519
        37 -10.3087    133.9709    146.7644   1.0383813474e+02   2.5890960132e+01     1.099215    0.3233879 -55.80  0.002719603    4.795    0.791
        38  -9.1204    167.9294    231.1537   1.1235139107e+02   7.8192530894e-01    0.2098707    0.1939472 -40.82 0.0003641406    1.187    0.157
        39 -10.1861     26.7835    145.4079   1.3296456999e+02   4.2756696290e+01    0.3035518    0.2322933  48.04  0.001785152    1.467    0.318
        40 -11.0666     32.0243    142.6242   1.3112018471e+02   4.2933566811e+01    0.4704155     0.348922 -13.61  0.001846037    1.816    0.449
        41 -11.2751      2.6599    117.3544   1.3575556393e+02   5.1230492450e+01    0.6577801    0.2079812 -72.55  0.002642767    2.931    0.659
        42 -11.9608    236.1771    247.2158   1.0155534062e+02  -1.2552827271e+01    0.2224953    0.1954421  -4.58            0    1.192    0.161
        43 -10.2276    172.5787    189.2649   1.0371523224e+02   8.3503249099e+00    0.4720929    0.3315722 -24.60  0.002165052    1.735    0.424
        44  -8.1118    158.4808    139.4202   9.6118590964e+01   2.2358015232e+01    0.1563292    0.1521344 -84.71 0.0001215139    1.018    0.017
        45 -10.9300    103.9343    137.5954   1.0974478541e+02   3.3997218360e+01    0.2977904    0.2812361  35.78 0.0004921505    1.116    0.104
        46 -10.0382    119.7000    128.1680   1.0319305521e+02   3.3192112725e+01    0.6926338    0.3311671 -30.24  0.002013665    3.993    0.750
        47 -10.6927     24.6541    128.1102   1.3094694824e+02   4.7114301064e+01    0.3848203    0.2752321 -49.13  0.001254978    1.267    0.211
        48 -11.2301     30.6012    127.3260   1.2906929760e+02   4.6766148920e+01    0.5002761    0.3059064  44.50  0.002642552    1.915    0.478
        49  -9.0480    160.4070    127.9420   9.2911743376e+01   2.4480423313e+01    0.3384191    0.2600634 -74.39  0.001534543    1.553    0.356
        50  -9.7550    107.5543    125.2217   1.0582006890e+02   3.6267944427e+01    0.3002127    0.2484473 -26.19  0.000706382    1.345    0.257
        51 -10.2687    135.0249    122.5945   9.7769552557e+01   3.1265371331e+01    0.5668285      0.20242 -50.80  0.001762222    2.984    0.665
        52 -10.4676     35.2195    119.2750   1.2623455833e+02   4.8235871435e+01    0.2744873    0.2488459   4.12  0.001295745    1.276    0.216
        53  -9.5326     24.8108    119.9792   1.2954563059e+02   4.9023949823e+01     0.190104    0.1825578 -30.66 0.0004534167    1.184    0.156
        54  -8.7531    230.0547    140.4718   8.1914724497e+01   7.0313572491e+00    0.2094916    0.1707688 -44.59 0.0003138321    1.096    0.088
        55  -8.6540    113.1938    118.8089   1.0264736449e+02   3.6652167402e+01    0.2191965    0.2066012 -84.54 0.0003550639    1.114    0.102
        56  -9.9513     40.5100    117.9377   1.2433888300e+02   4.8013782207e+01    0.1952393    0.1828114  12.41 0.0008241789    1.221    0.181
        57  -9.8598     72.0909    117.1676   1.1435143852e+02   4.4203365856e+01    0.2254291    0.1748293  75.49  0.001125041    1.687    0.407
        58 -10.7593     71.2283    112.2286   1.1344899357e+02   4.5478292815e+01     0.464797    0.3385915  -6.89  0.002277405    1.777    0.437
        59  -8.9473    176.1617    187.1759   1.0250772123e+02   8.0980651631e+00    0.2330148    0.2096253  74.29 0.0006707151    1.271    0.213
        60 -11.2874     61.1768    109.0873   1.1587734290e+02   4.7612788337e+01    0.7310539    0.3783494 -35.16  0.003082653    2.233    0.552
        61 -10.7754     66.0114    105.1703   1.1337990070e+02   4.7837423009e+01    0.6472585     0.386036 -42.16  0.003085342    1.579    0.367
        62  -9.5295     45.9699    113.4719   1.2171088862e+02   4.8467270227e+01    0.1874256     0.134998  26.57 0.0006680221    1.570    0.363
        63  -9.3815     29.2344    112.4062   1.2680164213e+02   5.0402525515e+01    0.1630809    0.1193323  39.19 0.0008023042    1.613    0.380
        64 -10.2111     91.3789    110.0074   1.0670601288e+02   4.2731048812e+01    0.3311951    0.2633317 -36.71 0.0008645721    1.244    0.196
        65  -8.8870    134.3428    105.4996   9.3508947477e+01   3.5132614036e+01    0.2787894    0.1437756 -44.43   0.00108462    1.939    0.484
        66  -8.4482    113.4510     95.4295   9.6331064413e+01   4.1665440903e+01    0.1466726    0.1434987   5.84 9.843641e-05    1.008    0.008
        67  -8.2767    171.7245     93.0656   8.1657787444e+01   2.9011318951e+01    0.1950125    0.1852305 -55.59   0.00023349    1.076    0.071
        68  -9.3393    227.6814     85.1835   7.0294373084e+01   1.7676758566e+01    0.2171319     0.184447  67.56  0.000432233    1.252    0.201
        69  -8.2350    232.3154     81.3370   6.8834480485e+01   1.7340093168e+01     0.124669    0.1098091   7.89 0.0007047576    1.696    0.410
        70  -8.0331    147.3684     81.2607   8.3738707049e+01   3.6905749866e+01    0.1508925    0.1135625  26.30 0.0006978835    1.647    0.393
        71 -10.0701    114.2045    138.1233   1.0704768250e+02   3.1925432131e+01     0.491538    0.2915688 -37.75  0.001984148    1.912    0.477
        72  -8.4949    114.6332     75.0161   9.0074593955e+01   4.5319032429e+01    0.1913022    0.1770273 -30.18 0.0003939203    1.108    0.097
        73  -9.0506    171.0452     66.6902   7.4960337482e+01   3.3774126780e+01     0.205167    0.1734379  65.17   0.00039193    1.115    0.103
        74  -9.3608    106.9089    184.6585   1.1836927211e+02   2.1910502079e+01    0.2405146    0.2015955 -52.94 0.0005073161    1.228    0.186
        75 -10.6371    187.9408    244.0205   1.1033572998e+02  -4.8462893820e+00    0.3895397    0.2120293 -46.56 0.0008222405    2.084    0.520
        76 -10.3721    127.4211     52.9472   8.0138668948e+01   4.6075723660e+01    0.2428394    0.2057479  48.11 0.0002581128    1.085    0.078
        77 -11.3986    176.1451     33.0692   6.5514593995e+01   3.7297394198e+01    0.3923021    0.3313818  39.89 0.0009219128    1.420    0.296
        78  -9.0303    223.1518     36.6299   6.0490256737e+01   2.6061992058e+01    0.2300321    0.1761141 -38.89   0.00104455    1.494    0.330
        79  -9.2418    170.2202    183.5197   1.0308761939e+02   1.0045771987e+01    0.4251024    0.1371683  47.14  0.001305335    3.360    0.702
        80  -9.9032    201.4475    170.2343   9.3643580619e+01   6.6902684999e+00    0.5931501    0.2806246 -58.70  0.001972117    3.377    0.704
