#   1 NUMBER                 Running object number                                     
#   2 MAG_AUTO               Kron-like elliptical aperture magnitude                    [mag]
#   3 X_IMAGE                Object position along x                                    [pixel]
#   4 Y_IMAGE                Object position along y                                    [pixel]
#   5 X_WORLD                Barycenter position along world x axis                     [deg]
#   6 Y_WORLD                Barycenter position along world y axis                     [deg]
#   7 A_WORLD                Profile RMS along major axis (world units)                 [deg]
#   8 B_WORLD                Profile RMS along minor axis (world units)                 [deg]
#   9 THETA_WORLD            Position angle (CCW/world-x)                               [deg]
#  10 FWHM_WORLD             FWHM assuming a gaussian core                              [deg]
#  11 ELONGATION             A_IMAGE/B_IMAGE                                           
#  12 ELLIPTICITY            1 - B_IMAGE/A_IMAGE                                       
         1 -12.6568    227.6580      9.3299   3.5906683344e+02   2.7479456157e+01     0.890757    0.2946214 -44.13  0.002114485    2.289    0.563
         2 -13.4495    221.2948     26.7176   3.5048982196e+00   2.6915509532e+01      0.85029    0.5428178 -20.23   0.00383636    1.887    0.470
         3 -13.5211     32.2777     14.9429   4.3793143544e+01   7.1738748197e+01    0.9065679    0.3928726  28.82  0.004066426    2.457    0.593
         4 -13.3194    226.9070     27.2657   3.1749614651e+00   2.5658861853e+01    0.9294841    0.4870545 -20.51  0.003728407    2.425    0.588
         5 -11.6613     61.4408      3.3694   2.2952034373e+01   6.7960907664e+01    0.3418453    0.2657299  73.92  0.001980794    1.626    0.385
         6 -11.9518     40.0717      2.6493   3.2011149171e+01   7.2188514271e+01    0.4014984    0.2254707  40.13  0.002171485    1.608    0.378
         7 -10.8991     47.3811    229.2770   8.1546623983e+01   2.0772317710e+01    0.1502609    0.1080788  63.55  0.000699301    1.212    0.175
         8 -19.5296     10.7620    145.5560   8.4659465801e+01   4.3237769797e+01     18.31739     5.038762 -82.38   0.06341906    3.625    0.724
         9 -10.1605    192.1069    193.2930   4.5189647283e+01   6.4723983601e+00    0.4571829    0.2797426 -67.03   0.00160154    5.562    0.820
        10  -9.4073     47.3645    193.1848   7.8785135652e+01   2.8318676075e+01     0.243122    0.1097606 -67.12  0.001133864    2.226    0.551
        11  -8.6187     78.3709    184.2032   6.9972386461e+01   2.6357068166e+01    0.1286154    0.1020494   7.49 0.0002785761    1.569    0.362
        12 -11.5152    142.5818    182.3790   5.3803661574e+01   1.6522012964e+01     0.286584    0.2440682   8.80  0.001624794    1.192    0.161
        13 -12.1725     52.6715    180.8059   7.6259774164e+01   3.0518388368e+01    0.4331258    0.3181326 -29.85  0.001338886    1.902    0.474
        14 -10.3814    174.6270    179.7785   4.6264613079e+01   1.1562092878e+01    0.2940129    0.2404844 -30.18 0.0008400673    1.232    0.188
        15 -11.1500    172.2357    175.7550   4.6014084645e+01   1.2688540377e+01    0.3763624    0.3349153  36.43  0.001252628    1.181    0.154
        16 -10.5056    173.8449    171.9934   4.4957116335e+01   1.3092504862e+01    0.3473668    0.2656817  77.74  0.001685496    2.249    0.555
        17  -9.0683     63.1487    181.1687   7.3560262633e+01   2.9119306945e+01    0.1883938     0.140817  65.75 0.0005203235    1.292    0.226
        18 -11.6691    179.7847    169.2967   4.3196584425e+01   1.2547347485e+01    0.6618227    0.5721521 -14.98  0.003456852    1.100    0.091
        19 -12.7960    125.6231    172.6325   5.6158505431e+01   2.1427609730e+01     1.027285    0.3366694  38.18  0.003554974    2.787    0.641
        20 -11.3293    110.9331    167.0542   5.8914207271e+01   2.5163975099e+01    0.5092091    0.3570551 -74.63  0.001544844    1.777    0.437
        21 -11.3890     87.8469    220.2928   7.1828592655e+01   1.7454326159e+01     0.388135    0.3297154  35.21  0.001465953    1.103    0.094
        22 -12.3458    113.2656    172.6334   5.9265114642e+01   2.3533084491e+01    0.6151143    0.5221306  55.71  0.003387387    1.189    0.159
        23  -8.9303     83.3749    223.3800   7.3147095839e+01   1.7461138067e+01    0.1464735     0.114382  84.55 0.0004014632    1.432    0.302
        24 -11.1891    229.8427    165.8490   3.3279155940e+01   4.9369815955e+00     0.226937    0.1569199  35.08  0.001074289    1.539    0.350
        25 -10.3489     71.4127    222.8374   7.5771315210e+01   1.9127925079e+01    0.1631357    0.1287043 -70.79 0.0004035083    1.444    0.307
        26 -11.3101     89.7739    249.7055   7.4219389072e+01   1.1886948950e+01    0.1785655    0.1703792  36.96 0.0006055403    1.237    0.191
        27  -9.4976    147.3199    207.9536   5.6896314583e+01   1.0978597781e+01    0.1925304     0.113516 -75.51 0.0007038582    4.478    0.777
        28 -11.4805     37.7357    224.8614   8.3338492733e+01   2.2708920136e+01    0.1838483    0.1412258  53.35 0.0002934262    1.026    0.025
        29 -10.9151    134.3706    148.5646   4.9341044638e+01   2.5027092246e+01    0.6384744    0.2725092 -54.21  0.002280132    2.704    0.630
        30 -11.0404    133.3972    142.5994   4.8319648661e+01   2.6514937350e+01    0.7469206    0.2737566 -56.50  0.002229326    3.859    0.741
        31 -10.6650    113.2165    151.8954   5.5529219771e+01   2.8206008478e+01    0.4572823    0.3026024  89.47  0.001847002    2.465    0.594
        32 -11.5209    109.0626    145.2137   5.5344746897e+01   3.0500570866e+01     0.402813    0.3341611 -34.17  0.001293556    1.326    0.246
        33 -10.9788     86.8999    149.3450   6.2414361537e+01   3.3295584440e+01    0.2688159     0.244414  53.03 0.0003034514    1.056    0.053
        34 -12.7599     93.2921    143.6395   5.9514241246e+01   3.3630916820e+01    0.9114448    0.7871203  24.70  0.003822107    1.222    0.181
        35  -8.8677    170.6170    140.8439   3.9197858538e+01   1.9546673204e+01    0.2059554    0.1332919 -52.56 0.0007514343    1.748    0.428
        36  -9.9015    107.9682    136.9819   5.3953675643e+01   3.2632676665e+01    0.2309367    0.2135582 -12.80  0.000727715    1.185    0.156
        37 -12.0241    105.5169    131.8069   5.3541702199e+01   3.4309792044e+01    0.6651226    0.4399781 -41.13  0.001931087    1.632    0.387
        38 -11.6923     93.6401    131.5067   5.6984737964e+01   3.6520977179e+01    0.3739032     0.306198 -80.91 0.0002301643    1.351    0.260
        39 -11.1236    136.2340    128.7795   4.4477916999e+01   2.8967954317e+01    0.5641124    0.2085313 -52.54  0.001654148    3.186    0.686
        40  -9.6468    122.8187    131.2037   4.8563094006e+01   3.1130768494e+01    0.2058202     0.180219   1.18 0.0003245684    1.294    0.227
        41  -9.0839    164.6826    130.3208   3.8094106406e+01   2.2791192625e+01    0.1474777    0.1199798 -84.84 0.0005712167    1.663    0.399
        42  -9.4331     51.0196    200.2850   7.8511863377e+01   2.6322077528e+01    0.2761887    0.1403312 -66.62  0.001384229    2.042    0.510
        43 -11.0616    113.3688    125.4324   4.9849634373e+01   3.4312621295e+01    0.3815244     0.299308 -49.61 0.0008584883    1.289    0.224
        44  -8.9147    160.4608    122.5085   3.7176028199e+01   2.5220281048e+01    0.1485699    0.1448079 -18.04 0.0001233778    1.007    0.007
        45 -10.4887    101.0494    120.7667   5.2365282578e+01   3.7772868782e+01    0.3056533    0.2526254   9.63 0.0008446672    1.436    0.304
        46 -10.2415    108.9714    116.0892   4.8880441575e+01   3.7349900269e+01    0.2594424     0.226908 -32.93 0.0003606875    1.209    0.173
        47  -9.1248     85.3293    116.0619   5.6187497218e+01   4.1750353991e+01    0.2130713    0.1914177 -61.42 0.0003028713    1.105    0.095
        48 -11.6851    116.2611    109.1224   4.4996967667e+01   3.7468546923e+01    0.4832299    0.3696366  62.31  0.001509587    1.481    0.325
        49 -10.0358     79.9597    108.5399   5.6196721325e+01   4.4517433291e+01    0.2260552    0.1478506  37.72 0.0003728909    1.542    0.351
        50  -9.7588     99.4997    105.7164   4.9121548999e+01   4.1631837576e+01    0.3836305    0.2467547 -32.85 0.0008981137    1.865    0.464
        51  -9.8430    134.5307    105.9632   3.9197305181e+01   3.4243316854e+01    0.2431263     0.152515 -43.92  0.001017619    1.596    0.374
        52 -12.0998    116.3847    101.4341   4.2905950064e+01   3.9158408359e+01     0.777377    0.4673919  71.29  0.002679616    3.029    0.670
        53 -10.8798    120.4150     98.0379   4.0823377751e+01   3.9032277488e+01    0.3218173    0.2771465 -78.57 0.0009414034    1.328    0.247
        54 -10.3329     76.9978     99.6751   5.5019689945e+01   4.7184070845e+01    0.3566174    0.2416435  59.61  0.001104927    1.811    0.448
        55  -9.4156     97.9683     88.4413   4.4807346466e+01   4.5885122813e+01    0.2174527    0.1319031  64.54 0.0005237146    2.452    0.592
        56  -8.7778    157.3445     87.2750   2.8680487449e+01   3.2749237959e+01    0.1520738     0.118666  19.61  0.000366135    1.623    0.384
        57 -11.3629     59.1241     85.3423   5.7908324805e+01   5.3484182437e+01    0.7308529    0.2834553  46.98  0.002457404    3.309    0.698
        58 -10.1341    123.9523     86.0611   3.6384639036e+01   4.0759265692e+01    0.2233671    0.2223103  79.14 0.0003129136    1.005    0.005
        59 -15.9240     65.8464    145.0695   6.7943018572e+01   3.7509570670e+01     5.267356     3.088175  57.57   0.02318898    1.911    0.477
        60 -11.6705     41.3279     74.9720   6.2550904505e+01   5.8335640430e+01    0.2587644    0.2373404  63.73  0.001005577    1.237    0.192
        61  -9.4072     97.8392     74.0817   4.0381920497e+01   4.8994465529e+01    0.2227331    0.2034325 -86.97 0.0005015365    1.234    0.190
        62  -9.5019     82.6265     74.1187   4.5598734141e+01   5.2066460172e+01    0.2404632     0.206622  56.60 0.0004939673    1.265    0.209
        63  -9.8570    211.0001    198.8068   4.2612933094e+01   2.8302557570e+00    0.1972702    0.1571366 -13.29 0.0004806299    1.118    0.106
        64  -9.9997     69.1600    195.1918   7.3583577639e+01   2.5166211840e+01     0.300666    0.2134099 -59.31   0.00168245    1.551    0.355
        65  -8.7829     91.9814     70.0619   4.0987537264e+01   5.1051197375e+01    0.1756271    0.1716871  16.66            0    1.005    0.005
        66 -13.0019    179.4958     65.5304   1.8465700796e+01   3.1211429155e+01     1.828075     1.062353  34.30  0.005752448    2.520    0.603
        67 -13.4287    195.8080     53.1984   1.2770484423e+01   2.9219863857e+01    0.9329839    0.8850164 -55.97  0.003438843    1.089    0.081
        68 -12.5356    202.2703     47.6770   1.0539468414e+01   2.8500644133e+01    0.5273812    0.5155432  59.08  0.001579812    1.198    0.165
        69 -12.7185     54.8465    190.8203   7.6703766437e+01   2.7959833661e+01    0.8330852    0.3625638  71.43   0.00305152    3.588    0.721
        70  -9.1658    147.1198     63.8818   2.3992465837e+01   3.9347833590e+01    0.2238774    0.1936492 -75.81 0.0003320277    1.223    0.182
        71 -11.1731     51.1804     58.2255   5.2975173058e+01   6.0862313235e+01    0.3852267    0.2986096 -60.42 0.0008880877    1.423    0.297
        72  -8.7702    144.2927     61.2695   2.3780472965e+01   4.0480088953e+01    0.1451728    0.1156517  25.95 0.0001592969    1.512    0.339
        73 -10.1850     60.7593     59.9898   4.9374436280e+01   5.8996775292e+01    0.2515876    0.2166801 -57.08 0.0002480118    1.258    0.205
        74  -9.7805     59.0148     56.4870   4.8867467945e+01   6.0016773577e+01    0.2437149    0.1713292  41.45  0.001065782    1.490    0.329
        75 -10.3890     73.6300     58.6414   4.3634178525e+01   5.7006747560e+01    0.2763765    0.2492186  69.49 0.0005433734    1.312    0.238
        76  -9.2007    138.3469     56.0091   2.3387803034e+01   4.2814062627e+01    0.2034183    0.1856118 -43.31 0.0003738401    1.120    0.107
        77  -9.9895    111.6034     38.4976   2.3586259371e+01   5.2126890887e+01    0.3084997    0.2332088  65.24 0.0006598803    1.326    0.246
        78 -12.2951    247.0470    244.8047   4.3889236473e+01  -7.3784148630e+00    0.4433726     0.353919  38.99   0.00333151    2.143    0.533
        79 -11.4562     20.5388    247.6333   8.7990458832e+01   2.0182791927e+01    0.1454106   0.09655852  80.09  0.001020502    1.418    0.295
        80  -8.8934     41.5501     32.5134   4.7457432221e+01   6.7405452280e+01     0.132304    0.1176458  -8.66 5.607484e-05    1.021    0.021
        81 -12.1514     54.0256    241.6461   8.0971617642e+01   1.7680736826e+01     0.248338    0.1587574  41.78  0.001439289    1.217    0.178
        82 -10.8251     61.0581     21.5688   3.2815943456e+01   6.5827862677e+01    0.2870516    0.2640781  51.42 0.0008832286    1.248    0.199
        83  -8.9646    189.4924     14.5429   3.2666840016e+00   3.5497760912e+01    0.1313112    0.1126343 -74.42 0.0001459482    1.005    0.005
        84 -10.8881     58.7487    233.2880   7.9394266142e+01   1.8679263519e+01     0.140615    0.1193109  35.15  0.000284595    1.209    0.173
        85 -11.7379     53.0533    231.4406   8.0479413335e+01   1.9702423021e+01    0.1915575    0.1534991 -69.48 0.0003966756    1.467    0.319
