#   1 NUMBER                 Running object number                                     
#   2 MAG_AUTO               Kron-like elliptical aperture magnitude                    [mag]
#   3 X_IMAGE                Object position along x                                    [pixel]
#   4 Y_IMAGE                Object position along y                                    [pixel]
#   5 X_WORLD                Barycenter position along world x axis                     [deg]
#   6 Y_WORLD                Barycenter position along world y axis                     [deg]
#   7 A_WORLD                Profile RMS along major axis (world units)                 [deg]
#   8 B_WORLD                Profile RMS along minor axis (world units)                 [deg]
#   9 THETA_WORLD            Position angle (CCW/world-x)                               [deg]
#  10 FWHM_WORLD             FWHM assuming a gaussian core                              [deg]
#  11 ELONGATION             A_IMAGE/B_IMAGE                                           
#  12 ELLIPTICITY            1 - B_IMAGE/A_IMAGE                                       
         1 -14.1766    169.5735     53.5159   6.5641549317e+01   3.5619751831e+01     2.205745     1.391043  25.45   0.00654051    2.149    0.535
         2 -14.1521    183.9526     38.2225   5.8305621055e+01   3.4017864881e+01    0.9843373    0.9396483 -57.18  0.003129798    1.047    0.044
         3 -13.6729    188.5316     31.8134   5.5618435040e+01   3.3626947313e+01    0.6507519    0.6073335 -59.87  0.001446419    1.065    0.061
         4 -13.1242    198.5450     23.5576   5.1755670537e+01   3.1972741665e+01    0.6152136    0.4648696  81.23  0.001910945    1.341    0.254
         5 -14.6895    205.9190      6.9992   4.6067434366e+01   3.1807888963e+01     1.586211     1.263249   7.17  0.004993197    1.511    0.338
         6 -13.2952    190.2475     14.1869   4.9933315192e+01   3.5188564813e+01    0.7446068    0.5724697  27.27  0.002700782    1.511    0.338
         7 -11.6247     57.8668      4.1388   7.5753686975e+01   6.7780373678e+01    0.1882256    0.1693216 -22.04  0.001253632    1.240    0.193
         8  99.0000     10.6333    206.4294   1.3044417257e+02   3.1651168732e+01    0.4205398    0.1949264  33.29  0.002671163    2.364    0.577
         9 -13.9553    246.6845    241.6111   9.3028882150e+01  -6.4089449081e+00     1.228393    0.5909202 -20.34  0.007683965    2.379    0.580
        10 -17.1625     50.9185    239.0765   1.2533901926e+02   2.1913513396e+01     7.677642     6.561208  57.38   0.06658562    1.371    0.271
        11  99.0000     15.5354    187.4325   1.2863575222e+02   3.4683419245e+01    0.1045615   0.07942173  76.02 0.0001937528    1.076    0.070
        12 -11.2627     19.7747    185.5202   1.2772355344e+02   3.4647779412e+01    0.1307388     0.101244  64.66 0.0005994641    1.141    0.123
        13 -12.1675     98.9521    181.0138   1.1123191659e+02   2.5633351557e+01    0.3609025    0.2553482  30.41  0.001149691    1.670    0.401
        14 -11.1146    204.5526    176.4199   8.9388343892e+01   7.6758253717e+00    0.3502232     0.284323 -45.81  0.001402204    1.536    0.349
        15  -9.5948    197.8063    177.1932   9.0764741533e+01   8.8072712069e+00    0.1856211    0.1378907  19.94 0.0008423256    1.339    0.253
        16  -9.9536     69.3195    172.9877   1.1657333623e+02   3.1487332914e+01    0.1903893    0.1480035  65.10  0.000454478    1.086    0.079
        17  -9.8265     65.9026    171.0217   1.1709470759e+02   3.2336303848e+01    0.2052455    0.1363865  54.80 0.0007595137    1.319    0.242
        18 -10.1768    185.1505    169.6901   9.1760113713e+01   1.2313078815e+01    0.2215335     0.185257 -48.28  0.001152265    1.417    0.294
        19 -10.5545    163.7545    169.6102   9.5966753430e+01   1.6405004299e+01    0.2293594    0.2066179 -81.89 0.0003950543    1.326    0.246
        20 -11.3917    230.2136    166.5769   8.3000496742e+01   4.3380173375e+00    0.2943207    0.1672763 -47.88  0.001395197    2.589    0.614
        21  -9.8193    192.4739    164.9586   8.9459379390e+01   1.1642592802e+01    0.1897772    0.1328013 -35.04 0.0007620694    1.554    0.357
        22 -11.7768    193.0665    194.9702   9.4729908467e+01   7.1511585849e+00     0.795123    0.4381797 -62.77  0.002884024    5.555    0.820
        23 -10.6882      1.6328    162.9993   1.3004341457e+02   4.0650170318e+01    0.1501167    0.1060932 -84.51 0.0006783278    1.207    0.172
        24 -11.9936     72.2203    211.1985   1.1967751856e+02   2.3907433120e+01     0.319544    0.2332147  23.42 0.0007251176    2.028    0.507
        25 -10.6830    161.3159    200.0770   1.0142401206e+02   1.1951959537e+01     0.197941    0.1516385  56.85 0.0005756141    1.317    0.241
        26 -11.0090    188.4078    154.8252   8.8230584390e+01   1.4041615043e+01     0.501541    0.2406661  45.41   0.00218735    1.922    0.480
        27  -9.8651      1.9087    154.0683   1.2949199575e+02   4.2437991027e+01    0.1626175    0.1100116 -56.58  0.001130812    1.779    0.438
        28 -11.8263    133.9335    145.9180   9.7937198200e+01   2.6483422235e+01     1.141557    0.2994242 -55.12  0.003002142    5.964    0.832
        29 -11.2598    113.5403    151.4309   1.0361642158e+02   2.9106786775e+01    0.4083208    0.2491211 -86.40  0.001767169    2.546    0.607
        30 -10.7126    159.4249    196.2681   1.0121345586e+02   1.2863376230e+01    0.1908865     0.185614  68.34 0.0008185102    1.188    0.159
        31 -10.7005    174.3784    148.8517   8.9799269624e+01   1.7875392814e+01    0.2834144    0.2435974  74.33 0.0009101843    1.387    0.279
        32 -10.4696    160.0855    147.6017   9.2520025913e+01   2.1001003508e+01    0.3015752    0.2008831 -63.02 0.0009816312    1.997    0.499
        33 -11.3709    143.7639    147.0287   9.5949636388e+01   2.4361855897e+01    0.3972552    0.2070476 -55.30  0.001695687    2.246    0.555
        34 -12.2230    109.5914    138.8143   1.0229347162e+02   3.2425493401e+01    0.5730878    0.3440815 -34.05  0.002502384    2.470    0.595
        35 -12.5865     98.7182    137.8702   1.0477364707e+02   3.4487876087e+01    0.2736711    0.2645367  66.64 0.0005276336    1.127    0.112
        36 -18.9828     27.2592    101.5325   1.1819177379e+02   5.1877177272e+01     14.46238     1.130505 -69.07   0.02982025   11.006    0.909
        37 -11.7442    105.8927    130.7486   1.0166615087e+02   3.4798910786e+01    0.4165143    0.3209905 -76.56  0.001174242    1.378    0.274
        38 -11.1086    104.5304    124.8655   1.0083861928e+02   3.6312686956e+01    0.2552713    0.2299485 -18.31  0.001450605    1.372    0.271
        39 -10.9322    135.6575    127.9397   9.3834309092e+01   2.9754106854e+01    0.5684572    0.1358831 -49.55  0.001576328    4.635    0.784
        40 -11.0590    116.4359    129.1957   9.8739326959e+01   3.3225529899e+01    0.3025224    0.2567546 -28.99 0.0007058489    1.416    0.294
        41 -10.8454     76.6684    206.3171   1.1841812607e+02   2.4175790775e+01    0.2302297    0.1574259 -87.37 0.0009709574    1.466    0.318
        42 -10.5098    160.9138    128.0706   8.8124631860e+01   2.4453920837e+01    0.3509181    0.2074323 -53.29    0.0013029    1.974    0.494
        43 -10.1068    120.6911    123.8093   9.6549504585e+01   3.3560808933e+01     0.222851     0.180494 -31.87 0.0007345866    1.444    0.307
        44  -9.9915    135.0000    119.9303   9.2185461150e+01   3.1519350557e+01    0.2383869   0.08375499 -46.28 0.0006863113    2.912    0.657
        45 -10.3137    111.3648    118.4970   9.7741167731e+01   3.6457164240e+01    0.2369764    0.2214212  65.89 0.0001983151    1.046    0.044
        46 -10.5884    167.9316    112.8590   8.2962303678e+01   2.5747002576e+01    0.3640189    0.2664255 -68.06  0.001131764    1.825    0.452
        47 -11.3745    119.3011    109.8483   9.3711311038e+01   3.6790741146e+01    0.5583658    0.3545194  53.95  0.002557131    1.654    0.396
        48 -10.6097    205.4365    110.0894   7.4857304107e+01   1.7699837914e+01    0.3227564    0.2146022  43.64 0.0009262394    1.492    0.330
        49 -10.3715    134.5703    105.2780   8.8727256743e+01   3.4604232944e+01    0.3677805    0.1458075 -42.10  0.001292243    2.595    0.615
        50  -9.5302     74.8275    104.1309   1.0461826747e+02   4.5762340292e+01    0.1801904    0.1532302 -39.27 0.0003182005    1.301    0.232
        51 -11.8943     64.4404    208.2347   1.2087585496e+02   2.5431628799e+01    0.2717484    0.2567047 -45.56  0.001583829    1.623    0.384
        52  -9.6119    128.2881     95.3616   8.7699826469e+01   3.7970617861e+01    0.2104685     0.139888  56.50 0.0009377091    1.618    0.382
        53  -9.5449      1.3408     91.8561   1.2469882372e+02   5.5893763916e+01    0.1575893   0.07788576 -67.34 0.0001591344    1.545    0.353
        54  -9.2880     74.9224     73.7860   9.7161699469e+01   5.2518571387e+01    0.1651826    0.1137178  35.34 0.0003503009    1.605    0.377
        55 -12.3618    167.3518     67.2525   7.0370523886e+01   3.4006291587e+01     1.172564    0.6584004 -69.21  0.002438584    3.730    0.732
        56 -11.4874    158.1379    234.8046   1.0662721149e+02   7.5859465175e+00    0.2728663    0.1940086  39.55  0.001580568    1.095    0.086
        57 -11.2005    168.1239    233.0502   1.0468827315e+02   6.2519909939e+00    0.2369446    0.1645346  51.85 0.0008821604    1.353    0.261
        58 -11.4904     71.9067    230.8365   1.2128026147e+02   2.0660622608e+01     0.192865     0.123891  63.12 0.0006959541    1.226    0.184
        59 -12.3793     66.8366    196.9948   1.1946491534e+02   2.7164541494e+01    0.3635576    0.2761199 -72.17  0.001975426    1.416    0.294
        60 -10.6588     82.1535    195.3218   1.1629711994e+02   2.5413206106e+01    0.2829195    0.2709754  61.54   0.00211111    1.331    0.249
        61 -12.3278     57.2952    212.9913   1.2255220406e+02   2.5481096333e+01     0.245621    0.1676014  48.22 0.0009873498    1.276    0.216
        62 -11.4252    220.1373     16.8580   4.7424633326e+01   2.7166672208e+01    0.2291525    0.1719636 -58.83 0.0009242399    1.296    0.228
