#   1 NUMBER                 Running object number                                     
#   2 MAG_AUTO               Kron-like elliptical aperture magnitude                    [mag]
#   3 X_IMAGE                Object position along x                                    [pixel]
#   4 Y_IMAGE                Object position along y                                    [pixel]
#   5 X_WORLD                Barycenter position along world x axis                     [deg]
#   6 Y_WORLD                Barycenter position along world y axis                     [deg]
#   7 A_WORLD                Profile RMS along major axis (world units)                 [deg]
#   8 B_WORLD                Profile RMS along minor axis (world units)                 [deg]
#   9 THETA_WORLD            Position angle (CCW/world-x)                               [deg]
#  10 FWHM_WORLD             FWHM assuming a gaussian core                              [deg]
#  11 ELONGATION             A_IMAGE/B_IMAGE                                           
#  12 ELLIPTICITY            1 - B_IMAGE/A_IMAGE                                       
         1 -10.9524    164.0327     57.4090   5.9742107480e+01   3.6612129015e+01     1.331894    0.2142638 -31.65  0.002826682    7.079    0.859
         2 -12.1085    206.6157     33.5967   4.5968016699e+01   2.9191602224e+01    0.9580216     0.861989 -85.22   0.00432963    1.035    0.033
         3 -11.7268    220.6241     17.2102   4.0231791274e+01   2.7768807505e+01     0.752807    0.6787369 -58.86  0.003360864    1.100    0.091
         4 -10.1068    164.0000     16.9541   4.7039453990e+01   4.1949713715e+01    0.5838509    0.1919668 -19.12  0.001898345    4.127    0.758
         5  -9.3655      7.9670      9.8357   9.5351863895e+01   7.2446042901e+01    0.1535704    0.1260158  40.53  0.001091114    1.993    0.498
         6  -7.9433    164.0000      2.9473   4.2702093997e+01   4.3294162818e+01    0.2049618   0.07815874 -21.64 0.0008052012    2.962    0.662
         7  -8.2841     47.7746      2.4180   7.1225554477e+01   6.8900333204e+01    0.1630447   0.09549986  27.77 0.0005298018    1.540    0.350
         8 -11.8758    126.3217    230.6582   1.0724170742e+02   9.6460823836e+00     0.632117    0.3683264  52.32  0.002929854    1.571    0.364
         9 -10.6965    243.8121    249.8827   8.8023336838e+01  -1.1203769330e+01     1.020368    0.1862268  36.19  0.003672428    4.584    0.782
        10  -9.8266    163.9994    245.4096   1.0184964601e+02   1.2481749225e+00    0.6884282   0.07998244 -46.75  0.001790414   10.379    0.904
        11 -10.8153     93.8367    242.3084   1.1479005894e+02   1.2558961106e+01    0.3808526     0.227979  35.31  0.002233983    1.655    0.396
        12 -11.5705    114.5943    242.8712   1.1093939679e+02   9.3891071385e+00    0.5236089    0.3591919  35.88  0.003257987    1.369    0.269
        13 -12.2916    100.4545    246.5643   1.1397085187e+02   1.0871857416e+01     1.559996    0.4575936  32.89  0.005071935    5.344    0.813
        14 -10.7890     84.9793    249.8101   1.1709489865e+02   1.2520369284e+01    0.9825415    0.2400481  35.94  0.003536254    4.458    0.776
        15 -11.8049     72.8240    248.0211   1.1912335576e+02   1.4476006395e+01     1.076615     0.297168  43.24  0.004931989    2.655    0.623
        16 -10.8574     62.3901    249.9158   1.2110260926e+02   1.5506171428e+01    0.6304069    0.2559673  46.71  0.001692349    1.861    0.463
        17 -10.8814     83.1942    245.0421   1.1700533424e+02   1.3586077802e+01    0.4494089    0.3351163  49.71  0.002536244    1.134    0.118
        18  -9.5188     51.3302    249.9271   1.2300790964e+02   1.6881738155e+01    0.2845415     0.115354  40.78  0.001360947    2.061    0.515
        19 -11.9836     47.1450    222.6464   1.2184947611e+02   2.2417004658e+01    0.7503765    0.4691324 -85.76  0.001386489    1.470    0.320
        20 -11.4803     28.0069    215.4756   1.2490790576e+02   2.5994729363e+01    0.8861802    0.3585915  79.89  0.002465784    2.721    0.633
        21 -14.2864      5.0929    137.8160   1.2386058625e+02   4.5036499845e+01     10.56237     1.271501 -76.36   0.02395447    9.401    0.894
        22 -13.1744      9.0678    207.2069   1.2789253188e+02   2.9531160426e+01     1.171306    0.9385603 -87.29  0.005101391    1.244    0.196
        23  -8.9039     58.9548    231.5035   1.2033432015e+02   1.9263987207e+01    0.1818416    0.1385147  85.22  0.001274256    1.191    0.160
        24  -8.1205     57.0891    224.6958   1.2013946553e+02   2.0797176356e+01    0.1603578    0.1252442  62.56 0.0005089492    1.063    0.060
        25 -10.4337     72.8104    218.6110   1.1655629421e+02   1.9922030320e+01    0.4240278    0.2691669  68.12  0.002500703    1.467    0.318
        26 -11.0063    115.0611    229.7840   1.0936687714e+02   1.1580966832e+01    0.4389095    0.2959178 -77.11  0.002544215    1.821    0.451
        27  -9.9234     54.0564    231.1438   1.2120862128e+02   1.9946218071e+01    0.2307385    0.1418899 -86.30 0.0009798295    1.552    0.356
        28  -9.9932    144.5414    230.0611   1.0354691204e+02   6.7911984909e+00    0.2461827    0.1714225 -51.08  0.001449366    1.720    0.419
        29  -7.7358    193.6715    196.3205   8.8119149157e+01   3.9348284825e+00    0.1290996    0.1101092  73.58 0.0007048027    1.688    0.408
        30 -11.6005     38.1584    208.1085   1.2246565988e+02   2.6371416114e+01    0.5091229    0.3852102  39.52  0.001517978    1.476    0.322
        31 -14.2862      8.8383    240.0017   1.2952233345e+02   2.3315696405e+01     2.623944     1.736967  77.79    0.0204426    1.120    0.107
        32 -10.2877    122.3575    225.5014   1.0738717989e+02   1.1191825534e+01    0.3742906    0.2995351 -56.86  0.002058127    1.460    0.315
        33 -10.2734     64.1791    180.0770   1.1426846546e+02   2.9265258392e+01    0.4180811    0.2638267 -37.97  0.002052326    2.421    0.587
        34 -10.1518     69.1065    174.5713   1.1244421248e+02   2.9860660726e+01    0.3018705    0.2514362 -41.36 0.0007793278    1.511    0.338
        35  -7.9051     50.2904    181.6203   1.1757163071e+02   3.0660625967e+01    0.1373691   0.08019618  72.59 0.0007018195    1.741    0.426
        36  -7.7922     99.4955    180.5565   1.0615262771e+02   2.3967017591e+01    0.1390948    0.1240595  69.98 0.0001233363    1.023    0.023
        37  -7.9831     41.4922    178.5474   1.1921370622e+02   3.2367201974e+01    0.1248427    0.1025217  84.60 1.811536e-05    1.019    0.019
        38  -8.3105    114.5145    174.5010   1.0164349310e+02   2.2786601435e+01    0.1440045    0.1312148  69.05 0.0008101342    1.043    0.042
        39 -10.4460     73.2449    153.9411   1.0848973492e+02   3.4137726794e+01    0.5742264    0.3269918  60.91   0.00259072    2.064    0.515
        40  -9.5026     77.4286    158.6962   1.0816564368e+02   3.2405116859e+01    0.3082664    0.2348388 -86.47  0.001216669    1.301    0.231
        41  -9.9815     78.5790    164.6754   1.0878818463e+02   3.0825903717e+01     0.316995     0.239112 -66.68 0.0005712219    1.257    0.204
        42 -11.1592     84.9748    158.7189   1.0626248969e+02   3.1277374951e+01     1.049697    0.6325693 -60.02  0.003570351    1.584    0.369
        43 -11.7066     65.9240    160.7574   1.1135192609e+02   3.3513968151e+01    0.4819154    0.2845013 -47.82   0.00143321    1.904    0.475
        44  -8.8696     33.0198    156.4621   1.1889407838e+02   3.8347658764e+01     0.206571      0.14132 -75.61 0.0006424269    1.225    0.183
        45  -9.2357     22.9887    156.5029   1.2129286997e+02   3.9286078309e+01    0.2005591    0.1351989 -43.91  0.001174201    1.865    0.464
        46  -9.4198     23.6858    153.3217   1.2081344101e+02   3.9963886533e+01    0.3533788   0.08118008  39.70  0.001390058    3.758    0.734
        47 -11.4178     68.5519    144.5037   1.0820665883e+02   3.7064887425e+01    0.7550979    0.5020078  71.15  0.002912903    1.750    0.429
        48 -13.8722     45.5139    198.0854   1.2017335660e+02   2.7622640439e+01     4.734859     1.358179  54.37   0.01784012    3.763    0.734
        49  -8.7098     99.1202    143.6672   9.9884782083e+01   3.2587228952e+01    0.2637583    0.2005146 -73.76  0.001309123    1.381    0.276
        50 -10.5629     87.1674    142.1613   1.0279587635e+02   3.4906099193e+01    0.4157779    0.2984508  29.79 0.0009144227    1.582    0.368
        51  -8.4303    101.9891    140.0199   9.8386445646e+01   3.2965633774e+01    0.2398244    0.1816265 -22.55  0.001126267    1.751    0.429
        52 -10.4294     59.1979    134.9776   1.0917842976e+02   4.0605338707e+01    0.5543289    0.2729118 -83.24  0.002104792    2.921    0.658
        53  -8.6195    109.9187    131.8573   9.4495201235e+01   3.3486428621e+01    0.2597446    0.2150734  20.15 0.0006381921    1.399    0.285
        54  -8.5080    106.0068    130.9934   9.5370639218e+01   3.4407079129e+01    0.2421493    0.2284379 -80.56  0.001314814    1.052    0.049
        55 -10.4234     95.6061    225.1982   1.1270630511e+02   1.5393927263e+01    0.6497099    0.3563799 -85.21  0.003198591    2.504    0.601
        56  -9.1121     97.3428    128.0628   9.7127164757e+01   3.6637816722e+01    0.2655911    0.2358156  -2.33 0.0007061757    1.332    0.249
        57  -8.1208    164.2215    128.0453   7.9768264114e+01   2.3071087362e+01    0.2185363    0.1282475 -41.03 0.0008791842    1.694    0.410
        58  -8.6273     33.0000    124.0051   1.1482073014e+02   4.6115102200e+01    0.2203073   0.06273557 -67.68 0.0007216776    2.914    0.657
        59  -7.9992    164.0000    122.9420   7.8532212702e+01   2.4192314761e+01    0.2691714   0.08940736 -41.94 0.0008078317    2.980    0.664
        60  -7.9655    107.4520    119.9975   9.2422914278e+01   3.6749849190e+01    0.2204717    0.1443162 -47.47 0.0003408163    1.471    0.320
        61 -11.1742     84.1348    232.0672   1.1564284506e+02   1.5778479146e+01    0.6544277    0.3219798 -88.58  0.003041842    3.005    0.667
        62  -8.4454    168.4271    113.2406   7.4987664932e+01   2.5188170335e+01    0.2291821    0.1473351 -50.85 0.0006744224    1.668    0.401
        63  -9.2331     33.0000    109.4784   1.1254796209e+02   4.9624432309e+01    0.4314488   0.06300618 -65.79  0.001128385    5.659    0.823
        64  -8.3395    205.8377    110.4877   6.6508723969e+01   1.7072473416e+01    0.3080588    0.1479122  48.05  0.001189345    2.166    0.538
        65  -8.0531    164.0000    108.0563   7.4613751834e+01   2.7278894304e+01    0.2644395   0.08980256 -40.28  0.000718582    2.901    0.655
        66 -11.1160     89.3261    228.6171   1.1430010717e+02   1.5675742449e+01    0.4126694    0.2616331 -87.76 0.0006622562    1.787    0.440
        67  -9.2283    134.7889    103.6464   8.0629274382e+01   3.4885821449e+01    0.5847316    0.1226389 -45.63  0.001397749    4.839    0.793
        68  -9.8124     33.0000     96.4720   1.1020889396e+02   5.2735232326e+01    0.7459514   0.06300554 -63.97  0.001493088    9.785    0.898
        69 -10.0213    163.8252     91.2307   6.9949584551e+01   3.0675726076e+01    0.5592266    0.1557776 -40.64  0.001582372    3.459    0.711
        70  -9.9794    164.0000     82.0519   6.7234125642e+01   3.2373339150e+01    0.6399373    0.1470207 -33.30  0.001441872    5.685    0.824
        71  -8.1138    114.7537     83.7112   8.0334241984e+01   4.3452211042e+01    0.2459057    0.1220525 -52.48 0.0007945546    2.356    0.576
        72 -11.5256     83.6540    224.7699   1.1502185535e+02   1.7214911845e+01    0.6839373    0.3976399  61.13  0.003079455    1.604    0.376
        73  -7.6477     61.4935     71.4973   9.4035381564e+01   5.5320353811e+01     0.138708    0.1226006 -36.86 0.0008103306    1.040    0.038
        74 -11.0893    164.3398    221.3565   9.8325972993e+01   4.9204552936e+00     0.885977    0.2238975 -47.51  0.003041442    4.696    0.787
        75  -8.0449    174.3381    248.6706   1.0034797657e+02  -8.4278676865e-01    0.1174957   0.08573619  58.84 0.0007051904    1.734    0.423
        76 -10.0414     13.2560     59.8959   1.0956166734e+02   6.2507176556e+01    0.2407683    0.1824796 -75.61 0.0006653248    1.437    0.304
        77  -8.0057     32.7065     50.4863   9.8802834509e+01   6.2997887701e+01    0.2310325   0.09595946 -52.19  0.001063254    2.027    0.507
        78  -9.2778    140.0679     45.7413   6.1069241037e+01   4.4414176866e+01    0.3387221    0.2647133 -86.35  0.001509147    1.650    0.394
        79 -11.5894    197.3931     39.1808   4.8704571243e+01   3.0761487948e+01    0.6378801    0.4116822  51.80  0.002708856    1.591    0.372
        80 -10.6677     63.1135    237.7742   1.2006375420e+02   1.7570767252e+01    0.3991388    0.2284513  50.28  0.001234603    1.389    0.280
        81  -9.9543    125.0000    244.4895   1.0914529426e+02   7.5279693193e+00    0.2749245    0.1411375 -68.36  0.001378711    2.849    0.649
        82 -10.3272    163.9009     34.4356   5.2555070918e+01   3.9938148433e+01    0.6579158    0.1328434 -26.58  0.001628754    6.008    0.834
        83 -10.6293    213.3782     25.3566   4.3022938594e+01   2.8556613057e+01    0.5073112    0.3323014  37.50  0.001142561    2.030    0.507
        84 -11.3481    107.1250    229.3976   1.1089117243e+02   1.2878715221e+01    0.6390975    0.2287915  45.63  0.002822704    2.303    0.566
        85 -10.9064    126.3924    240.1028   1.0837159069e+02   8.0319468222e+00    0.3556754     0.187764  32.61  0.001834634    1.889    0.471
        86 -10.1839     52.7560    240.9036   1.2215178177e+02   1.8306366874e+01    0.2765119     0.145444 -63.21  0.001679753    2.145    0.534
        87 -11.0701    134.4070    230.6091   1.0563173762e+02   8.3529258904e+00    0.6241618    0.2505286 -53.59  0.002827667    2.977    0.664
