#   1 NUMBER                 Running object number                                     
#   2 MAG_AUTO               Kron-like elliptical aperture magnitude                    [mag]
#   3 X_IMAGE                Object position along x                                    [pixel]
#   4 Y_IMAGE                Object position along y                                    [pixel]
#   5 X_WORLD                Barycenter position along world x axis                     [deg]
#   6 Y_WORLD                Barycenter position along world y axis                     [deg]
#   7 A_WORLD                Profile RMS along major axis (world units)                 [deg]
#   8 B_WORLD                Profile RMS along minor axis (world units)                 [deg]
#   9 THETA_WORLD            Position angle (CCW/world-x)                               [deg]
#  10 FWHM_WORLD             FWHM assuming a gaussian core                              [deg]
#  11 ELONGATION             A_IMAGE/B_IMAGE                                           
#  12 ELLIPTICITY            1 - B_IMAGE/A_IMAGE                                       
         1 -13.6286    160.6705     91.5091   5.0978185678e+01   3.1918244843e+01     8.203876     1.765645 -46.37 0.0008460041    8.072    0.876
         2 -14.2169    229.0653     92.5629   4.0517926763e+01   1.8221488538e+01      5.98279     1.183202 -42.26    0.0167118    5.885    0.830
         3 -14.2831    240.9951     66.6573   3.3142358062e+01   1.9354874756e+01      4.45785     1.330514  61.68   0.01314864    4.034    0.752
         4 -13.9222    220.6614     80.0002   3.8548923231e+01   2.1410447170e+01     3.399965      3.12301  -6.54   0.01905095    1.146    0.127
         5 -13.4885    246.6208     76.8100   3.4933593045e+01   1.7162095960e+01     2.546513    0.2134619 -32.77  0.002856196    5.134    0.805
         6 -13.3484    249.2582     44.6117   2.7305111194e+01   2.0382636531e+01     1.765267    0.5913888 -26.07  0.004824401    2.433    0.589
         7 -13.9129    192.8456     49.4811   3.3878128275e+01   3.1137030844e+01     20.12702     3.517452 -42.21   0.05601537    4.844    0.794
         8 -12.8283    233.4407     34.6550   2.6103504580e+01   2.4394300992e+01     3.135883     1.101934 -17.58  0.009393009    3.635    0.725
         9 -12.7991    246.7014     10.3698   1.9531569964e+01   2.4268855183e+01     1.325304    0.4958885 -17.22  0.005457749    2.937    0.660
        10 -13.3295    180.5330     81.9265   4.4740185100e+01   2.9228931656e+01     2.942477     1.140399 -34.80  0.004748949    2.272    0.560
        11  -9.6798     79.0589     19.3111   4.3876217691e+01   6.2926848971e+01    0.6237021    0.1881858 -28.29  0.002053375    3.325    0.699
        12 -10.1141    120.1344      9.3028   2.9846497069e+01   5.3690297726e+01    0.4111622     0.312186 -38.21 0.0009858261    1.303    0.232
        13  -9.0212    118.2203      3.8074   2.7757791384e+01   5.4673636534e+01    0.2740691    0.1925175  69.74  0.001413151    1.369    0.270
        14  -9.0898    182.9264      4.0604   2.1440168713e+01   3.8335959527e+01    0.3713627    0.1830556 -37.33  0.001800654    1.717    0.418
        15  -8.3618    147.0640      5.9458   2.5105711973e+01   4.7024490109e+01    0.2010309     0.191057 -56.67 0.0004212821    1.030    0.029
        16  -8.7384    158.6247      3.8681   2.3267112311e+01   4.4274942601e+01    0.3319361    0.1625157 -14.99  0.001453292    2.200    0.545
        17  -8.8119    136.7749      5.0807   2.5907041867e+01   4.9744409638e+01    0.2128021     0.173066 -49.22  0.000485703    1.190    0.160
        18  -8.6159    230.1266      1.8560   1.8253142032e+01   2.8219898573e+01    0.1706893     0.143088 -36.15 0.0004168204    1.106    0.096
        19  -8.9480    206.7128      2.2750   1.9488696564e+01   3.3078670692e+01    0.3015384    0.1775186   4.07  0.001486913    2.375    0.579
        20 -10.5944    235.3284      2.6167   1.8213166710e+01   2.7126928321e+01    0.2877676    0.2222191  40.38 0.0008276981    1.738    0.425
        21 -12.1609    215.2154     25.0782   2.5025103963e+01   2.9087369908e+01     1.434802    0.8794091  35.63  0.007400668    2.289    0.563
        22 -11.8691    218.9238     33.7793   2.7008182915e+01   2.7390577867e+01      4.65202     2.234315 -18.47   0.01508087    2.159    0.537
        23  -7.7064    171.4392    186.1598   6.9477005885e+01   1.3915399095e+01    0.1490008    0.1156305 -49.53 0.0005733875    1.658    0.397
        24 -10.1039    187.5673    250.3685   7.5768046271e+01   3.6232523217e+00    0.1805053     0.104157  24.33  0.001284041    1.316    0.240
        25  -9.2215    154.0932    249.4887   8.1413370946e+01   7.4552250422e+00    0.2412899    0.1476206  36.58  0.001166738    1.449    0.310
        26  -9.3085    155.7419    245.0663   8.0620683493e+01   7.8104633152e+00    0.1901185    0.1385127  14.69 0.0003741536    1.123    0.110
        27  -8.3822    135.7114    249.9845   8.4778368254e+01   9.4861801729e+00    0.2239643    0.0967337  46.40  0.001171479    2.755    0.637
        28  -9.9759    242.3694    182.4056   5.6949777622e+01   4.8917757455e+00    0.3343848    0.1768609   0.32  0.001103938    2.172    0.540
        29  -8.4857     11.0050    188.8776   1.0635667682e+02   3.3495144280e+01    0.1643074    0.1370494  55.84 0.0002915099    1.070    0.066
        30 -10.1763    220.5871    174.2394   5.8792156787e+01   8.6653981246e+00    0.5114675     0.374353 -56.05  0.002662679    2.617    0.618
        31 -10.1559    238.2582    175.6377   5.6359132058e+01   6.1837676733e+00    0.3149923    0.2491519  61.14  0.001274538    2.650    0.623
        32 -11.1597    229.8400    169.2478   5.6455112876e+01   8.0500080382e+00    0.6332714    0.3434939 -20.61  0.003619941    1.649    0.394
        33  -9.4896    213.8016    176.3964   6.0267685194e+01   9.3096212496e+00    0.2372256    0.2185006  62.91  0.001106208    1.850    0.459
        34  -7.4943    189.6508    171.3307   6.3485717409e+01   1.3457305426e+01    0.1106673    0.1018275  88.50 2.293095e-05    1.767    0.434
        35  -9.6622    157.6513    167.3664   6.8936381039e+01   1.9003705395e+01    0.2254335    0.2033649   3.25 0.0002890996    1.029    0.028
        36 -10.3381    242.5001    165.8255   5.3974436089e+01   6.8019051169e+00    0.2205278    0.1695676  23.90  0.001128144    1.375    0.273
        37  -7.8314    163.0182    164.9502   6.7394802099e+01   1.8559880828e+01    0.1560438    0.1367522  10.83  0.000414023    1.032    0.031
        38  -8.2846    199.9146    163.9198   6.0289621501e+01   1.2999924680e+01    0.1629986      0.15374 -71.21 0.0004873769    1.644    0.392
        39  -9.0604    249.7090    246.5312   6.5736905675e+01  -2.3319382142e+00    0.2151931   0.06946401 -34.99  0.001219421    3.529    0.717
        40  -9.0565    156.8845    240.6302   7.9899765915e+01   8.2324903415e+00     0.163611    0.1269248  -8.32 0.0004857903    1.309    0.236
        41 -12.9372    236.0928     74.7995   3.5549117682e+01   1.9241967926e+01    0.8801025    0.5995412 -36.50  0.002017206    1.212    0.175
        42  -8.2909    184.9842    239.0027   7.4776996935e+01   5.1758624986e+00    0.1416263    0.1157112  37.38 0.0003522654    1.601    0.375
        43 -10.5138    194.1169    156.6568   5.9897119604e+01   1.4947288998e+01    0.5768589    0.3887054 -52.66  0.001883838    2.123    0.529
        44  -8.2570    101.0667    159.9332   8.0651268484e+01   2.9327733051e+01    0.1628651    0.1492713   0.44  0.000974605    1.177    0.150
        45 -10.6018     12.7897    159.7354   1.0449182287e+02   3.9769596010e+01    0.2843791    0.1678306  41.83  0.001118891    1.501    0.334
        46 -10.2098    123.7134    232.2676   8.5175285621e+01   1.3332240810e+01    0.1974727    0.1760735  11.54 0.0004239794    1.153    0.133
        47  -8.1660    205.7652    155.3950   5.7645312374e+01   1.3331654524e+01    0.1707619    0.1059758  25.92 0.0008448319    1.650    0.394
        48 -10.4304     64.2343    141.9944   8.7920963280e+01   3.8642016378e+01     3.042405    0.7937724  40.66   0.01023135    3.380    0.704
        49 -12.6220     30.3598    147.7557   9.8635231672e+01   4.1084601938e+01    0.8369589    0.7390779 -10.58  0.002210068    1.423    0.297
        50 -12.1771     44.0150    143.7993   9.4173223756e+01   4.0645660344e+01    0.7915447    0.7151085  49.52  0.003366276    1.103    0.093
        51  -8.4487    244.3150    159.6795   5.2580193309e+01   7.2972516101e+00    0.1020807   0.08340815 -39.88 0.0003865433    1.656    0.396
        52  -8.4702    203.4190    151.5621   5.7277345849e+01   1.4242729322e+01    0.2193175    0.1850299 -85.46  0.001287911    2.168    0.539
        53  -8.3001    181.9652    151.1814   6.1014474440e+01   1.7739345871e+01    0.1791197    0.1710895 -24.97 0.0004849374    1.245    0.197
        54  -9.0617    164.8312    149.1788   6.3949377717e+01   2.0936411473e+01    0.4581808    0.2474135 -62.43  0.001538114    4.803    0.792
        55  -9.6237    133.9061    145.8593   7.0029080764e+01   2.6866970875e+01    0.8048861    0.2271603 -52.87  0.002314524    4.946    0.798
        56  -8.9901    173.4375    149.5516   6.2312345248e+01   1.9420039799e+01    0.2415614    0.1157196  30.08  0.001033912    2.402    0.584
        57 -10.4134      9.4960    148.5020   1.0476530457e+02   4.2665163059e+01    0.2635033    0.1592793 -68.88 0.0009970359    1.600    0.375
        58 -11.9816     13.9272    142.6623   1.0309213528e+02   4.3739547265e+01    0.5875422     0.456482  65.45  0.003636457    1.129    0.114
        59 -10.4700    213.6441    140.6611   5.3380390747e+01   1.4193855107e+01    0.3457539    0.2515454 -35.01 0.0007967277    1.336    0.252
        60  -8.1222    204.5006    144.4774   5.5654152180e+01   1.5100425490e+01    0.1265945    0.1086246 -13.46 0.0001918901    1.066    0.062
        61  -9.1622    201.4075    140.2827   5.5297126182e+01   1.6218494160e+01    0.4535963     0.222547 -51.06  0.001841157    3.334    0.700
        62 -10.0682    192.8337    143.5849   5.7470469008e+01   1.7133344806e+01    0.4381558     0.263395   9.73  0.001792267    2.292    0.564
        63  -7.9085    154.3277    144.3340   6.5139243106e+01   2.3602244303e+01    0.1435765     0.102662  -2.19 0.0001567374    1.719    0.418
        64  -8.7381    143.4361    143.9392   6.7448380375e+01   2.5581126286e+01     0.206899    0.1323819 -43.23 0.0005788639    1.570    0.363
        65  -9.2384    147.1320    143.1598   6.6460899634e+01   2.5079674512e+01    0.1843825    0.1707872 -89.08  0.001078263    1.346    0.257
        66  -9.1850    223.7264    145.9256   5.2899112732e+01   1.1923260773e+01    0.2964936    0.2394282 -75.22 0.0008786086    2.458    0.593
        67  -9.5641    146.5197    139.0255   6.5722361505e+01   2.5965116528e+01     0.315358    0.1944584  36.35  0.001077732    1.628    0.386
        68  -8.3540    137.3260    137.9114   6.7580686950e+01   2.7825292395e+01    0.2750484    0.1273241 -52.60  0.001078427    2.499    0.600
        69  -9.1075    217.7489    145.3317   5.3695696191e+01   1.2907120372e+01    0.3394794    0.2077499 -17.09  0.001488656    1.549    0.354
        70 -10.0320    160.2024    128.8762   6.0515440836e+01   2.5339096710e+01    0.4630677     0.336214 -18.10  0.002382075    1.494    0.331
        71  -9.3841    136.5205    129.3048   6.5877887546e+01   2.9671317690e+01    0.4735096    0.2533695 -55.32  0.001585673    2.262    0.558
        72  -8.1236    210.4673    129.9030   5.1597420376e+01   1.6241500812e+01    0.1932128    0.1101997 -32.29 0.0007528694    1.530    0.346
        73  -9.6095    223.4418    128.6587   4.9360839804e+01   1.4301844649e+01    0.2587688    0.1894891  12.49 0.0006114423    1.430    0.301
        74  -9.5930    169.4675    127.4790   5.8311893514e+01   2.3865880586e+01    0.2657113    0.2345407 -42.38  0.001016152    1.200    0.167
        75  -9.2425    201.9773    125.7388   5.2045375796e+01   1.8295478097e+01    0.2209398    0.1646098 -48.62 0.0005069436    1.572    0.364
        76 -10.3370    224.0654    120.1674   4.7433870063e+01   1.5360299437e+01    0.6236395     0.314084 -53.66  0.002476569    3.857    0.741
        77  -8.6337     52.9367    123.8618   8.8624993442e+01   4.4544575206e+01    0.2074772    0.1877011  76.77 0.0003920748    1.050    0.048
        78  -8.4027    205.5952    122.2337   5.0674517583e+01   1.8189457280e+01    0.2420542    0.1085541 -37.12 0.0006722515    1.985    0.496
        79 -10.0394    167.6882    120.8735   5.7122649292e+01   2.5348956697e+01    0.4952068    0.3400744 -33.45   0.00193072    1.372    0.271
        80 -11.9739    236.5490     60.1798   3.2032098887e+01   2.0928868453e+01    0.6105303    0.3302723 -26.76  0.001594164    1.530    0.347
        81  -9.3285    200.4639    116.3924   5.0164779837e+01   1.9971074633e+01    0.3787242    0.2193643  34.80  0.001879353    1.957    0.489
        82  -8.8096     86.9375    116.0441   7.6257185904e+01   4.1488525942e+01     0.276171    0.1972688 -57.12 0.0008125929    1.376    0.273
        83 -10.3033    173.1550    111.1674   5.3703304866e+01   2.5964229196e+01    0.7193084    0.2834981 -49.85  0.002399934    3.574    0.720
        84 -11.9850    122.8458    102.2967   6.2596005876e+01   3.7851464237e+01      1.22927     1.122436 -62.69  0.005607046    1.148    0.129
        85 -10.2184    208.9416    106.5747   4.6547040327e+01   1.9889716566e+01     0.422255    0.2579814 -43.79 0.0008324241    1.644    0.392
        86  -9.0253    224.6614    231.8051   6.7380610390e+01   1.5637246846e+00    0.1784528    0.1293622 -49.60  0.001183301    3.055    0.673
        87 -10.0689    134.8193    110.7370   6.1818907443e+01   3.3709870193e+01    0.6375802    0.1870012 -42.26  0.001989691    3.332    0.700
        88 -11.1788    136.0104    101.0916   5.8992191727e+01   3.5382083389e+01    0.6948594    0.4642452 -37.99 0.0007091082    1.452    0.311
        89  -8.4635    144.2374    107.6265   5.8813761576e+01   3.2416131106e+01    0.2125984    0.2051006 -77.73  0.000556618    1.147    0.128
        90  -9.5647    141.5512    104.3303   5.8562852543e+01   3.3601760550e+01    0.3203796     0.248846 -54.90 0.0009002533    1.388    0.279
        91  -7.5885     84.2455    108.2903   7.5315494613e+01   4.3786246057e+01    0.1413956    0.1124547 -27.41 0.0001898914    1.472    0.320
        92 -10.1688     72.5832    107.4391   7.8920858179e+01   4.5894505614e+01    0.2610621    0.2505314 -75.70 0.0002460696    1.009    0.009
        93  -9.2523    150.5857    104.6995   5.6637972779e+01   3.1667873132e+01    0.2908129    0.2566454  -0.92 0.0006017843    1.192    0.161
        94  -9.0356    240.4543    228.3634   6.4523618447e+01   2.5045147371e-01    0.2047585   0.09193336  11.01  0.001154745    2.519    0.603
        95 -10.5488    144.4585     95.5650   5.5518638907e+01   3.4662466011e+01    0.3920642    0.3487495  84.12 0.0006643955    1.324    0.245
        96 -10.1978    205.8284    109.6088   4.7733077720e+01   2.0012014860e+01    0.4113002    0.3134154  31.11  0.001767587    1.435    0.303
        97  -9.6304    121.2714     90.9666   5.9823254310e+01   4.0516277944e+01    0.3895686    0.2286946  51.20  0.001657636    1.819    0.450
        98  -9.9990    124.9546     84.2968   5.6881114351e+01   4.1060958656e+01    0.5467188    0.2335084 -45.46   0.00198583    2.306    0.566
        99  -7.8991    148.4593     83.4945   5.1186104641e+01   3.6000683510e+01    0.1491725    0.1392091 -17.57 0.0001461762    1.066    0.062
       100  -8.7695     75.0070    223.9774   9.4266721483e+01   2.0390667921e+01     0.167659     0.136914  39.88 0.0003068304    1.019    0.019
       101 -10.2835    156.3451     76.8672   4.7620127679e+01   3.5376905656e+01    0.5297018    0.2496578 -44.96 0.0007232365    2.111    0.526
       102  -9.1364    140.5999     79.0979   5.1569005819e+01   3.8554295618e+01    0.3571847    0.2249124  60.44  0.001309435    1.809    0.447
       103  -8.3104    132.3227     78.9729   5.3430587012e+01   4.0446158006e+01      0.21582    0.1875567 -46.69 0.0005709337    1.121    0.108
       104  -8.1384     84.9925     77.9938   6.6697005962e+01   5.0731264756e+01    0.1923459    0.1626085 -48.53 0.0004849652    1.133    0.117
       105  -9.4574    126.2398     75.3382   5.3752469861e+01   4.2503512288e+01    0.3406612    0.2570608 -44.08  0.001041844    1.278    0.218
       106  -9.5741    151.2659     71.5475   4.7002133826e+01   3.7429111302e+01    0.3073743    0.2415438 -45.94 0.0002547029    1.232    0.189
       107  -8.0926     84.4015     73.1819   6.5325794422e+01   5.1918289249e+01    0.2234141    0.1397356 -57.22 0.0009531394    1.713    0.416
       108  -8.5237    163.6042     69.1119   4.3950262199e+01   3.4985418647e+01    0.3157376    0.1468332 -41.95  0.001262603    2.012    0.503
       109  -9.8810      1.7019    159.7503   1.0748765848e+02   4.0584446345e+01    0.4740183    0.1349194 -79.12  0.001934267    3.108    0.678
       110  -8.7635    140.4723     64.4348   4.6937922906e+01   4.1144226371e+01    0.1478493    0.1422516 -26.00 0.0004259465    1.036    0.035
       111 -10.1390    135.4501     60.8762   4.6820658202e+01   4.2933489930e+01    0.5269372    0.2827211 -32.26  0.001447771    1.823    0.452
       112  -8.8065    125.6644     63.0139   4.9780156567e+01   4.4889010305e+01    0.2177341    0.1850825 -39.41 0.0005017941    1.128    0.113
       113  -9.5312    207.8716     60.7196   3.5175217639e+01   2.6468273936e+01    0.2376744    0.1957998 -16.96 0.0002261631    1.193    0.162
       114  -9.2939    144.4583     59.4506   4.4477560092e+01   4.1011512048e+01    0.2767923    0.2389657 -50.56  0.000592489    1.138    0.121
       115  -8.7821    186.0314     58.8409   3.7423526282e+01   3.1414364579e+01    0.2764731    0.1738603 -39.43  0.001369524    1.411    0.292
       116  -7.8698     72.5895     58.4279   6.4347983068e+01   5.7424422595e+01     0.146877    0.1391449 -52.69 0.0001679943    1.051    0.049
       117  -7.9226    104.4733     55.5174   5.2579089663e+01   5.1189164356e+01    0.1509988    0.1446119 -52.19 9.657664e-05    1.042    0.040
       118  -8.9494    110.0171     54.0330   5.0483065566e+01   5.0162837280e+01     0.221138     0.209942 -39.11  0.001200026    1.021    0.020
       119  -8.9734    179.7240     51.0836   3.6018925406e+01   3.3896470117e+01    0.2630618    0.2270874 -20.73  0.001501037    1.149    0.130
       120  -9.6983    199.3454     46.5424   3.2305531003e+01   3.0073479817e+01    0.4157208     0.202986 -29.58  0.001718321    1.768    0.434
       121  -8.3379    111.2548     44.0219   4.6251257995e+01   5.1546901939e+01    0.2086381    0.1865959 -32.83 0.0004251087    1.093    0.085
       122  -7.9670     80.6007    222.5103   9.2968453378e+01   2.0005013228e+01     0.112544   0.09345067  39.91 9.072852e-05    1.023    0.023
       123  -9.3165    123.3306     37.6748   4.0947578717e+01   4.9515938240e+01    0.2429086    0.1678559 -64.34 0.0009631751    1.726    0.421
       124  -8.3804    220.9813    160.7709   5.6229812906e+01   1.0354205011e+01    0.1615914    0.1446756 -10.36 0.0005621564    1.267    0.211
       125  -8.1314    164.3540     30.7366   3.1680866531e+01   4.0129851942e+01    0.1923652    0.1298005 -15.15 0.0004289539    1.601    0.376
       126  -9.0183    166.3783     35.1120   3.2845843196e+01   3.9110658805e+01     0.298122     0.227087 -69.42  0.001300766    1.389    0.280
       127  -8.6266     78.2303     34.4299   5.1842761756e+01   6.0852811533e+01    0.2540967    0.1912085 -32.95 0.0005489104    1.296    0.229
       128  -8.7266    147.1703    219.6344   7.9118593145e+01   1.2253255362e+01    0.1559357    0.1484684   6.50 0.0003884974    1.257    0.205
       129  -8.4710    159.5626     29.5236   3.1897617228e+01   4.1453994140e+01    0.2656474    0.1925465 -25.15 0.0007405592    1.348    0.258
       130  -9.3027    157.0223     26.9604   3.1361379819e+01   4.2383015696e+01    0.2091852    0.1967841 -38.70 0.0003578022    1.046    0.044
       131  -8.3146     78.7191     29.0335   4.9024817846e+01   6.1610440055e+01    0.2036509    0.1797276 -23.01 0.0004058057    1.112    0.101
       132  -7.8059     92.1846     27.6843   4.4199916812e+01   5.8645676679e+01     0.220064    0.1135348 -19.28 0.0006455727    2.328    0.570
       133  -8.9357    224.4438    218.6582   6.5503266690e+01   2.9640452407e+00    0.2296114    0.1633794  41.89  0.001485298    2.106    0.525
       134  -9.7008    179.1533     23.8765   2.7814294700e+01   3.7319632075e+01    0.4532467    0.3247624  68.03  0.001975519    1.474    0.322
       135  -8.9164     33.7175    218.5834   1.0265731914e+02   2.5652163073e+01    0.2023147   0.09719723  24.33  0.001119859    2.029    0.507
       136 -12.9338    201.8291     85.9124   4.2519755145e+01   2.4239493191e+01     2.401866     1.346504  21.97  0.009780282    3.080    0.675
       137  -7.2752    190.2976     15.3400   2.4245213077e+01   3.5577037612e+01    0.1286724   0.09791104  26.62 0.0007033298    1.661    0.398
       138  -9.3483     37.1347    214.3321   1.0169485479e+02   2.6111799406e+01    0.2218494   0.09999637  19.54  0.001101241    2.578    0.612
       139  -8.3370    246.9998    211.0244   6.0975941940e+01   1.2856609722e+00    0.1271257   0.08900768   1.87  0.000408177    1.037    0.035
       140  -8.9468    189.3434    210.5780   7.0068361339e+01   8.1028479946e+00    0.2356528    0.1889972  59.84  0.000967013    2.314    0.568
       141  -7.3929    228.3315    207.2569   6.3154672263e+01   3.7654880017e+00    0.1093642   0.06430063   5.25 0.0003280423    1.564    0.361
       142  -8.5870    206.9851    206.0815   6.6374101517e+01   6.4571009714e+00    0.1452736    0.1342573  37.30 0.0007057445    1.704    0.413
       143  -9.2569      7.6630    204.3287   1.0768947023e+02   3.0642598956e+01    0.1786474     0.153809  53.76 0.0002823426    1.142    0.124
       144  -8.1839     22.5659    201.7815   1.0426500072e+02   2.9886385868e+01    0.1599813   0.09114648  75.63 0.0009503483    1.675    0.403
       145  -9.9318    192.0054    192.9274   6.6821720450e+01   1.0078312477e+01    0.5831985    0.3543363 -60.25  0.002482885    4.820    0.793
       146  -7.9385     66.9705    200.4787   9.4005208505e+01   2.5584405647e+01    0.1587667   0.07644849  51.32 9.302082e-05    1.991    0.498
       147 -10.7699    212.7802    185.9884   6.2119312504e+01   8.2127651917e+00    0.3897427    0.2740502 -28.35  0.002616002    1.379    0.275
