#   1 NUMBER                 Running object number                                     
#   2 MAG_AUTO               Kron-like elliptical aperture magnitude                    [mag]
#   3 X_IMAGE                Object position along x                                    [pixel]
#   4 Y_IMAGE                Object position along y                                    [pixel]
#   5 X_WORLD                Barycenter position along world x axis                     [deg]
#   6 Y_WORLD                Barycenter position along world y axis                     [deg]
#   7 A_WORLD                Profile RMS along major axis (world units)                 [deg]
#   8 B_WORLD                Profile RMS along minor axis (world units)                 [deg]
#   9 THETA_WORLD            Position angle (CCW/world-x)                               [deg]
#  10 FWHM_WORLD             FWHM assuming a gaussian core                              [deg]
#  11 ELONGATION             A_IMAGE/B_IMAGE                                           
#  12 ELLIPTICITY            1 - B_IMAGE/A_IMAGE                                       
         1 -13.9674    248.7422     81.1889   4.1715834286e+01   1.4612791590e+01     3.010425    0.5126091 -38.62   0.00906749    4.867    0.795
         2 -11.8063     11.5077     24.9654   8.6856038707e+01   7.0123491059e+01    0.5521625    0.2667837 -19.51  0.002830527    2.204    0.546
         3 -11.1330     19.2601     14.8641   7.8029801897e+01   7.0887120153e+01    0.3927153    0.1851521 -16.91  0.001889355    2.614    0.617
         4 -10.5170     12.8330     13.5421   8.0985766923e+01   7.1752197676e+01    0.2412557    0.1437066 -11.80  0.001483335    1.519    0.342
         5 -11.3290     14.8936      7.7796   7.6943811812e+01   7.2325611192e+01    0.3858539    0.1940573  13.07   0.00213479    2.039    0.510
         6 -12.1528      5.9455     11.7158   8.4157728094e+01   7.2659479900e+01     0.688397    0.3890412 -18.18   0.00428074    1.539    0.350
         7 -11.2202      8.8401      2.1174   7.7522118691e+01   7.3697192598e+01    0.6943861     0.183691  29.20  0.003049849    3.574    0.720
         8 -10.7051    161.0868      9.8571   3.5525910016e+01   4.3007977944e+01    0.2846011    0.1509584 -67.65  0.001355816    2.279    0.561
         9 -10.6309    149.3103      9.2428   3.6883239104e+01   4.5829475159e+01    0.2707877    0.1589024  82.55  0.001414329    1.669    0.401
        10 -14.7527    239.0806     12.8729   2.9022106680e+01   2.5675331924e+01     4.049186     1.908374 -88.83   0.02199679    2.134    0.531
        11 -10.9488    159.7825      3.2564   3.3926431607e+01   4.3909771564e+01    0.4662939    0.2006417 -85.50  0.001835695    3.324    0.699
        12 -11.1289    167.6620      2.5631   3.2868792297e+01   4.2145129691e+01     0.389883    0.1673575  79.97  0.001803066    2.219    0.549
        13 -11.1137    152.6431      3.1167   3.4742750815e+01   4.5586008029e+01    0.5381618    0.2371362 -65.62  0.002174063    3.403    0.706
        14 -10.9938    138.9153      2.0808   3.6248294023e+01   4.8880752841e+01    0.4404082     0.156304  78.52  0.001642622    3.357    0.702
        15 -10.9914    134.4887      5.0130   3.7765581405e+01   4.9676820335e+01     0.251462    0.1605023  87.63  0.001371846    1.638    0.390
        16 -10.3157     40.8561      2.9001   6.1376761776e+01   6.9338293063e+01    0.3152915    0.1544893  20.73  0.001591831    2.256    0.557
        17 -10.1776    118.8552      3.5845   3.9839518053e+01   5.3424203285e+01    0.2960509    0.1153956  75.82  0.001145405    3.112    0.679
        18 -11.6092     24.9923      4.5584   6.9756915855e+01   7.1495936696e+01    0.4685306    0.2536687  -9.97  0.002648633    1.961    0.490
        19 -10.0159     44.5217    244.9607   1.1493135125e+02   1.6358445016e+01    0.3543774     0.144879  38.93  0.001763566    2.035    0.509
        20 -11.7256    226.1776    241.0605   7.6691401994e+01  -8.3497474229e+00    0.5081748    0.2675273  -9.59  0.002518625    2.334    0.571
        21 -11.5684    230.7836    234.5587   7.4752997164e+01  -7.9882462706e+00    0.4406347    0.2457671 -11.25  0.002340937    1.945    0.486
        22 -11.0859    236.4550    227.9380   7.2590442320e+01  -7.7302130927e+00    0.4893397     0.225863 -25.23  0.002405334    2.173    0.540
        23 -11.6214    247.0702    226.1757   7.0417897185e+01  -8.7700679569e+00    0.7351925    0.3751926 -16.60  0.003797202    2.099    0.523
        24 -11.5614    241.6464    237.8265   7.3361135735e+01  -9.7683279944e+00    0.6997172    0.3304117 -14.77  0.003292077    2.684    0.627
        25 -11.2285    225.7127    248.5036   7.8000626437e+01  -9.3380888839e+00    0.4397759    0.2534661  15.87  0.002582633    1.582    0.368
        26 -11.5634    233.9063    244.6809   7.5884065987e+01  -9.7977415684e+00    0.6811663    0.3050368 -27.07  0.003512811    2.166    0.538
        27 -11.4248    242.8320    245.9812   7.4511930122e+01  -1.1013274261e+01    0.6151406     0.306769 -21.21  0.003416304    1.911    0.477
        28 -10.0106    249.3169    250.1342   7.4065125953e+01  -1.2279051939e+01    0.3607142    0.1594351  22.96  0.001976637    2.157    0.536
        29 -10.0275    248.5092    245.9853   7.3524816483e+01  -1.1652154172e+01    0.2871308    0.1724186 -26.03  0.001028642    1.417    0.294
        30 -10.8878    247.1292    239.7849   7.2732795066e+01  -1.0671409292e+01    0.4328685    0.2455601 -13.03  0.002033606    1.649    0.393
        31 -10.5239    249.5571    233.2156   7.1202807889e+01  -1.0051685752e+01    0.3594759    0.1866408 -30.65   0.00174572    1.646    0.392
        32 -11.8172    211.8351    247.5264   8.0438507992e+01  -7.4622429577e+00    0.5669024    0.3126915   6.10  0.002918321    2.087    0.521
        33  -9.8171     50.6070    250.1740   1.1410700298e+02   1.4584578935e+01    0.3475561    0.1270705  38.93  0.001652237    2.201    0.546
        34 -10.4634     36.4073    248.5138   1.1679622805e+02   1.6584912468e+01     0.447964    0.1972736  56.85   0.00230475    2.022    0.506
        35 -10.2074     20.1593    249.2928   1.1996397998e+02   1.8205204543e+01     0.309753    0.1687867  53.80  0.001895347    1.464    0.317
        36 -10.2469     11.8788    249.2674   1.2150525278e+02   1.9058377257e+01    0.3349791      0.14447  47.53  0.001903086    1.807    0.447
        37  -9.9844      3.7701    250.2496   1.2302961944e+02   1.9659422892e+01    0.2931696      0.15066  27.40  0.001716235    2.293    0.564
        38  -9.8847     13.9177    232.0231   1.2017435596e+02   2.2375360772e+01    0.3358285    0.1832615  52.44  0.001992686    1.526    0.345
        39 -10.9280     16.0641    240.8235   1.2026347202e+02   2.0332827854e+01    0.5741822    0.2057123  47.14  0.002910418    2.181    0.541
        40 -10.1752      6.1124    236.2205   1.2191777502e+02   2.2255316171e+01    0.3229056    0.1680787  67.58  0.001519069    1.623    0.384
        41  -9.3412     48.8375    230.9934   1.1291441513e+02   1.8756233431e+01     0.222058    0.1178846  71.04  0.001087127    2.062    0.515
        42 -10.4172      4.6098    228.4283   1.2180053868e+02   2.4024900145e+01    0.3796378    0.1930294  67.58  0.002077134    1.695    0.410
        43  -9.1088     32.4813    229.4893   1.1624317925e+02   2.0973191067e+01    0.1249456   0.09845368  68.48 0.0001121634    1.039    0.037
        44  -9.7158     10.7153    225.9087   1.2045297267e+02   2.3988379196e+01    0.2723661    0.1528766  62.58  0.001340174    1.513    0.339
        45 -10.2010      2.0375    221.1317   1.2191795423e+02   2.5819590046e+01    0.3173351    0.1402823  87.24    0.0016328    2.062    0.515
        46 -10.1253    238.2164    218.7833   7.0666388290e+01  -6.5893959462e+00    0.3755792    0.1717793 -34.36  0.001900431    1.926    0.481
        47 -10.4850     26.4826    229.2949   1.1746954008e+02   2.1665895041e+01    0.4069217    0.1107273 -76.17  0.001566843    3.673    0.728
        48 -11.2168    247.8964    215.4915   6.8391758433e+01  -7.3115305791e+00    0.5465063    0.2260657 -30.37  0.002622202    2.185    0.542
        49  -9.2665     34.3531    215.7000   1.1476554519e+02   2.3809361551e+01    0.1381165    0.0770913  61.85 0.0007037405    1.698    0.411
        50 -10.1770      2.3377    212.4298   1.2137359159e+02   2.7700659118e+01    0.2402009    0.1659054  73.85 0.0009632049    1.172    0.147
        51 -10.6650     12.5285    217.4294   1.1956572646e+02   2.5664068533e+01    0.4214436    0.1919561  65.25   0.00210919    2.094    0.522
        52 -10.7424     12.7041    204.6806   1.1867924373e+02   2.8523882804e+01    0.3183285    0.1635869  69.72  0.001642284    1.863    0.463
        53  -9.3125    250.2097    201.0078   6.5370750818e+01  -5.4044783994e+00    0.2692917    0.1212318 -36.87  0.001344149    1.878    0.467
        54  -9.2649    242.6403    200.2098   6.6508536015e+01  -4.2867144387e+00    0.1885661   0.09650941 -29.38  0.000951178    1.730    0.422
        55 -10.8888      3.4532    197.2977   1.2021068424e+02   3.1041018591e+01    0.3512532    0.1783086  76.26  0.001828933    1.839    0.456
        56 -10.2811      3.8298    188.6273   1.1954124343e+02   3.3040592399e+01    0.2823703    0.1401254  55.71  0.001463996    1.917    0.478
        57 -10.3614      2.0054    178.9628   1.1927298201e+02   3.5489467806e+01    0.3302267    0.1380996  87.50  0.001461416    2.375    0.579
        58 -10.0011    167.1674    249.6007   8.9645856843e+01  -1.6558834703e+00    0.1909701    0.1047184  22.89  0.000955485    1.757    0.431
        59 -10.5567    127.2481    248.0568   9.7836237479e+01   4.4697412896e+00    0.3268752    0.1773396  53.65   0.00154116    2.216    0.549
        60 -10.5940      1.5026     25.4521   9.2692705625e+01   7.0804511494e+01    0.3491479   0.09470782 -52.40  0.001491787    3.256    0.693
        61  -9.8925     18.5728     31.1335   8.5586354074e+01   6.8458433140e+01    0.2451265    0.1241506 -14.86  0.001198687    2.308    0.567
        62 -10.3790     25.4595     17.2164   7.5861604694e+01   6.9839193977e+01     0.248942       0.1391 -14.78  0.001378031    1.836    0.455
        63  -9.5104    156.4131     17.2464   3.8144947451e+01   4.3384006349e+01    0.1725785    0.1117898 -45.78 0.0009454823    1.628    0.386
        64 -10.4354     73.9648    250.0076   1.0933533090e+02   1.1647938594e+01    0.4984818    0.1073395  40.66  0.001835806    3.319    0.699
        65  -8.8989    162.3236     15.6811   3.6927342437e+01   4.2149633307e+01    0.1339387   0.08638088 -70.52 0.0007044823    1.672    0.402
        66  -9.2637    110.3239    248.6676   1.0152738026e+02   6.8361457817e+00    0.1330989   0.08808477  60.25 0.0007050558    1.706    0.414
        67 -10.6506    192.6084    245.6112   8.3874907828e+01  -4.6126363761e+00    0.3441497    0.1855527 -18.77  0.001659856    2.344    0.573
        68 -11.2961    143.3235    246.8188   9.4243074454e+01   2.3084325994e+00    0.4338413    0.1750554  28.13  0.001780963    2.537    0.606
        69 -10.6655      3.3435    243.4632   1.2279289010e+02   2.1043876980e+01    0.3904618    0.1963269  63.35  0.002267555    1.617    0.381
        70  -9.9083      2.1075     40.7707   9.7706234429e+01   6.7982437450e+01    0.2982045    0.1001448 -47.73  0.001431931    2.144    0.533
        71 -10.8171     97.5395    244.8345   1.0382159375e+02   9.4089629726e+00    0.4470387    0.1133728  41.52  0.001617425    3.165    0.684
        72 -10.9713     84.5041    244.2439   1.0654969728e+02   1.1357111777e+01    0.2960593    0.1728518  50.05  0.001583272    1.536    0.349
        73 -10.4695    115.4937    244.4966   9.9909728758e+01   6.8653894605e+00    0.2844574    0.1120317  35.17  0.001215998    2.184    0.542
        74 -10.6832     57.1327    242.2760   1.1213496388e+02   1.5369052899e+01     0.405289    0.1764186  50.45  0.001957163    2.026    0.506
        75 -10.1964    107.4868    240.6453   1.0117310169e+02   8.7852029633e+00    0.2720335     0.129363  53.77  0.001160919    2.478    0.597
        76 -10.6282     72.1830    240.6277   1.0881357737e+02   1.3759085995e+01    0.3441497    0.1388157  49.71  0.001518028    2.305    0.566
        77  -9.9531    202.4845    240.5056   8.1103033472e+01  -5.1786742061e+00    0.2312595     0.103986  22.33  0.001037623    2.381    0.580
        78 -10.7088     29.8718    241.2031   1.1759254100e+02   1.8796861828e+01    0.4493847    0.2071529  65.92  0.002276522    2.141    0.533
        79  -8.9984     38.1406    240.7031   1.1590368202e+02   1.7972344804e+01    0.2047836    0.1174258  53.03  0.001127242    1.464    0.317
        80 -10.6482     65.4357    249.1582   1.1101736245e+02   1.2929854228e+01    0.3741053    0.1975604  50.78  0.002010044    1.636    0.389
