#   1 NUMBER                 Running object number                                     
#   2 MAG_AUTO               Kron-like elliptical aperture magnitude                    [mag]
#   3 X_IMAGE                Object position along x                                    [pixel]
#   4 Y_IMAGE                Object position along y                                    [pixel]
#   5 X_WORLD                Barycenter position along world x axis                     [deg]
#   6 Y_WORLD                Barycenter position along world y axis                     [deg]
#   7 A_WORLD                Profile RMS along major axis (world units)                 [deg]
#   8 B_WORLD                Profile RMS along minor axis (world units)                 [deg]
#   9 THETA_WORLD            Position angle (CCW/world-x)                               [deg]
#  10 FWHM_WORLD             FWHM assuming a gaussian core                              [deg]
#  11 ELONGATION             A_IMAGE/B_IMAGE                                           
#  12 ELLIPTICITY            1 - B_IMAGE/A_IMAGE                                       
         1 -13.0967    235.1600     33.1648   3.3209488876e+01   2.4292906626e+01    0.7852329    0.6789488   8.87  0.005276327    1.926    0.481
         2 -12.5372    212.7591     25.1997   3.3562830317e+01   2.9868348297e+01    0.4162822    0.3066628 -53.42  0.002691918    1.229    0.186
         3 -12.7085    149.3301     16.3483   3.8746555043e+01   4.5215038227e+01    0.6495106    0.2358555 -38.66  0.002821035    2.802    0.643
         4 -11.5733    159.7294      2.9997   3.3789502453e+01   4.4043341305e+01    0.3322877    0.1592456  70.42  0.001705933    1.735    0.424
         5 -10.3125      2.4995      2.4915   8.1185531933e+01   7.4278410674e+01    0.1113224   0.08036119  -7.47 0.0008106305    1.006    0.006
         6 -13.0819     79.5031    230.5654   1.0522170240e+02   1.5077689718e+01    0.7372552    0.6481802  86.93  0.003172674    1.149    0.130
         7 -11.6627    178.2971    249.9957   8.6399170194e+01  -3.0285445310e+00    0.4038248    0.2555608  12.58  0.002238508    1.602    0.376
         8 -12.2310    172.5560    249.7466   8.7527687014e+01  -2.1844666123e+00     0.717452    0.3195137  20.92   0.00302146    2.741    0.635
         9 -11.9607     59.1661    247.5404   1.1126803137e+02   1.4248344806e+01    0.4932335    0.3458303 -83.22   0.00304481    1.478    0.323
        10 -12.1615     50.8366    245.1801   1.1279710349e+02   1.5758750526e+01    0.4804628    0.2397914  51.08  0.002209556    1.715    0.417
        11 -13.2016     29.6578    246.8504   1.1719519593e+02   1.7875609481e+01     1.108753    0.4838895  42.52  0.005544542    1.852    0.460
        12 -14.1634      6.1140    241.8661   1.2147180563e+02   2.1314570518e+01     2.584273    0.9188307 -84.25   0.01245609    2.689    0.628
        13 -13.3162     23.5220    194.1898   1.1460477923e+02   3.0218400321e+01    0.8870217     0.613857  44.73   0.00336651    1.408    0.290
        14 -13.1340      5.7638    205.9486   1.1952406876e+02   2.9117569915e+01    0.4474643    0.3686512 -78.94 0.0007627596    1.199    0.166
        15 -14.1693     12.0412    201.2780   1.1782123310e+02   2.9633041437e+01     1.037878    0.6883993  85.49  0.003080479    1.298    0.230
        16 -10.5396     44.2412    236.9698   1.1351603356e+02   1.8253911409e+01     0.276933    0.2052189 -61.01  0.001730259    1.531    0.347
        17 -12.1234    154.9256    232.2072   8.8580032618e+01   3.4346569435e+00    0.4337026    0.2319824  35.94  0.002102575    1.680    0.405
        18 -12.0836     56.2805    223.1628   1.0968107108e+02   1.9773643562e+01    0.6120949    0.3579901 -73.00  0.002228886    1.725    0.420
        19 -10.5023     50.7187    216.9509   1.1034214317e+02   2.1860417630e+01    0.3648653    0.2373279  67.95  0.001505903    1.505    0.335
        20 -10.3900     39.8639    212.0308   1.1236609456e+02   2.4272560569e+01    0.5065076    0.1484275  49.22  0.001870253    3.292    0.696
        21 -10.5459    202.3645    208.6220   7.4667407896e+01   4.2394835597e-01    0.2843395    0.1898699 -20.47  0.001346333    1.511    0.338
        22 -11.0360     47.1650    204.8445   1.0997337581e+02   2.5094548852e+01    0.7028369    0.3317496  89.63  0.002878883    2.712    0.631
        23 -10.7409     43.3937    201.2018   1.1050652095e+02   2.6402829662e+01    0.3827394    0.2340169  74.26  0.001934333    1.706    0.414
        24 -12.6549     73.1683    223.5181   1.0588137512e+02   1.7476158030e+01    0.7601306    0.4833273  39.73  0.002409348    1.424    0.298
        25 -11.1215     40.2211    179.4678   1.0896330225e+02   3.2077632133e+01    0.2453417      0.22613 -52.50 0.0005549737    1.215    0.177
        26 -10.7489      1.5820    175.7554   1.1840314589e+02   3.6574240271e+01    0.2449331   0.09769373 -72.96 0.0009996339    2.040    0.510
        27 -11.4480     48.4613    172.9099   1.0597042824e+02   3.2781909297e+01     0.267475    0.2281361 -57.12 0.0004261922    1.191    0.160
        28 -13.2008     27.7176    145.9297   1.0829201500e+02   4.1882390119e+01     1.314918     1.067721 -61.88  0.007708695    1.113    0.102
        29 -12.9986      4.4792    113.8475   1.1127039503e+02   5.1700559625e+01    0.7196865    0.6453634  72.20  0.003479402    1.247    0.198
        30 -13.9860     20.3195    125.2173   1.0767279470e+02   4.7787600554e+01     1.953091     1.200343  73.33  0.009459703    2.046    0.511
        31 -13.2364      3.5371    125.3260   1.1305006882e+02   4.8921657826e+01    0.9211751    0.5258353 -64.09  0.003381745    1.407    0.289
        32 -14.7886      6.8400    141.0231   1.1384916819e+02   4.4794052212e+01     2.084873    0.9088805 -81.26  0.007829154    2.169    0.539
        33 -13.8008     14.2378    133.9579   1.1079971944e+02   4.6048594283e+01     1.126691    0.7291492  89.72  0.004641147    1.562    0.360
        34 -10.1779     61.9378    162.8996   1.0080177440e+02   3.3644207222e+01    0.2114835    0.1969717 -76.45 0.0003694825    1.020    0.019
        35 -12.6591     46.5209    159.3795   1.0466974540e+02   3.6466547774e+01    0.5021244    0.2968872 -33.48  0.001370129    2.264    0.558
        36 -11.0669     70.6789    156.4556   9.7233575234e+01   3.4094507444e+01    0.4383366    0.3434218 -12.82  0.001096046    1.633    0.388
        37 -12.0384    111.9938    143.9257   8.2866363445e+01   3.0415996178e+01    0.7094329    0.5068395 -33.10  0.003180736    1.570    0.363
        38 -11.5564     67.8946    143.4283   9.5715039488e+01   3.7838985431e+01    0.6996201    0.3950593  61.51  0.002527971    2.531    0.605
        39 -11.5159    248.3393    142.5374   5.3773310966e+01   4.9041670701e+00    0.3724314    0.1669883 -29.21  0.001554201    2.624    0.619
        40  -9.7377     87.5890    143.2928   8.9762438644e+01   3.4861367979e+01    0.2169361    0.1369723 -47.20 0.0007175988    1.556    0.357
        41 -11.0605     75.4919    141.0691   9.2946583106e+01   3.7332596847e+01     0.291686    0.2495953 -56.95 0.0005018829    1.109    0.099
        42 -11.9649    108.9865    136.0190   8.1932613594e+01   3.2902174459e+01    0.5163866    0.4513136  21.52  0.001890238    1.222    0.182
        43 -12.8172    104.6656    131.3162   8.2086563037e+01   3.4848813187e+01     0.715468    0.5709947  30.86  0.002154932    1.311    0.237
        44 -10.8879     94.0428    131.5541   8.5285263272e+01   3.6703687107e+01    0.4444301    0.3395512 -66.15  0.002106601    1.396    0.284
        45 -11.8640    123.5522    129.2736   7.6277320385e+01   3.1681695706e+01    0.6853335    0.3440395  28.69  0.002368643    2.694    0.629
        46  -9.9797     89.3193    127.8140   8.5863341125e+01   3.8442420207e+01    0.2357506    0.2077164  50.89 0.0004281496    1.201    0.167
        47 -10.8054    160.0046    133.8702   6.8244929681e+01   2.3125668922e+01    0.5137636    0.2866459 -15.24  0.001363453    5.340    0.813
        48 -12.2289     49.4479    118.5863   9.6778263454e+01   4.6575736945e+01    0.5831079    0.4929691  21.25  0.003253715    1.292    0.226
        49  -9.5117    102.2410    119.7624   8.0010714496e+01   3.8074504916e+01    0.2068305     0.177897 -14.52 0.0003921689    1.290    0.225
        50 -11.4040     92.1218    117.5960   8.2555411135e+01   4.0439429016e+01    0.6743177    0.4329744  30.45  0.002965322    1.673    0.402
        51 -10.9555     75.1104    118.8894   8.8287019367e+01   4.2963666856e+01    0.2362102    0.2079997  76.18  0.001162259    1.307    0.235
        52 -10.2261     92.9122    109.8056   8.0329566874e+01   4.2137209177e+01    0.3523598    0.2028693  44.79  0.001470101    1.833    0.454
        53 -11.6649     50.5192    108.5862   9.4268264745e+01   4.8919891435e+01    0.5759736    0.3666311 -12.60  0.002582199    2.123    0.529
        54 -11.1460    136.1745    108.2717   6.7610701203e+01   3.3740073230e+01    0.2949754    0.2699934 -80.01  0.001527365    1.181    0.153
        55 -11.8815    250.2561    102.8123   4.5588314264e+01   1.1233357497e+01    0.4394375    0.1357986 -36.50  0.001641781    3.147    0.682
        56 -11.2662     52.5176     90.7591   8.9199987460e+01   5.2882797528e+01    0.3533125    0.2666151 -49.45  0.001563064    1.233    0.189
        57 -11.9386     23.8999     86.5738   9.9267066139e+01   5.6896293569e+01     0.567008    0.4235872 -52.65  0.002526039    1.158    0.136
        58 -11.7351      9.4818     83.1848   1.0431111853e+02   5.8717496806e+01    0.3492023    0.1921668  -7.96  0.001775762    2.157    0.536
        59 -12.0256      2.6232     80.9148   1.0663133465e+02   5.9619773715e+01    0.5631451    0.1345994 -56.82  0.002259674    2.662    0.624
        60 -12.9498     27.2489     56.5410   8.9740525878e+01   6.3041881928e+01    0.9454963    0.7089564  12.96  0.005818133    1.338    0.253
        61 -13.0528     30.3100     49.7647   8.6082103327e+01   6.4020585577e+01     1.210215    0.7990159  46.65  0.006537217    2.198    0.545
        62 -12.7031     18.2341     60.3727   9.5020732196e+01   6.3079875723e+01    0.6584691    0.4658543  59.39  0.003596384    2.332    0.571
        63 -13.6323      9.4109     57.9125   9.8413889459e+01   6.4230929684e+01    0.9472819    0.7074047 -37.89  0.003830638    1.073    0.068
        64 -12.0588    228.0694     44.4181   3.6139957276e+01   2.4250667174e+01     0.467244    0.2840422  86.10   0.00264835    1.685    0.407
        65 -13.7638    138.5118    235.9294   9.2712544054e+01   5.2519541799e+00    0.8844592    0.8619648 -78.10  0.004884545    1.207    0.172
        66 -14.2417    123.5537    236.5851   9.6100781901e+01   7.3992966490e+00      1.42141     1.053353  55.08  0.005160633    1.437    0.304
        67 -11.5531    219.3801     34.5798   3.4928876756e+01   2.7322958989e+01    0.4526184    0.2078899  62.29   0.00229575    2.175    0.540
        68 -13.5516     89.7204    241.3499   1.0414777019e+02   1.1414271656e+01     1.096798    0.5834001  52.57   0.00466703    1.853    0.460
        69 -11.1549    197.0879     18.6789   3.3629860827e+01   3.4012186480e+01    0.2519886    0.1825494 -66.62  0.001581884    1.227    0.185
        70 -14.2213    101.2814    235.7718   1.0094920344e+02   1.0881965950e+01     1.650917     1.139925  57.57  0.006703455    1.488    0.328
