#   1 NUMBER                 Running object number                                     
#   2 MAG_AUTO               Kron-like elliptical aperture magnitude                    [mag]
#   3 X_IMAGE                Object position along x                                    [pixel]
#   4 Y_IMAGE                Object position along y                                    [pixel]
#   5 X_WORLD                Barycenter position along world x axis                     [deg]
#   6 Y_WORLD                Barycenter position along world y axis                     [deg]
#   7 A_WORLD                Profile RMS along major axis (world units)                 [deg]
#   8 B_WORLD                Profile RMS along minor axis (world units)                 [deg]
#   9 THETA_WORLD            Position angle (CCW/world-x)                               [deg]
#  10 FWHM_WORLD             FWHM assuming a gaussian core                              [deg]
#  11 ELONGATION             A_IMAGE/B_IMAGE                                           
#  12 ELLIPTICITY            1 - B_IMAGE/A_IMAGE                                       
         1 -14.3147    209.8952     70.3445   1.5933344608e+01   2.3761244720e+01     1.585095    0.9183658 -51.71  0.006889892    1.658    0.397
         2 -14.0115     87.7291     22.1901   2.6258428411e+01   5.8229912750e+01     1.531551     1.113258 -71.56   0.00805095    2.385    0.581
         3 -12.8726    212.6131     26.7694   6.0801219757e+00   2.9086378340e+01    0.9321822    0.4536367 -68.50  0.004429435    2.346    0.574
         4 -12.7342    206.6751     15.8509   4.3438046647e+00   3.1621965899e+01    0.5446044     0.339217 -84.09  0.002389445    1.468    0.319
         5 -13.7719    198.8033     10.0771   3.8481073899e+00   3.3970617141e+01    0.8598603    0.5222173 -49.69  0.004109678    1.594    0.373
         6 -12.5888    183.6805     24.3794   8.7271456664e+00   3.5877550788e+01    0.8284695    0.4313724  80.09  0.003299149    1.891    0.471
         7 -11.3428     66.3466     12.5812   2.9140334783e+01   6.3424315352e+01    0.3057301    0.1833986  33.16  0.001751303    1.428    0.299
         8 -11.8739    241.3892      9.9149   3.7037057557e-01   2.5031395704e+01    0.3144804    0.1825186 -53.69  0.002024337    1.442    0.307
         9 -12.2213     43.4708      2.8118   3.3378500183e+01   6.8335268916e+01    0.6340748    0.2926272  36.72  0.003485276    1.773    0.436
        10 -12.1093    182.3992      2.3021   3.7046778965e+00   3.8421466912e+01    0.5549961     0.204808  68.26  0.002462237    2.170    0.539
        11 -12.1573    245.8701    222.8664   4.1044274294e+01  -8.1305201024e+00      0.37576    0.2284699 -14.57  0.002179633    1.582    0.368
        12 -11.9780    247.8776    248.7320   4.5045817010e+01  -1.1920501144e+01    0.4367218    0.2394592   1.45   0.00246852    1.948    0.487
        13 -11.5636    143.1432    250.3441   6.5938058380e+01   2.4394440676e+00    0.5807419    0.1558075  35.82  0.002084399    3.109    0.678
        14 -12.1798    147.9362    245.5090   6.4239054988e+01   2.5395005149e+00    0.3324535     0.299802 -83.57  0.001421183    1.454    0.312
        15 -13.2295    143.3402    236.5030   6.3934586472e+01   4.8799903086e+00    0.7890435    0.5770103  74.42  0.004085346    2.077    0.518
        16 -11.2739    135.8270    226.4272   6.4111316057e+01   8.0071338369e+00    0.5935646    0.2841677  55.56  0.002198027    3.200    0.687
        17 -13.3872    125.3276    237.7121   6.8082487341e+01   7.5158148435e+00     1.137326    0.5987568 -50.53  0.005496589    2.168    0.539
        18 -14.9499    111.5474    236.4078   7.0973149487e+01   9.9246593002e+00     2.160954     1.286592 -70.68   0.01061293    2.204    0.546
        19 -13.4574    101.0354    235.7808   7.3238138135e+01   1.1661063550e+01    0.6532478    0.4764549  75.28  0.002720726    1.608    0.378
        20 -15.2140     84.8226    226.4830   7.5773845906e+01   1.5999090133e+01     1.862649    0.9230582  61.80  0.007054882    2.650    0.623
        21 -15.1256     77.9206    242.4875   7.9056136555e+01   1.3684649310e+01     1.660532    0.7555852  54.28  0.007580988    2.227    0.551
        22 -11.5380     67.3525    250.0504   8.2008847432e+01   1.3629936939e+01    0.4648736    0.1520975  41.38   0.00203264    2.370    0.578
        23 -14.3354     64.6059     96.5587   5.8644646868e+01   4.9793970867e+01     2.035227     1.924025  22.24    0.0120392    1.116    0.104
        24 -14.0439      4.3492     82.8319   7.8178129520e+01   5.8798483141e+01     1.636214    0.5405027 -69.54   0.00657525    3.101    0.678
        25 -13.4511     21.4481    140.5871   8.1457070525e+01   4.4071285097e+01    0.9747158     0.601788  87.97  0.003750016    1.774    0.436
        26 -14.8335     81.0624    150.6365   6.5362936668e+01   3.4405456941e+01     2.870646     1.773463 -81.11   0.01178165    2.242    0.554
        27 -15.6945     93.5997    139.1056   5.9343273900e+01   3.5172282080e+01     6.337234     3.773309  84.13   0.01996542    4.025    0.752
        28 -15.5840     17.1165    232.5568   9.0894079807e+01   2.3144112637e+01     2.427499      1.01604 -86.94   0.01199671    2.408    0.585
        29 -13.7850      5.9207    247.4314   9.3863200560e+01   2.1263946146e+01    0.7510906    0.2808339  62.61    0.0038166    2.400    0.583
        30 -14.3873     41.7340    217.5725   8.4577911288e+01   2.3660788112e+01     1.154741    0.5136763  67.55  0.004857612    2.831    0.647
        31 -14.1742     32.4634    207.4411   8.5762227911e+01   2.6982154642e+01    0.9955165    0.4040878  57.73  0.004262298    2.657    0.624
        32 -15.6916     34.8685    190.8676   8.3638095855e+01   3.0558828536e+01     2.274809     1.022479  77.77  0.008731222    3.257    0.693
        33 -13.2377     60.8394    212.3368   7.9701553588e+01   2.2447997604e+01    0.9785333     0.695169  87.33  0.003637383    1.439    0.305
        34 -14.2315     57.7251    186.3487   7.7403274693e+01   2.8924467359e+01     2.600918     1.307135  83.63  0.009695647    3.190    0.686
        35 -14.3921     74.1794    193.6148   7.4169867158e+01   2.4941022746e+01     1.674219    0.9525526  84.67  0.005869805    2.559    0.609
        36 -12.8179    137.5454    215.3467   6.1995411602e+01   9.9276845426e+00    0.7324706    0.5538959 -83.27  0.003416262    1.867    0.465
        37 -13.8240    129.5476    205.1198   6.2212455014e+01   1.3422134999e+01     1.038604    0.8201559 -78.67  0.004545243    1.588    0.370
        38 -13.4217    130.0969    196.9086   6.0693888004e+01   1.5099402718e+01    0.7569807    0.6369539  51.19  0.002324631    1.195    0.163
        39 -12.9788    189.0571    211.6670   4.9947709758e+01   1.9646377914e+00    0.5065232    0.4715563 -25.35  0.002579278    1.197    0.165
        40 -11.5252    104.9983    187.9387   6.5440044662e+01   2.1462868475e+01    0.6843067    0.4213961  64.35  0.002869915    2.170    0.539
        41 -13.5461    111.3918    210.2590   6.7374744877e+01   1.5369044513e+01     1.282937    0.7120319  52.50  0.004706494    1.941    0.485
        42 -12.9966    111.0678    201.3235   6.6081797409e+01   1.7391095793e+01    0.9315185    0.5616109 -71.63  0.003905791    2.149    0.535
        43 -11.1652     91.9471    216.1637   7.2838502560e+01   1.7158634939e+01    0.4291113    0.1918971  53.75  0.001679208    2.599    0.615
        44 -12.4148     96.9828    212.2790   7.1119117489e+01   1.7234218436e+01    0.5258352    0.3926158  62.44   0.00156423    1.389    0.280
        45 -11.2303     91.5726    208.2523   7.1867142216e+01   1.8968162090e+01     0.386353    0.2590499 -68.87  0.001590127    1.622    0.384
        46 -12.2913    169.4124    211.6881   5.4167905769e+01   5.2291579831e+00    0.5346752    0.2645267 -42.12  0.002079825    2.137    0.532
        47 -12.0117    169.2006    204.7389   5.2977662754e+01   6.5954694761e+00    0.5742694    0.2967429  29.53  0.002459054    1.974    0.493
        48 -11.8734    150.1560    212.0419   5.8549556796e+01   8.4446588261e+00    0.6009979    0.3283141  40.33  0.002727428    1.690    0.408
        49 -13.0291    149.8708    205.6594   5.7521830381e+01   9.7780535569e+00     0.634885    0.4718474  36.64  0.002602786    1.244    0.196
        50 -12.2499    147.0797    199.3376   5.7059672493e+01   1.1571825222e+01    0.7192847    0.5923337  28.07   0.00325737    1.145    0.126
        51 -11.7124    119.2478    175.9426   5.9644898623e+01   2.1773570997e+01    0.5122637    0.3814246  52.58  0.001940647    1.395    0.283
        52 -12.6304    101.4078    174.3933   6.4051087194e+01   2.5270870440e+01    0.9046773    0.6059854  30.02  0.003615377    1.544    0.352
        53 -13.7323     23.2505    120.1167   7.7927341484e+01   4.8904239795e+01     1.827074    0.8502139 -82.89  0.007266847    2.938    0.660
        54 -10.8445     69.1443    169.8867   7.2052599865e+01   3.1403577801e+01    0.3631657    0.2533253  81.28  0.001740469    1.699    0.412
        55 -11.8323    138.5048    164.4913   5.2451570964e+01   2.0789099970e+01    0.6709341    0.3251451 -60.93  0.002309313    2.890    0.654
        56  99.0000     43.0536    238.5361   8.6055670935e+01   1.9026515163e+01     3.373316      1.25644  58.90    0.0141725    2.963    0.662
        57 -15.8562     39.4020    105.5494   6.9722539035e+01   5.0877531973e+01      5.18353     2.490631 -76.52   0.01905606    3.381    0.704
        58 -13.5762    126.1420    152.9053   5.3201316616e+01   2.5856645675e+01    0.8676772    0.5931757 -79.16  0.003537785    2.193    0.544
        59 -13.5514    118.3272    147.1386   5.4054518023e+01   2.8718384300e+01    0.8707504    0.5456533 -62.05  0.003635933    1.854    0.461
        60 -13.1909     41.9939    148.3503   7.6484717937e+01   4.0171841098e+01    0.8125713    0.6276477  16.84  0.001938623    1.495    0.331
        61 -12.8079    225.2468    144.1381   2.9592862136e+01   8.0355710512e+00    0.6544837     0.537652 -37.60  0.003010662    1.097    0.089
        62 -11.4312    113.0784    124.6654   5.0336124224e+01   3.4975499773e+01    0.3899984    0.3434366 -76.94  0.001971024    1.289    0.224
        63 -15.4343     20.3700     89.3605   7.3313601071e+01   5.6311599820e+01     2.439384     1.032239 -72.57  0.009654793    3.149    0.682
        64 -15.9605      6.4004     43.8863   6.7943563012e+01   6.6612544421e+01     4.341342    0.5891721 -55.93   0.01384918    5.566    0.820
        65 -12.0366    177.9023    248.4280   5.8369342625e+01  -2.5218123346e+00    0.4548476    0.2475415  41.34  0.002296988    1.781    0.438
        66 -14.9767    221.1851     61.2382   1.2471178427e+01   2.2693335497e+01     1.251056    0.9374408  76.01  0.007004552    1.307    0.235
        67 -14.6199    213.8027     54.1963   1.1847861254e+01   2.5281100748e+01     1.110529    0.7616619 -78.79  0.005292556    1.484    0.326
        68 -14.3459    245.2310     68.3511   1.1176481744e+01   1.6799730367e+01     1.337119    0.5483493 -49.91  0.006221714    2.163    0.538
        69 -12.0592     79.7036     72.4604   4.6397914297e+01   5.2324271741e+01    0.5464203    0.2982956  50.96  0.002325764    2.262    0.558
        70 -11.2391     90.9205     68.8485   4.1514490396e+01   5.0902295580e+01    0.3106871    0.2516913  68.50  0.001617182    1.635    0.388
        71 -12.7336    188.2647     60.3634   1.6756865314e+01   3.0131707647e+01    0.7205221    0.5076304 -52.72  0.002829831    1.405    0.288
        72 -12.5708    136.6893     61.9634   2.6849950336e+01   4.2079568175e+01     0.584678    0.3921923 -87.02  0.002529733    2.314    0.568
        73 -12.6437     55.6858     51.6737   4.8397227479e+01   5.9954210079e+01    0.7689336    0.4479223  28.94  0.003570272    1.642    0.391
        74 -12.2646    107.9884     47.2130   2.9379563119e+01   5.0805971884e+01    0.5494802    0.4735734  46.15  0.002156015    1.062    0.058
        75 -12.5551    242.9680     47.8658   7.3941968763e+00   2.0108458351e+01    0.3342639    0.2122134  51.67  0.001338199    2.005    0.501
        76 -12.1774    187.8597     46.7400   1.3530918106e+01   3.2146473494e+01    0.5548432    0.3626804 -57.65  0.002940451    1.556    0.357
        77 -12.1132     70.1904     40.3417   3.8759024603e+01   5.9349809486e+01    0.4122252     0.346264 -45.18  0.002510588    1.507    0.336
        78 -11.5723     62.0629     36.3636   4.0259195794e+01   6.1320453019e+01    0.4189026    0.1915234  31.97  0.001905101    2.152    0.535
        79 -11.8734     50.2598     32.9466   4.3618096270e+01   6.3685455683e+01    0.8202352    0.3919974 -18.12  0.003448982    3.106    0.678
        80 -16.1152     10.0560    149.7619   8.5797876771e+01   4.2731917197e+01     4.092335     1.330482 -83.52   0.01384992    4.022    0.751
        81 -12.7707    168.2478    242.8282   5.9523265353e+01  -1.4774702902e-01    0.5393575    0.4245869  14.15  0.002213172    1.159    0.137
        82 -12.2391    249.8200    239.7893   4.3236546229e+01  -1.0970587164e+01    0.2534026    0.1813091 -14.99  0.001734589    1.139    0.122
        83 -16.2653     21.3545     46.8746   6.1718197056e+01   6.4912952330e+01     3.650894      1.76384 -59.85   0.01715422    2.812    0.644
        84 -14.8751      7.2619    179.2588   8.9255143332e+01   3.5909584299e+01     2.290422    0.8085763  76.57  0.007516716    4.856    0.794
        85 -16.0326      5.5744    199.6212   9.1152931603e+01   3.1373783104e+01     2.322491    0.8369924  89.00  0.009602196    3.090    0.676
        86 -12.2155     35.4001     23.1204   4.6107221165e+01   6.7153539230e+01    0.4150687    0.3269675  42.15  0.002721808    1.703    0.413
        87 -11.5952    240.6812     18.1639   1.9394307608e+00   2.4250097796e+01    0.3748828    0.2013566  80.13  0.001899188    1.706    0.414
        88 -10.5968      3.3720    234.1756   9.3664434682e+01   2.4154614119e+01    0.2960214    0.1154509  77.18  0.001408772    2.660    0.624
        89 -10.5210      2.6396    226.6034   9.3402370094e+01   2.5783381690e+01    0.4821593    0.2392876  77.57    0.0027168    1.819    0.450
        90 -12.4019    242.6492    233.0847   4.3366010131e+01  -9.1803382229e+00    0.3049161    0.2169279  30.04   0.00198695    1.488    0.328
