#   1 NUMBER                 Running object number                                     
#   2 MAG_AUTO               Kron-like elliptical aperture magnitude                    [mag]
#   3 X_IMAGE                Object position along x                                    [pixel]
#   4 Y_IMAGE                Object position along y                                    [pixel]
#   5 X_WORLD                Barycenter position along world x axis                     [deg]
#   6 Y_WORLD                Barycenter position along world y axis                     [deg]
#   7 A_WORLD                Profile RMS along major axis (world units)                 [deg]
#   8 B_WORLD                Profile RMS along minor axis (world units)                 [deg]
#   9 THETA_WORLD            Position angle (CCW/world-x)                               [deg]
#  10 FWHM_WORLD             FWHM assuming a gaussian core                              [deg]
#  11 ELONGATION             A_IMAGE/B_IMAGE                                           
#  12 ELLIPTICITY            1 - B_IMAGE/A_IMAGE                                       
         1 -11.1524     61.6530     74.2863   8.5701695216e+01   5.5104572894e+01     0.857156    0.2669657 -41.78  0.002920161    3.127    0.680
         2 -13.6473      9.4753     49.5472   1.0016570531e+02   6.5674868328e+01    0.6373472    0.4931826 -29.34  0.001408808    1.078    0.072
         3 -14.1175     29.3980     59.3288   9.4085298548e+01   6.2095438814e+01     1.421332       1.0015  35.46  0.001968142    1.715    0.417
         4 -12.5147     41.7859     20.7172   7.3440984165e+01   6.7296127497e+01    0.3831851    0.2555238  36.53  0.000520826    1.557    0.358
         5 -12.0461    204.4331     21.3006   3.6571843890e+01   3.1829381185e+01    0.6025848     0.414775 -87.78  0.002887061    1.355    0.262
         6 -11.3085    223.6811     15.7812   3.3575071166e+01   2.8205288627e+01    0.3223808    0.2552703  46.17  0.001013509    1.684    0.406
         7 -13.1891    216.5192     13.6127   3.3699706683e+01   2.9993527448e+01    0.4750302    0.3417356  72.62  0.001219536    1.338    0.253
         8 -11.6808    130.4389     14.9049   4.4722976175e+01   5.0057431944e+01    0.3320572    0.2069681  51.44 0.0006201247    1.422    0.297
         9 -12.7122     64.6287     10.9283   5.9727166819e+01   6.4678154242e+01    0.5124346    0.2352052  42.80  0.001535857    1.867    0.464
        10 -13.0100     54.7010      6.0649   6.1015014340e+01   6.6948150012e+01    0.7635474    0.4568889  61.05  0.003582489    2.499    0.600
        11 -10.4443     46.6917     11.2959   6.6783647420e+01   6.7730673675e+01    0.2263624    0.1628296  17.42 0.0005766047    1.173    0.147
        12 -11.6189     37.2451      9.5293   7.0075487273e+01   6.9369775052e+01    0.3275207    0.2436311   0.70  0.001213098    1.104    0.094
        13 -13.0109    193.5748      8.9560   3.4694624642e+01   3.5628464948e+01    0.4753653    0.2171758  63.79 0.0008716998    1.969    0.492
        14 -10.6028    204.5543      6.0634   3.3020688555e+01   3.3428026537e+01    0.2374884    0.1453693  61.80  0.001368536    1.627    0.386
        15 -11.6309    102.3906      2.8440   4.5921726043e+01   5.7578033801e+01    0.2585381    0.1856832  55.86 0.0004063609    1.183    0.155
        16 -10.8284    115.3144     12.0257   4.6616910143e+01   5.3870011142e+01    0.2443832    0.1708763  58.17 0.0004539884    1.244    0.196
        17  -9.9784    135.0099    225.0621   9.6692055940e+01   8.3802200674e+00    0.2180345    0.1561139  65.02  0.001139504    1.770    0.435
        18 -11.2922    229.4417    248.6290   8.1544121283e+01  -9.3244463868e+00    0.4106932    0.1718419  31.39  0.001854338    2.127    0.530
        19 -11.3805    221.7673    248.7573   8.2952971219e+01  -8.3583732276e+00    0.5043507    0.2600866  45.40    0.0025358    2.787    0.641
        20 -10.6822     61.1042    248.4883   1.1478306571e+02   1.4560917496e+01     0.248803    0.2083424 -17.30 0.0008923881    1.899    0.473
        21 -10.7777     14.7618    249.5168   1.2346333287e+02   1.9656762687e+01    0.2004457    0.1451481  40.90   0.00103237    1.425    0.298
        22 -11.1696     97.2030    221.2039   1.0447680673e+02   1.5035493423e+01    0.2951226    0.2191748  63.35  0.001459307    1.354    0.261
        23 -10.0435      2.5864    225.2002   1.2445357197e+02   2.5636008965e+01    0.1742727    0.1382006 -37.23   0.00120897    2.008    0.502
        24 -11.4045      2.4245    220.9662   1.2426887612e+02   2.6525101368e+01    0.2172071    0.1492909  71.77 0.0003923503    1.121    0.108
        25 -10.3122    178.2176    224.4247   8.7425515349e+01   1.5820399642e+00    0.1843925    0.1134777  42.49 0.0006163163    1.636    0.389
        26 -11.3964    149.9799    223.5191   9.3224055133e+01   6.2625453064e+00    0.3249484    0.2440176  66.70  0.001736545    1.805    0.446
        27 -11.4398     35.8316    223.2849   1.1783155131e+02   2.2671695144e+01    0.3189858    0.2036059  78.80 0.0009643038    1.417    0.294
        28 -10.9303     22.8868    218.4247   1.2010781990e+02   2.5095336730e+01    0.3214584    0.2348959 -85.01  0.001675102    1.219    0.179
        29 -11.9084    229.1165    217.4138   7.6296609567e+01  -4.9317170172e+00    0.4153962    0.2808599   9.42  0.002364323    1.402    0.287
        30  -9.6815     25.3914    225.2437   1.2006736329e+02   2.3393785290e+01    0.1645179   0.09229648  85.84 0.0008663472    1.632    0.387
        31  -9.5227    125.3216    215.6539   9.7442838837e+01   1.1787390795e+01    0.1414904    0.1013774  67.52  0.000405545    1.735    0.424
        32 -10.1461    180.0137    216.7595   8.5759163367e+01   2.6158948480e+00    0.2280548    0.1781919 -57.16  0.001275774    1.679    0.404
        33 -10.3881    193.3528    210.5083   8.1924842342e+01   1.5550197959e+00    0.2511584     0.185878  62.80  0.001274052    2.204    0.546
        34  -9.9689    176.9601    210.9134   8.5378148785e+01   4.1504496868e+00    0.1990501    0.1687747  68.98 0.0007927466    1.657    0.396
        35  -9.8818    124.1022    205.9459   9.6240313245e+01   1.3991722490e+01     0.192898    0.1694887  60.51            0    1.165    0.141
        36 -10.1013     94.0038    204.8304   1.0306864505e+02   1.9032572953e+01    0.2030867     0.184761   0.93 0.0009742161    1.331    0.249
        37  -9.8443     80.1820    201.0106   1.0580253205e+02   2.1935920382e+01    0.2343234    0.1434955  77.51  0.001078549    2.054    0.513
        38  -9.9687    112.4081    198.2056   9.7763486043e+01   1.7591242577e+01    0.1982083    0.1360657 -72.98 0.0009559594    1.721    0.419
        39  -9.8777      5.6777    195.9498   1.2217261723e+02   3.1653573982e+01    0.2526207   0.08574012  51.63  0.001141036    2.672    0.626
        40 -10.1552    165.6790    194.3157   8.4798201244e+01   9.2124782627e+00    0.2709866    0.2238686 -70.52  0.001153187    1.587    0.370
        41 -11.3665    162.5149    194.4982   8.5532553922e+01   9.7339103708e+00     0.429454    0.3574774  76.94   0.00147011    1.641    0.391
        42 -10.0679     66.3492    194.6498   1.0828402272e+02   2.5324858721e+01    0.2194299     0.141093  67.46 0.0008962067    1.651    0.394
        43 -11.3554     52.1850    194.3144   1.1159998403e+02   2.7218531174e+01     0.380271    0.2309025  14.79   0.00181032    2.457    0.593
        44  -9.7553    231.3244    194.2993   7.1604127010e+01  -1.6655270896e+00    0.1346833   0.08918773  -3.24 0.0005360925    1.630    0.387
        45 -10.0108    143.7334    194.6644   8.9818156061e+01   1.3011016392e+01    0.2038189    0.1243191  44.21 0.0006169465    1.609    0.379
        46  -8.8082    132.6841    194.6727   9.2391134156e+01   1.4937451385e+01    0.1458893     0.112019  -9.37 0.0007044756    1.674    0.403
        47 -10.3969    174.1752    192.5235   8.2603634668e+01   8.0673919410e+00    0.3457534    0.2233858  62.15  0.001476568    2.508    0.601
        48 -10.5847    156.2565    188.3734   8.5792042940e+01   1.2091939729e+01    0.2946997    0.2632581   9.52  0.001637703    1.109    0.098
        49  -9.9861     33.6541    186.0572   1.1511192200e+02   3.1277829990e+01    0.2111313    0.1565789  59.54 0.0006335853    1.262    0.207
        50  -9.9527    183.4770    184.9752   7.9142116819e+01   7.8794781168e+00    0.1917643    0.1278797 -66.89 0.0007792108    2.512    0.602
        51 -11.4332     42.8213    183.9588   1.1270707360e+02   3.0773916527e+01      0.29292    0.2318617  39.10 0.0008037955    1.343    0.255
        52  -9.5752    210.7000    181.6474   7.2958613849e+01   3.7644667485e+00    0.1455773    0.0991394  -7.09   0.00070374    1.697    0.411
        53 -10.6424    147.5591    179.9855   8.6196672768e+01   1.5447349617e+01    0.3072585    0.2039751 -69.31  0.001320053    2.125    0.529
        54 -10.1139    191.6609    178.3063   7.6085596941e+01   7.6954222390e+00    0.2126987    0.1790091 -87.37 0.0008992435    1.781    0.438
        55 -11.0676     58.7758    176.4983   1.0785235226e+02   3.0658662698e+01    0.3135133    0.2205984  82.30 0.0006421109    1.478    0.324
        56 -10.0470    129.3190    176.8263   8.9978260291e+01   1.9478711496e+01    0.3000334    0.1396921 -59.99  0.001082621    2.638    0.621
        57 -10.1850     97.7774    176.8362   9.7908431158e+01   2.4905962425e+01    0.2744339    0.2183783  -3.64 0.0003018618    1.673    0.402
        58  -9.9647    217.8389    176.0070   7.0458124216e+01   3.5627116092e+00    0.2197124    0.1585814 -59.91   0.00109407    2.001    0.500
        59 -10.2328    159.4739    175.6042   8.2558821717e+01   1.4169720002e+01    0.2925531    0.2153667 -84.66  0.001283561    2.192    0.544
        60 -10.7865     11.9267    172.5865   1.1904129374e+02   3.6538375698e+01    0.5117578    0.1577671 -67.52  0.001681173    2.536    0.606
        61  -9.8174    105.2006    174.8142   9.5663868942e+01   2.4163663281e+01    0.2616932    0.1549238  72.97 0.0009565576    2.893    0.654
        62 -10.6606     38.7639    174.4232   1.1265433890e+02   3.3527678540e+01    0.1605904    0.1318528  12.55 0.0004169486    1.572    0.364
        63  -9.6648      3.3463    174.6463   1.2121696381e+02   3.6738073784e+01    0.1350472   0.07139879  66.30 0.0007037309    1.826    0.452
        64 -11.1380     34.6844    174.1145   1.1363812718e+02   3.4036817843e+01      0.22311    0.1458541  83.32  0.001192395    1.489    0.328
        65 -10.5267    121.6723    169.7068   9.0526623795e+01   2.2497559822e+01    0.3034714    0.1903941 -78.44  0.001179677    2.483    0.597
        66  -9.7706    168.3280    169.6445   7.9321327066e+01   1.3747215866e+01    0.1500781    0.1213514  88.31 0.0007045458    1.778    0.437
        67 -10.3636    139.4255    165.1965   8.5191649202e+01   2.0242499667e+01    0.3669429    0.2246691  70.16  0.001295411    3.072    0.675
        68 -10.7596     99.0885    164.7324   9.5446275855e+01   2.7613121978e+01    0.3654796    0.3146184  42.24  0.001940529    1.170    0.146
        69 -10.1758     79.9627    164.2539   1.0047300421e+02   3.0752460620e+01    0.3051703    0.1770719  86.87  0.001162445    2.702    0.630
        70 -12.8771    120.0656    158.1335   8.8635648808e+01   2.5517191123e+01    0.8076946    0.4579889  39.60  0.001251319    1.766    0.434
        71 -11.9804     21.0288    159.4280   1.1553713617e+02   3.8945770794e+01    0.4559015    0.3639615  69.89  0.002065084    1.209    0.173
        72 -10.0560    112.9708    160.9261   9.1055434655e+01   2.6138097543e+01    0.2288261    0.2250583  68.58 0.0004972399    1.015    0.015
        73 -10.4869     93.5136    160.9986   9.6252606359e+01   2.9445099679e+01    0.3059587    0.1982478  53.75   0.00137731    1.689    0.408
        74 -11.3124    167.9797    156.9792   7.6675091623e+01   1.6476872263e+01    0.5212889    0.4335911  83.08  0.002411838    1.607    0.378
        75  -9.6285    108.5019    159.4913   9.1952400337e+01   2.7275250031e+01    0.2128095    0.2109836  51.47 0.0009750573    1.033    0.032
        76  -9.7501    105.1828    158.3881   9.2620969000e+01   2.8122478255e+01    0.3053242    0.2001413  62.46  0.001057219    1.924    0.480
        77 -10.6342    196.7125    157.3827   7.0625008337e+01   1.0799559981e+01    0.4123366    0.1975724 -47.23  0.001645248    2.147    0.534
        78 -11.3087    219.3305    156.0605   6.6007908225e+01   6.8767530245e+00    0.3606383    0.3176194   4.36  0.001651544    1.143    0.125
        79 -10.3470    144.9636    154.9741   8.1654979858e+01   2.1480160544e+01     0.247597    0.1958624  82.31  0.001050658    1.703    0.413
        80  -9.8783     81.9883    155.1568   9.8342494566e+01   3.2714207473e+01    0.2559827    0.1571942  61.59  0.001060201    2.049    0.512
        81  -9.6926     68.0160    154.5051   1.0211991348e+02   3.4907456129e+01    0.2125346    0.1044803  54.44  0.000810391    2.551    0.608
        82  -9.7236    119.9203    152.5133   8.7498992553e+01   2.6881438742e+01      0.21561     0.197693  46.50 0.0004510279    1.106    0.095
        83 -10.9060    243.8027    151.1394   6.0786053694e+01   3.5367641111e+00    0.2568966    0.1857323  22.74  0.001435291    1.614    0.381
        84 -10.4556    189.8052    150.2140   7.0442843170e+01   1.3546733093e+01    0.2443444       0.1695 -82.91 0.0009551058    2.828    0.646
        85 -11.4475    108.3870    146.3877   8.9295874580e+01   3.0478254166e+01    0.7270664    0.3956143  64.96  0.002346264    3.513    0.715
        86  -9.7336     39.4902    147.9933   1.0913945452e+02   4.0020561853e+01    0.2018164    0.1063567  84.06 0.0008105226    2.571    0.611
        87 -10.4558     55.6761    145.9735   1.0421090738e+02   3.8680477166e+01    0.4579456    0.2266912  72.18  0.001461507    4.200    0.762
        88 -10.4021    249.7395    144.5640   5.8490280460e+01   3.6657774257e+00    0.3048428    0.2415081 -49.73  0.001624887    1.339    0.253
        89 -11.2118    149.0217    145.7555   7.8591053690e+01   2.2738241683e+01    0.4583488    0.2758067  67.82  0.001601187    2.987    0.665
        90 -10.5145     89.1939    144.6551   9.4310405810e+01   3.4204811177e+01    0.3599663    0.2799952  17.78   0.00176151    1.516    0.340
        91 -10.4358    124.8960    143.7605   8.4265264882e+01   2.8011606978e+01    0.3035212    0.2114928 -81.58  0.001232827    2.133    0.531
        92 -10.0582     99.3811    143.5301   9.1190870979e+01   3.2772576101e+01    0.3031728    0.2308642  87.19  0.001398011    1.659    0.397
        93 -10.6440    182.6112    142.0564   7.0082406371e+01   1.6635401414e+01    0.2814158    0.2555698  72.91 0.0009398053    1.294    0.227
        94 -11.3756     21.8803    139.9098   1.1305644309e+02   4.3712044499e+01    0.3252664    0.2937113 -60.00  0.001524919    1.145    0.127
        95 -10.6723     68.8241    136.2971   9.8613663588e+01   3.9397874525e+01    0.3103079    0.2647504  34.44 0.0009712123    1.266    0.210
        96 -10.4090    132.0065    132.0071   7.9635666603e+01   2.9340058085e+01    0.2582166    0.1994167 -89.08  0.001134865    1.774    0.436
        97 -10.3157     82.5918    130.9655   9.3384416357e+01   3.8680575404e+01    0.4530565    0.1916826 -65.92  0.001457766    3.186    0.686
        98 -11.4373     98.9418    128.0195   8.7862481312e+01   3.6653260277e+01     0.624663    0.4103283  76.84  0.001805739    2.576    0.612
        99 -10.1772     12.5764    129.7588   1.1448096328e+02   4.6952253824e+01     0.188765    0.1067284 -84.76 0.0009488256    1.688    0.408
       100 -10.5046    118.4360    126.2642   8.1881543244e+01   3.3404083282e+01    0.4965118    0.2678338  65.99  0.001446581    4.198    0.762
       101 -11.3711     43.4374    122.4256   1.0384896677e+02   4.6053530290e+01    0.8350118    0.4396155 -88.07  0.003176294    2.999    0.667
       102 -10.4227     58.7431    124.1616   9.9320636700e+01   4.3810836622e+01    0.3372966    0.2214303 -87.37  0.001206884    1.988    0.497
       103 -10.8629     28.8372    123.3637   1.0862935193e+02   4.7250887354e+01    0.4331378     0.224199  76.64  0.001698467    3.132    0.681
       104 -11.0676    189.9973    123.6861   6.4209825299e+01   1.8779320246e+01    0.3370968    0.2679754  30.39 0.0007450201    1.406    0.289
       105 -11.2737     71.3250    119.7771   9.4400437970e+01   4.3176574568e+01    0.5016054    0.2743701 -71.84  0.001944354    2.412    0.585
       106 -11.5395    165.5588    106.4327   6.4948283175e+01   2.7584553286e+01    0.5552056     0.342761  60.84  0.001673435    1.911    0.477
       107 -12.2180    162.6833    112.7437   6.7237406389e+01   2.6951102990e+01    0.6989292    0.3742698  51.75  0.001759311    1.988    0.497
       108 -12.7705    154.1495    115.0661   6.9810655290e+01   2.8363618349e+01      1.00868    0.6802878 -79.44  0.002971107    2.528    0.604
       109 -13.5466    143.3428    106.1581   7.0054702790e+01   3.2639233942e+01      1.37458     1.048313  18.41   0.00625818    1.628    0.386
       110 -10.6644      2.8196    117.0668   1.1584532982e+02   5.0683857935e+01    0.3595267    0.1603857 -87.38  0.001581743    2.453    0.592
       111  -9.7779    105.1634     93.8777   7.7018201949e+01   4.3379205571e+01    0.3551088    0.2130626 -55.77  0.001110655    1.910    0.476
       112 -10.3202    107.9809    116.7583   8.2454382650e+01   3.7670576763e+01    0.4171795    0.2723418  27.50  0.001023862    1.773    0.436
       113 -11.9460    108.1713    109.9166   8.0606734655e+01   3.9218125266e+01    0.4544648    0.3214197 -42.84 0.0005282059    1.373    0.272
       114 -13.3967    112.1075    101.9897   7.7288946890e+01   4.0218640000e+01     2.905657     0.573687  46.18  0.006716875    5.845    0.829
       115 -10.6782    186.6662    114.1526   6.2533689121e+01   2.1359307150e+01    0.3489429     0.252712  25.53  0.001338933    1.741    0.426
       116 -10.9021     92.3590    112.2890   8.5991205872e+01   4.1602155852e+01    0.6113417    0.3155618 -62.83   0.00223609    2.491    0.599
       117 -10.7447     78.9848    113.1084   9.0400513776e+01   4.3642529478e+01     0.431098     0.282953  82.89  0.001678611    2.726    0.633
       118 -11.0084     24.5695    112.9635   1.0830256720e+02   5.0196109205e+01     0.277236     0.188877 -47.69 0.0007578593    1.326    0.246
       119 -11.0951     19.8995    111.4626   1.0959274505e+02   5.0932563744e+01    0.2830772    0.2371011 -33.49  0.001131433    1.260    0.206
       120 -12.0865     14.3138    108.6377   1.1098899544e+02   5.2023746133e+01    0.7535774    0.4683778 -52.24  0.004201442    1.356    0.262
       121 -12.4304    157.8593    105.1822   6.6337206783e+01   2.9579050635e+01    0.7857904    0.5975053 -52.87  0.002823674    1.356    0.262
       122 -10.6191     66.8775    111.5323   9.3949645404e+01   4.5841625142e+01    0.3009091     0.196724 -76.53  0.001324601    1.972    0.493
       123 -11.3415     57.8374    105.7188   9.5612295006e+01   4.8479321478e+01    0.3754594    0.3138147   6.18  0.001148086    1.336    0.252
       124 -12.6263     46.4939    100.3544   9.8298022200e+01   5.1148818811e+01    0.6568971    0.5992413 -15.84  0.002428613    1.147    0.128
       125 -11.4943     64.6604    103.0483   9.2645104466e+01   4.8200034575e+01    0.3839534    0.3292201 -86.29 0.0006687227    1.382    0.276
       126 -11.2897     21.5904    100.5284   1.0712335099e+02   5.3464233131e+01    0.8350236    0.3958108  86.68  0.002747302    4.781    0.791
       127 -10.7274     35.5319    103.4758   1.0282040483e+02   5.1544352417e+01    0.2653626    0.1939554 -37.02 0.0005592221    1.330    0.248
       128 -10.3095      6.4946    103.3032   1.1278249230e+02   5.3803319965e+01    0.3103082    0.1775237  78.34  0.001526464    2.269    0.559
       129  -9.5779    167.5497     99.9583   6.2803191563e+01   2.8407925664e+01    0.2103418    0.1361623 -13.74  0.000599476    2.385    0.581
       130 -11.7600    128.0812     96.9753   7.1417697140e+01   3.7930428496e+01     0.672483    0.5056465 -12.10  0.001884077    1.684    0.406
       131 -10.0086     89.0271    116.5010   8.8077264909e+01   4.1172763711e+01    0.2981684    0.2000547 -35.73 0.0009690739    1.584    0.369
       132 -11.2096     63.9945     96.8782   9.1303788800e+01   4.9749454784e+01    0.4875679    0.3023875  74.84  0.001763016    3.617    0.724
       133 -11.5289    160.2309     96.0031   6.3322021159e+01   3.0858356605e+01    0.3459442     0.294306  33.62 0.0003887761    1.265    0.209
       134 -10.3213     77.0152     97.0746   8.6906377502e+01   4.7741150725e+01    0.2195035    0.2008399 -32.02 0.0003175646    1.016    0.016
       135 -10.0078    189.6251     93.3131   5.6715252573e+01   2.4614330675e+01    0.1567684    0.1124564 -75.07 0.0007030946    1.790    0.441
       136 -10.8340     34.9037     87.2287   9.9448824638e+01   5.5463458245e+01    0.8586919    0.2940197 -54.14  0.003448928    2.318    0.569
       137  -9.8910    233.0698     90.3301   4.9153585240e+01   1.5812573228e+01     0.176742    0.1641451 -83.04 0.0003850563    1.148    0.129
       138 -11.1704     87.7279     87.9194   8.0730406440e+01   4.7962201221e+01    0.5845256    0.3374898  65.08  0.001963539    3.780    0.735
       139  -9.8185     79.9054     87.6756   8.3263543740e+01   4.9373871583e+01    0.1983018    0.1879096   9.40 0.0004472656    1.081    0.075
       140 -10.7907     44.0004     86.5461   9.5851911959e+01   5.4670523238e+01    0.3032876    0.2108613   5.28 0.0006252415    1.674    0.403
       141 -12.1266     44.9199     82.3065   9.4387907898e+01   5.5528905628e+01    0.4593827    0.3275458  56.91  0.000353035    1.984    0.496
       142 -11.2066      5.7229     85.8033   1.1017110683e+02   5.7981534447e+01    0.3501501    0.1536561 -33.21 0.0006819832    2.411    0.585
       143 -11.1174    104.8645     84.6224   7.4339323763e+01   4.5382222015e+01    0.5263311    0.3902293  49.25  0.002543116    1.433    0.302
       144  -9.7289    198.7301     84.0086   5.2784609442e+01   2.4191039269e+01    0.1964252    0.1802925 -58.52  0.000479336    1.013    0.013
       145 -10.5633    140.7813     83.3163   6.4211446397e+01   3.7789714961e+01    0.3782741    0.1958755 -52.70  0.001415191    2.333    0.571
       146 -11.1090     24.4079     80.3291   1.0184960308e+02   5.7984406300e+01    0.4003879    0.2642037  86.11  0.001977952    2.353    0.575
       147  -9.8579    119.1920     80.1932   6.8840997065e+01   4.3247255312e+01    0.2052643    0.1830749 -85.97 0.0006630438    1.338    0.252
       148 -11.2837    129.1570     92.8267   6.9936896197e+01   3.8550193225e+01    0.6526011      0.32522  53.03  0.002456123    2.213    0.548
       149 -10.1184     19.6376    249.6958   1.2260759767e+02   1.9120873528e+01   0.09418598   0.08432156 -43.37 0.0007037785    1.732    0.423
       150 -11.1371     82.1856     72.9160   7.7903671244e+01   5.2063300626e+01    0.5126871    0.3620635 -87.12    0.0020853    2.981    0.665
       151 -10.9939     51.9637     70.5660   8.8252362903e+01   5.7218321234e+01    0.4776037    0.2975123 -69.06  0.002122161    2.509    0.601
       152 -10.1236    171.1709     70.6702   5.4093979386e+01   3.2845512407e+01    0.2855508    0.2145108 -83.13  0.001096477    1.595    0.373
       153 -11.2181     30.6573     45.9966   8.9070020819e+01   6.4576315858e+01    0.6985955    0.3744805 -14.50  0.002565421    2.348    0.574
       154 -11.1713     27.4392    236.9791   1.2043272880e+02   2.0774024783e+01    0.4765944    0.2687525  15.91  0.002431928    3.145    0.682
       155 -11.6818     43.8218     65.8492   9.0033876788e+01   5.9211014856e+01    0.4375553    0.2817964 -35.82 0.0002886463    1.386    0.278
       156 -10.5633     39.3490    245.5212   1.1873430433e+02   1.7761661941e+01    0.3614669    0.1830981  74.35   0.00198241    2.002    0.500
       157  -9.4129    145.0708     64.0000   5.7434327468e+01   4.0184015755e+01     0.237912    0.0819345  55.06 0.0004986015    2.834    0.647
       158  -9.6423    203.5175     76.4447   5.0139528606e+01   2.4376574480e+01    0.1407291    0.1293098 -61.48 0.0001430939    1.008    0.008
       159 -11.6162    129.7924     59.2543   5.9462822191e+01   4.4553720959e+01    0.3074223    0.2705587  29.30 0.0005177893    1.155    0.134
       160 -10.1769     72.8397     58.9882   7.6446827607e+01   5.6344944093e+01    0.3171269    0.1824589 -60.69  0.001239176    3.135    0.681
       161 -10.3440    100.7020     65.3644   6.9402716812e+01   4.9934065121e+01    0.2893538     0.236487  -7.00 0.0009562455    1.306    0.234
       162 -11.8380      7.7993     65.6513   1.0517201757e+02   6.2402514863e+01    0.4838021    0.2998555  27.71  0.001830815    1.936    0.484
       163 -10.8471    113.3719     49.9318   6.0502752642e+01   4.9755460616e+01     0.318704    0.2659309 -89.00 0.0006706713    1.549    0.354
       164 -11.9346     75.4002     43.1865   6.9640914400e+01   5.8558520912e+01    0.5384324    0.2750472  45.36 0.0007208185    1.978    0.495
       165 -11.0259     73.5058     39.4994   6.8859900522e+01   5.9463552221e+01    0.2544065    0.2029056  42.38  0.001254868    1.314    0.239
       166 -14.0822     41.0135     37.9430   8.1277339238e+01   6.4789559560e+01    0.5851085    0.4306417   3.51   0.00139687    1.269    0.212
       167 -10.7104     81.4214     38.0608   6.5576012373e+01   5.8187979348e+01    0.3090535    0.2826593  17.38  0.001919078    1.082    0.076
       168 -10.9578    145.2147     36.5704   4.8952986488e+01   4.4115382552e+01    0.3052253    0.2373937  69.99 0.0007080503    1.242    0.195
       169  -9.1764    126.4880     35.4526   5.2378209903e+01   4.8731808446e+01    0.1379992    0.1269357  51.00  7.09763e-05    1.011    0.011
       170 -10.7769     73.6193     33.0109   6.6198309683e+01   6.0372749533e+01    0.3492828    0.2965236  26.14  0.002155839    1.089    0.081
       171 -11.8359      1.9834     30.0622   9.7638949441e+01   6.9869960744e+01     0.371543    0.1450264 -49.75  0.001017353    1.984    0.496
       172 -10.8308    196.4745     30.4425   3.9643450308e+01   3.2580461508e+01    0.2339767    0.2031563  63.85 0.0004922272    1.218    0.179
       173  -9.3667    249.9751     27.0030   3.3811361553e+01   2.1483253044e+01    0.1413654    0.1114625 -68.92 0.0003639871    1.040    0.038
       174 -10.7652    176.9639     26.4265   4.1021513547e+01   3.7654724153e+01    0.2716449    0.2037622  72.31 0.0004527753    1.219    0.180
       175 -10.1276     49.1157     25.6315   7.2477290140e+01   6.5537665824e+01    0.2961715    0.1850408  40.78  0.001665269    1.696    0.411
       176 -10.3356     37.1539     25.6431   7.7816310369e+01   6.7231607635e+01    0.2649353    0.1719574   2.18 0.0009695101    1.539    0.350
       177 -11.1516     38.2360    238.6319   1.1847257121e+02   1.9244744196e+01    0.5686904    0.2032524  59.61  0.002496827    2.918    0.657
       178  -9.6087      5.5296    245.5374   1.2489434685e+02   2.1327359122e+01    0.1105567    0.0792009  68.86 9.764836e-05    1.015    0.015
       179 -13.0953     17.8668    235.8192   1.2216708059e+02   2.2009628269e+01    0.6383826    0.2626516  54.47   0.00345371    1.990    0.498
       180 -11.1339    211.6890     18.9757   3.5331774088e+01   3.0464331564e+01    0.2830067    0.1985831  65.36 0.0008482024    1.432    0.302
       181  -9.8785      7.9928    241.0108   1.2424559890e+02   2.1964324746e+01    0.1510923    0.1268952 -57.03  0.001139356    1.666    0.400
       182  -9.7070    123.5181     23.0303   4.8787094778e+01   5.0872524662e+01    0.2181973     0.159745  56.05 0.0006220894    1.214    0.177
       183  -9.8356    193.2023     21.4023   3.7775977342e+01   3.4394970350e+01    0.1851595    0.1718698  73.24 0.0003455193    1.176    0.150
       184 -11.0441    195.9652     18.7570   3.6830522094e+01   3.4049298371e+01    0.3296051    0.2168682  86.36  0.001181113    1.422    0.297
       185 -10.1600     31.2868     20.5327   7.8290312605e+01   6.8728455494e+01    0.2560059     0.175348   0.20  0.001601338    1.316    0.240
       186 -12.3125     90.8291     18.8190   5.5013400037e+01   5.8655443051e+01    0.2851586    0.2279436  45.86 0.0004158704    1.131    0.116
       187 -10.1636      1.3718     17.1480   9.2954475846e+01   7.2143766377e+01    0.1896831   0.08300769 -44.68 0.0004120375    1.837    0.456
       188 -10.4504    209.8849    237.2180   8.3290548993e+01  -5.1542211751e+00     0.278886    0.1668987 -55.23  0.001352277    3.076    0.675
       189 -10.0024      2.9970    234.9633   1.2485326586e+02   2.3628025567e+01    0.1698706    0.1201304  67.70 0.0004043952    1.062    0.058
       190 -10.3172    123.8626    232.9060   1.0019022408e+02   8.6462127899e+00    0.2505895    0.1918358 -57.54  0.001479163    1.492    0.330
       191 -10.6041    127.2752    230.2025   9.9092696143e+01   8.6264339662e+00    0.2893206    0.1808201 -51.83  0.001185028    1.800    0.444
       192 -11.4421     72.9599    230.2383   1.1073418491e+02   1.6618695259e+01    0.3943061    0.3502648 -85.41  0.001791002    1.176    0.150
       193  -9.6471    166.8110    233.5961   9.1244430732e+01   1.8137551037e+00    0.1859883    0.1079175  42.44  0.000945963    1.655    0.396
       194 -10.4883    108.9759    232.8091   1.0336061001e+02   1.0938044270e+01    0.1982336    0.1900773 -86.25 0.0006635325    1.155    0.134
       195  -9.9085     61.9584    233.1691   1.1330204160e+02   1.7468796535e+01    0.2448944    0.1320276  36.21  0.001309041    1.733    0.423
