#   1 NUMBER                 Running object number                                     
#   2 MAG_AUTO               Kron-like elliptical aperture magnitude                    [mag]
#   3 X_IMAGE                Object position along x                                    [pixel]
#   4 Y_IMAGE                Object position along y                                    [pixel]
#   5 X_WORLD                Barycenter position along world x axis                     [deg]
#   6 Y_WORLD                Barycenter position along world y axis                     [deg]
#   7 A_WORLD                Profile RMS along major axis (world units)                 [deg]
#   8 B_WORLD                Profile RMS along minor axis (world units)                 [deg]
#   9 THETA_WORLD            Position angle (CCW/world-x)                               [deg]
#  10 FWHM_WORLD             FWHM assuming a gaussian core                              [deg]
#  11 ELONGATION             A_IMAGE/B_IMAGE                                           
#  12 ELLIPTICITY            1 - B_IMAGE/A_IMAGE                                       
         1 -13.1653    211.0594      1.9987   5.8600121602e+01   3.0955838961e+01     1.856359    0.8642756  68.90  0.006883101    2.091    0.522
         2 -14.1506    187.4151     24.7263   6.8823441441e+01   3.5005675513e+01     2.132674     1.405879  -3.89   0.00660897    1.640    0.390
         3 -13.9277    195.0819     18.7413   6.5742557562e+01   3.3603429448e+01     1.718274     1.083546 -31.21  0.005131309    1.562    0.360
         4 -13.0744    200.7660     10.8820   6.2487544865e+01   3.2863509652e+01     0.867479    0.6584404  32.62  0.001519233    1.349    0.258
         5 -11.0654     32.5993      5.2737   1.0687370532e+02   7.0709339957e+01    0.4476862    0.0743768 -42.55  0.001417951    4.489    0.777
         6  -9.0952    185.7184    238.3189   1.1792551566e+02   5.5182525954e+00    0.0971024   0.07249226  52.91 0.0002662832    1.583    0.368
         7 -11.7268    247.3012    249.3981   1.0967154590e+02  -4.0710199619e+00    0.4315643    0.1710871  36.63  0.002671998    1.747    0.428
         8 -12.2374    139.4776    248.2370   1.2653295860e+02   1.0920722865e+01     0.439925    0.2881024 -68.84  0.003238306    2.373    0.579
         9 -11.4586    109.9990    247.7597   1.3121672539e+02   1.4835966941e+01    0.2276369    0.1683885  53.25 0.0008670712    1.095    0.086
        10 -12.5368    104.5248    244.3026   1.3182149843e+02   1.5965406818e+01    0.3772364    0.2872793 -80.80 0.0007945484    1.629    0.386
        11 -13.0444    100.1772    244.7744   1.3255358107e+02   1.6445652287e+01     0.455698    0.4096611  31.72  0.002483152    1.428    0.300
        12 -13.0791     73.3726    226.8075   1.3562853691e+02   2.2148332299e+01    0.5910119    0.2114709  59.59  0.003023191    3.122    0.680
        13 -14.0907     33.2131    245.8192   1.4290482385e+02   2.3655577937e+01     1.696502    0.6787643  35.92   0.01160183    2.286    0.562
        14 -13.4469     49.1745    226.4923   1.3956460695e+02   2.4844657190e+01    0.4952866    0.4600421  25.11  0.002424485    1.633    0.388
        15 -16.1644     48.0609    201.5138   1.3829220489e+02   2.8894327730e+01     8.086529     2.605437  56.20   0.04152725    2.852    0.649
        16  -9.9631    228.9222    205.7491   1.0612760577e+02   2.3389179874e+00    0.1827894    0.1553133  -8.70 0.0006089111    1.403    0.287
        17 -11.4249     32.5047    204.8711   1.4118260590e+02   2.9883900114e+01    0.3126692    0.2012246  63.84  0.001459805    1.175    0.149
        18 -10.8231    192.9974    194.8017   1.1059340201e+02   9.3472179230e+00    0.6745358    0.3484837 -57.50  0.002391452    6.628    0.849
        19 -10.2144     66.1442    195.3361   1.3457184803e+02   2.7953823732e+01    0.2501415    0.1366613  55.43  0.001326611    1.544    0.352
        20 -11.9935     73.0667    192.8708   1.3306988188e+02   2.7560163361e+01    0.3208116    0.2348368 -46.16  0.001281152    1.909    0.476
        21 -11.8728     77.4900    186.1045   1.3160626546e+02   2.8189855469e+01    0.2344361    0.2091567 -58.43 0.0008663667    1.397    0.284
        22  -8.7873    181.5241    192.4413   1.1231512126e+02   1.1554701133e+01    0.1244276   0.09805995  30.34 5.084828e-05    1.010    0.010
        23 -10.9043     35.6908    230.2020   1.4187847794e+02   2.5643761752e+01    0.2198797    0.1310256  61.61   0.00054294    1.221    0.181
        24 -10.4542     37.6530    226.1308   1.4138411363e+02   2.6057818152e+01     0.188072     0.132442  74.22 0.0008551306    1.175    0.149
        25 -11.5999     85.8936    174.3083   1.2870762811e+02   2.9223578432e+01    0.2502315     0.201625  44.56 0.0005022843    1.176    0.150
        26 -13.4209     73.4989    171.6453   1.3097602137e+02   3.1283313059e+01    0.3769158    0.2436599 -44.53  0.001516706    2.108    0.526
        27 -13.5247     58.0836    130.9515   1.2977192495e+02   4.1199923222e+01     2.020267    0.6527377 -77.58  0.006022022    6.156    0.838
        28 -13.1040     90.2656    165.6097   1.2677056940e+02   3.0243599920e+01     2.942807    0.5001201  46.25  0.001735841    5.750    0.826
        29 -13.7997     67.7240    144.5545   1.2918334570e+02   3.7258923491e+01     1.180308      0.74916  62.19  0.006920215    1.600    0.375
        30 -11.3807     47.5939    150.7121   1.3441714066e+02   3.8246528439e+01    0.2715129    0.1593722 -68.92 0.0009785464    1.578    0.366
        31 -12.2015     46.5429    146.2150   1.3421403097e+02   3.9258365805e+01    0.3605886    0.2491348  58.88  0.002015038    1.333    0.250
        32 -10.3759    103.1718    149.3589   1.2167743621e+02   3.1499234464e+01    0.3019925    0.2573044 -12.22  0.001293688    1.543    0.352
        33  -9.2456    105.9680    145.0320   1.2035429010e+02   3.1917775211e+01    0.2900891    0.1976431  -7.22  0.001350031    2.785    0.641
        34 -12.3140     92.2241    148.9327   1.2411656210e+02   3.3178462502e+01    0.2314042    0.2251774 -26.15 0.0004688776    1.224    0.183
        35  -9.8679    134.2031    146.7652   1.1421419291e+02   2.6936291803e+01    0.5472595    0.1117143 -52.18  0.001400285    7.115    0.859
        36 -10.0149    113.1398    135.2837   1.1699705773e+02   3.2701862537e+01     0.286195    0.2225722 -10.87 0.0009897548    1.773    0.436
        37 -13.6612     42.5864    128.3985   1.3327235021e+02   4.3346016518e+01    0.7497393      0.37599 -74.36  0.004107461    1.793    0.442
        38 -10.2329    138.2981    171.9647   1.1755154482e+02   2.1833457096e+01    0.1720206    0.1630989  45.48  0.001173453    1.096    0.087
        39  -9.2774    160.6491    127.3178   1.0433634566e+02   2.5478705406e+01    0.1410838    0.1153748  82.34  0.000704752    1.737    0.424
        40 -10.1390    230.8456    167.6868   9.9041486144e+01   6.1476708328e+00    0.2485768    0.1385535 -47.51  0.001100975    3.418    0.707
        41  -9.6767    109.0431    122.9108   1.1566076410e+02   3.5872672226e+01    0.1906821    0.1845078  53.97 0.0003251416    1.022    0.021
        42 -11.0038    168.2978    113.1238   9.9296042823e+01   2.6380476263e+01    0.3507856    0.3061834 -80.25 0.0009248406    1.555    0.357
        43 -10.7840    100.5515    132.4689   1.1953838578e+02   3.5264060339e+01    0.2645155    0.2101496 -30.72 0.0008853871    1.534    0.348
        44  -9.6215    204.9890    110.6390   9.1127772467e+01   1.8830437423e+01    0.3993261    0.1845622  31.20  0.001465386    2.606    0.616
        45 -15.1166      9.6120    240.5706   1.4613951696e+02   2.6513977101e+01     1.885957    0.6302312 -67.77  0.009224275    3.450    0.710
        46  -9.8827     15.9599     91.7639   1.3617648150e+02   5.3465406686e+01    0.1488527    0.1304843  88.94 0.0003538461    1.133    0.117
        47  -9.5774    154.4997     76.0191   9.2254047333e+01   3.5979826792e+01     0.235626    0.1496553 -32.18  0.000609425    1.558    0.358
        48 -14.0533     11.1840    206.5070   1.4479654553e+02   3.1513464377e+01    0.7963887    0.5360936  28.62  0.003157564    1.888    0.470
        49  -9.2841    127.6486     54.2895   9.1935216306e+01   4.5921742182e+01    0.1482178    0.1238341 -77.55 0.0004889616    1.670    0.401
        50 -11.3992    200.5659    249.6405   1.1690710457e+02   2.2985481477e+00    0.3965991   0.06638886  39.25  0.001506234    4.245    0.764
        51 -11.6502    173.7518    221.3798   1.1782129069e+02   9.1712361627e+00    0.3776781    0.1605106  38.10  0.002050003    1.800    0.444
        52 -15.5700      2.7669    144.3906   1.4361014659e+02   4.3263484654e+01     14.92765          nan -78.00   0.02791403   20.044    0.950
        53 -10.7171    163.1174    250.0427   1.2291326212e+02   7.4860367831e+00    0.2847035    0.1002159  47.92  0.001484469    2.515    0.602
