#   1 NUMBER                 Running object number                                     
#   2 MAG_AUTO               Kron-like elliptical aperture magnitude                    [mag]
#   3 X_IMAGE                Object position along x                                    [pixel]
#   4 Y_IMAGE                Object position along y                                    [pixel]
#   5 X_WORLD                Barycenter position along world x axis                     [deg]
#   6 Y_WORLD                Barycenter position along world y axis                     [deg]
#   7 A_WORLD                Profile RMS along major axis (world units)                 [deg]
#   8 B_WORLD                Profile RMS along minor axis (world units)                 [deg]
#   9 THETA_WORLD            Position angle (CCW/world-x)                               [deg]
#  10 FWHM_WORLD             FWHM assuming a gaussian core                              [deg]
#  11 ELONGATION             A_IMAGE/B_IMAGE                                           
#  12 ELLIPTICITY            1 - B_IMAGE/A_IMAGE                                       
         1 -14.6981     68.3228    144.2471   1.1173204608e+02   3.7747228125e+01     4.710518     1.896389  62.10  0.004345431    4.319    0.768
         2 -14.5544    199.0334     32.6906   5.3044802189e+01   3.0451950146e+01     2.360686     1.501242  24.54  0.008183712    2.030    0.507
         3 -14.1597    212.5756     16.4336   4.6858746179e+01   2.8819705446e+01     1.219986    0.9371237  17.97  0.002676039    1.539    0.350
         4 -13.2452      2.0471     23.6358   1.1445232689e+02   7.2507872144e+01     2.623441    0.2701533 -69.15  0.005947581    9.286    0.892
         5 -10.3694     60.8159      7.8061   7.2935685552e+01   6.8118259175e+01    0.1761156    0.1624839 -56.82 0.0004365102    1.343    0.255
         6 -10.6728     56.3563      2.6515   7.1617544838e+01   6.9689757169e+01    0.2003286    0.1623633 -58.54   0.00112661    1.673    0.402
         7 -14.0169      3.2330      5.9451   1.0693561513e+02   7.6277830290e+01     1.491019     1.328172 -42.78   0.01088159    1.133    0.117
         8 -16.5656      6.8858    209.2359   1.3020340866e+02   3.1555603255e+01     5.642232     1.310932 -74.20   0.02748415    4.071    0.754
         9 -10.2070    174.4986    250.1353   1.0306314467e+02   5.5371086297e+00    0.2049742    0.1027933  46.26  0.001019938    1.914    0.478
        10 -15.2963    103.3808    248.4243   1.1491911291e+02   1.4959754729e+01      6.11772     2.143115  28.99   0.02676293    3.887    0.743
        11 -10.6872    210.7534    180.2511   8.7016017509e+01   8.1324615302e+00    0.3571388    0.2050086  -7.21  0.001893383    2.149    0.535
        12 -12.0654     69.1094    181.2634   1.1575326795e+02   3.0096893042e+01    0.3617036    0.2628067 -34.77  0.002178025    2.137    0.532
        13 -11.9166     73.6342    175.7120   1.1418064277e+02   3.0575064190e+01    0.2656497    0.2378462 -21.27  0.001164189    1.559    0.358
        14  -9.7023     99.4962    180.6966   1.0900638813e+02   2.6026916525e+01    0.2217934    0.1435743  39.60 0.0006786282    1.340    0.254
        15  -9.1882     96.6087    194.1849   1.1118746227e+02   2.4054553301e+01     0.141188    0.1105297 -51.69 0.0005500242    1.583    0.368
        16 -13.5314     69.9890    162.0153   1.1351815160e+02   3.3780645018e+01    0.5463506    0.4537022 -17.50  0.001232043    1.773    0.436
        17 -12.3274     82.5626    165.0030   1.1089230690e+02   3.1458911671e+01    0.5540233    0.4004912  86.82  0.003294732    1.492    0.330
        18 -12.6721     88.6291    158.5195   1.0860312840e+02   3.1881104227e+01     1.109248    0.5975559 -70.55  0.001445868    2.165    0.538
        19 -12.8372     18.2126    191.8604   1.2735806630e+02   3.3649821682e+01    0.3544623    0.2536075  45.23 0.0004468284    1.242    0.195
        20 -11.0772     32.5138    165.2581   1.2272217153e+02   3.7468362197e+01    0.2129052     0.133522  73.20 0.0008897552    1.401    0.286
        21 -10.0010     52.7939    164.3818   1.1787029917e+02   3.5440074493e+01    0.2745389    0.1498546 -41.70  0.001318138    3.029    0.670
        22 -10.9417    137.3989    170.6066   9.9381042826e+01   2.1810167465e+01    0.2418215    0.1512719  40.64 0.0009526333    1.389    0.280
        23 -10.4986    188.9958    154.5245   8.6122310952e+01   1.5232961095e+01    0.3000067    0.2242908  35.41  0.001153935    1.210    0.174
        24 -10.9470    134.1075    146.4035   9.5900355409e+01   2.6695930680e+01    0.7923605    0.1887112 -49.53  0.002408499    4.805    0.792
        25 -10.1544    174.7148    149.0628   8.7781786440e+01   1.8684571180e+01    0.2302878    0.1744271  47.61 0.0005456292    1.334    0.250
        26 -11.4956     53.1959    148.1581   1.1611196146e+02   3.8815995748e+01    0.3234849    0.2475566  60.37  0.002035216    1.151    0.131
        27 -10.7154     41.2984    147.0529   1.1904937480e+02   4.0406519195e+01    0.2603882    0.2204153  68.97  0.001269505    1.038    0.036
        28 -10.8240     44.9961    144.9599   1.1788487556e+02   4.0458611422e+01    0.2965319    0.1503707  43.52   0.00134035    1.767    0.434
        29 -12.4772     89.8093    143.0031   1.0601882176e+02   3.4906344254e+01    0.3687617    0.2944662 -12.13 0.0006889323    1.821    0.451
        30 -10.9847    102.8606    142.2163   1.0259913283e+02   3.2979385244e+01    0.5149173    0.3434679 -21.52  0.002335467    2.599    0.615
        31 -10.7016     46.6688    171.3341   1.1991477053e+02   3.4731192553e+01    0.3318215    0.1972988  65.33  0.001598216    1.527    0.345
        32 -10.1582    111.7148    131.7825   9.8459590061e+01   3.3609984867e+01    0.2954217    0.2261593   9.70  0.001171024    1.779    0.438
        33 -10.2116    105.9203    130.7001   9.9726727769e+01   3.4854847447e+01    0.2886413    0.2591074  89.31  0.001207429    1.146    0.127
        34 -16.5399      9.5776    243.2886   1.3066628872e+02   2.5854086726e+01     4.610912     2.263336 -89.35   0.03471111    2.036    0.509
        35 -10.8321    160.3320    128.5991   8.6415139470e+01   2.4869716705e+01    0.3486977    0.2365046 -17.68  0.001656324    1.849    0.459
        36 -11.8487     45.5193    129.7378   1.1603487731e+02   4.3806595305e+01    0.3763363    0.2284949  28.05  0.002023498    1.842    0.457
        37 -11.5119    135.4986    124.1229   9.1012471225e+01   3.0666693110e+01    0.7970206    0.1406395 -47.66  0.001911521    6.533    0.847
        38 -10.4278    125.8490    127.7040   9.4115225649e+01   3.1834622666e+01    0.2660425    0.1868073 -81.23  0.001154781    2.108    0.526
        39 -11.1110    117.5930    126.2444   9.5856834420e+01   3.3679940948e+01    0.4402601    0.2913158 -27.75  0.002016536    2.084    0.520
        40 -14.7781     65.5288    243.7078   1.2117076414e+02   2.0126746555e+01       3.1825     1.569366  25.30   0.01616153    2.628    0.619
        41 -10.5729    195.5710    169.8170   8.7807040723e+01   1.1950226944e+01    0.2729743    0.2269838  -5.20 0.0009940842    1.168    0.144
        42  -9.7232    107.9908    120.1172   9.7044746868e+01   3.6721908349e+01    0.2010857    0.1929773  58.47 0.0003528861    1.022    0.022
        43 -13.6296     44.2225    210.1152   1.2312266986e+02   2.7788899726e+01    0.5620571    0.4451828  34.25  0.001284123    1.392    0.282
        44 -10.1759    167.9650    112.8314   8.1111768572e+01   2.6009501979e+01    0.3631715    0.2593331 -65.92  0.001660158    2.049    0.512
        45 -11.1235     98.9756    128.3969   1.0109633919e+02   3.6535272895e+01    0.2851079    0.2456586 -10.26  0.001102028    1.489    0.328
        46 -11.3829    119.1361    109.7926   9.1778324610e+01   3.6777322908e+01    0.5003865    0.3517065  80.91  0.002218252    2.104    0.525
        47  -9.9888    205.4945    110.1053   7.3394635810e+01   1.8507736685e+01    0.2920076    0.1898355  37.55 0.0008730946    1.543    0.352
        48 -11.8788     43.6266    108.9710   1.1379541560e+02   4.8857994307e+01    0.3254078    0.3013529  73.86  0.001137959    1.098    0.089
        49 -10.2873    145.7800    168.3961   9.7254561167e+01   2.0756199783e+01    0.1872967    0.1101388  32.72 0.0009455312    1.627    0.385
        50  -9.9120    134.4479    102.7173   8.6126954897e+01   3.5062470555e+01    0.2706153    0.1438095 -46.79  0.000746299    1.945    0.486
        51  -9.7902     86.3456     99.2830   9.8524387493e+01   4.5131679459e+01    0.2194041     0.186341  57.93 0.0004557196    1.195    0.163
        52 -11.9194     52.8016    109.1780   1.1094752966e+02   4.7736349752e+01     0.509169    0.2530451 -68.82  0.002353109    1.907    0.476
        53 -10.6585     53.1014     94.2161   1.0814510018e+02   5.1258209086e+01    0.2779855    0.1679386  83.09  0.001254916    2.174    0.540
        54  -8.7385     14.6508     89.3088   1.2079550233e+02   5.6217196739e+01    0.1320299   0.07931171  64.30 0.0007044149    1.710    0.415
        55  -9.0581     25.0086     82.4883   1.1605261659e+02   5.7058633187e+01    0.1609414    0.1274912  29.93 0.0003303197    1.450    0.310
        56  -9.1901    157.2565     79.9610   7.4501965428e+01   3.4108456136e+01    0.1955596    0.1286189 -35.38 0.0004088862    1.500    0.333
        57  -9.2501     58.6065     67.2755   9.9676817634e+01   5.6886233714e+01    0.1423104     0.104492  71.24 0.0001886241    1.738    0.425
        58 -10.8070     13.5248     59.7895   1.1679215274e+02   6.3408461737e+01    0.2232891    0.1928221 -72.59 0.0003791605    1.042    0.040
        59 -10.9240    151.5278     54.9310   6.7790635575e+01   3.9647617223e+01    0.3777025    0.2765152 -82.35  0.001074215    1.820    0.451
        60 -12.2195    190.1907     38.5123   5.5940348903e+01   3.1996863444e+01    0.6172436    0.4938264  48.25  0.001116181    1.304    0.233
        61 -10.9190    182.7350    233.9074   9.9791329229e+01   6.1406713665e+00     0.162519    0.1542315  60.11  0.001360066    1.599    0.375
        62 -12.2638    207.5098     22.9021   4.9210539672e+01   2.9409445192e+01    0.4457609    0.3132017  27.03   0.00121067    1.722    0.419
        63 -10.8045     70.9119    229.9213   1.1933891842e+02   2.1547834744e+01    0.3389776    0.1080281  34.62  0.001689698    2.607    0.616
        64 -11.2689     14.7883     32.0081   1.0933952246e+02   6.9828927447e+01    0.2038406     0.180929   1.39 0.0007654207    1.297    0.229
        65 -11.1724    153.5705     48.6991   6.5260542656e+01   4.0074705466e+01    0.4193073    0.2970976 -76.71 0.0008529762    1.880    0.468
        66 -10.6974    189.7982     15.1356   4.8651686335e+01   3.4685728769e+01    0.2255247    0.1830405 -52.71  0.000731937    1.199    0.166
        67 -15.4896     53.7360    200.9583   1.2064616281e+02   2.8330498252e+01     2.824639     1.560681  59.00   0.01776302    1.535    0.349
        68  -8.8560    155.2902     10.6918   5.1251333008e+01   4.4328709827e+01    0.1529534    0.1045633 -56.55 0.0002555787    1.578    0.366
        69 -11.8790    193.4309    194.1250   9.2327484839e+01   9.1719176713e+00    0.6144138    0.4338568 -56.96  0.003601922    2.510    0.602
        70  -9.8964    187.6277    210.3024   9.5791593948e+01   8.1034488706e+00    0.1078153   0.08213048  54.50 7.750705e-05    1.753    0.430
        71  -8.7228    136.6784     35.2686   6.3820336379e+01   4.6402920835e+01    0.1522785    0.1165123 -68.53 0.0002919752    1.565    0.361
