#   1 NUMBER                 Running object number                                     
#   2 MAG_AUTO               Kron-like elliptical aperture magnitude                    [mag]
#   3 X_IMAGE                Object position along x                                    [pixel]
#   4 Y_IMAGE                Object position along y                                    [pixel]
#   5 X_WORLD                Barycenter position along world x axis                     [deg]
#   6 Y_WORLD                Barycenter position along world y axis                     [deg]
#   7 A_WORLD                Profile RMS along major axis (world units)                 [deg]
#   8 B_WORLD                Profile RMS along minor axis (world units)                 [deg]
#   9 THETA_WORLD            Position angle (CCW/world-x)                               [deg]
#  10 FWHM_WORLD             FWHM assuming a gaussian core                              [deg]
#  11 ELONGATION             A_IMAGE/B_IMAGE                                           
#  12 ELLIPTICITY            1 - B_IMAGE/A_IMAGE                                       
         1 -14.9302      6.1289    148.2703   1.4433932401e+02   4.3308415032e+01     9.586654     4.289388  72.90    0.0452531    2.887    0.654
         2 -13.3044    195.6396     29.6322   6.8947472834e+01   3.2861816758e+01     1.343346     1.287041  63.71  0.007232243    1.171    0.146
         3 -13.4679    210.9556      9.9732   6.2296128534e+01   3.1420561001e+01     1.211994     0.924518  41.48  0.005592997    1.663    0.399
         4 -11.5292      2.0000     13.5087   1.1838996526e+02   7.0400953082e+01    0.6109278    0.1341497 -50.88  0.002373599    5.021    0.801
         5 -11.6886      2.4785      2.9801   1.1390042621e+02   7.1844675524e+01    0.3616775    0.2619732  24.54  0.002873198    1.768    0.434
         6 -10.4167      2.8984     37.7879   1.2608885696e+02   6.6440332196e+01    0.1872292     0.137889 -79.27  0.001258224    2.151    0.535
         7 -12.1624    244.7749    248.3598   1.0904341343e+02  -1.3331166845e+01    0.7549349    0.3484603  30.68  0.003990495    1.919    0.479
         8 -11.2559    139.2469    248.9084   1.2864600505e+02   3.9646747510e+00    0.3588165     0.278119 -60.94  0.002290294    1.536    0.349
         9 -11.4517    123.7934    249.9820   1.3165710103e+02   6.3730323661e+00    0.6279061    0.1410372  42.90  0.002213055    3.610    0.723
        10 -10.3691    111.6893    250.3954   1.3393050364e+02   8.2772651584e+00    0.2891539    0.1360895  37.81  0.001104555    2.147    0.534
        11 -11.7446     99.8358    247.4775   1.3577810045e+02   1.0678533157e+01    0.4063734    0.3560227  42.43  0.002186196    1.379    0.275
        12 -11.4234     34.8653    244.6598   1.4679526590e+02   2.0232834881e+01    0.6257786    0.3368194 -69.17  0.004010894    1.844    0.458
        13 -10.4276      2.9512    248.1268   1.5196985113e+02   2.3116319684e+01    0.3049673    0.1724253 -69.92  0.002181891    1.834    0.455
        14  -9.6886    218.3136    247.6520   1.1366804029e+02  -9.1897772528e+00     0.111003   0.09470315  65.35 0.0007046775    1.719    0.418
        15 -10.2441     51.0616    245.5222   1.4417159908e+02   1.8052170436e+01    0.2756536    0.1249035  70.95  0.001433071    2.238    0.553
        16 -10.0863     19.9554    243.0104   1.4908556448e+02   2.2255442428e+01    0.1711578     0.112981  74.03 0.0004579048    1.069    0.065
        17 -10.6233      5.1280    241.1265   1.5128870643e+02   2.4173608307e+01    0.2234186    0.1619792  30.28  0.001649955    2.202    0.546
        18 -10.6303    119.7963    238.4543   1.3102415808e+02   9.0761353054e+00    0.2878206    0.1661965 -83.92   0.00137758    2.519    0.603
        19  -8.8056     57.2741    239.6763   1.4264002620e+02   1.8337408521e+01    0.1214226   0.06835702  71.79 0.0002532882    1.579    0.367
        20  -9.1548    183.2823    238.6630   1.1880718726e+02  -2.0157255619e+00    0.1213757    0.0968254  70.73 0.0005139184    1.622    0.383
        21 -10.8020    230.0078    230.6909   1.0868532597e+02  -8.7606146378e+00    0.3816778    0.2490649 -61.74  0.001800954    3.309    0.698
        22 -10.7580    248.5725    235.3065   1.0615524395e+02  -1.2264934664e+01    0.2112514    0.1092115 -37.10  0.001140067    2.103    0.525
        23 -10.5687     49.5329    235.5187   1.4364814290e+02   2.0150771922e+01    0.2026426    0.1667308 -74.51  0.001102968    1.421    0.296
        24  -8.7781    156.3351    250.3115   1.2562131284e+02   8.2180972116e-01     0.122304   0.09199082  17.84 0.0007044668    1.682    0.406
        25  -9.2653     60.1066    227.1502   1.4103782837e+02   2.0402324757e+01    0.2050958     0.111161  70.66  0.001114815    1.763    0.433
        26  -9.9005    172.4236    222.3949   1.1834617504e+02   2.6115259153e+00    0.2794828    0.1103405  32.23 0.0009632222    3.387    0.705
        27 -10.7034     77.5045    217.1914   1.3673237853e+02   1.9965436709e+01    0.4977032    0.1164151  52.00  0.001556124    4.780    0.791
        28  -9.5318     34.4768    215.7894   1.4473094806e+02   2.5932212590e+01    0.1656447    0.1392949 -88.54  0.001210909    1.250    0.200
        29 -12.6305      9.2073    206.8984   1.4858548557e+02   3.0435279149e+01    0.7085783    0.5265791  41.30  0.003360728    1.647    0.393
        30  -8.6653    152.4052    212.7695   1.2085513769e+02   8.0856202194e+00    0.1635945    0.1337946 -39.32 0.0003423754    1.433    0.302
        31 -11.4526     60.9378    198.3098   1.3795141008e+02   2.6329299437e+01    0.2868769    0.2237662 -57.88 0.0004915664    1.476    0.323
        32 -11.2621     16.1781    197.5754   1.4664943285e+02   3.1691000792e+01     0.288307    0.1703322  66.25  0.001833817    1.474    0.322
        33  -9.4397    191.5323    192.5477   1.0913152794e+02   4.3405289857e+00     0.457821    0.2202919 -64.35  0.001032409    8.900    0.888
        34 -14.2971     39.8369    224.7631   1.4449016723e+02   2.3479177191e+01     1.879682     1.565138   1.13  0.007700346    2.400    0.583
        35 -10.2683      2.4947    192.4644   1.4879751987e+02   3.4034738320e+01    0.2050222    0.1461894  85.66 0.0009604002    1.019    0.019
        36 -11.7772     67.1231    190.0816   1.3569131513e+02   2.7300931089e+01    0.2911438    0.2255068 -63.53 0.0004875092    1.322    0.244
        37 -11.6337      6.2034    188.5285   1.4782635859e+02   3.4536081513e+01    0.3750148    0.2669874  57.15  0.002701903    1.385    0.278
        38 -10.6058     77.3167    177.3579   1.3174965904e+02   2.8723209538e+01    0.2384604    0.2099252 -79.99 0.0003670319    1.093    0.085
        39 -13.1123     64.0545    175.3496   1.3446929729e+02   3.1064757271e+01    0.4967993    0.2741401 -46.43  0.001616577    2.255    0.557
        40  -9.8064     97.8366    174.4525   1.2658381375e+02   2.6154420502e+01    0.3054445    0.1878029 -67.76  0.000822787    1.635    0.388
        41 -11.7390     85.1283    168.1811   1.2854782840e+02   2.9663473729e+01    0.6445629    0.5934877  39.10  0.003877867    1.272    0.214
        42 -12.6061     34.1925    232.2082   1.4603705230e+02   2.2685190016e+01    0.2893333     0.226572 -80.68 0.0007513341    1.326    0.246
        43  -9.8225     97.5565    152.1458   1.2272617197e+02   3.1413011529e+01    0.2886468    0.2567354 -60.50 0.0008337834    1.108    0.098
        44 -11.9611     86.1483    151.3477   1.2543815258e+02   3.3465713846e+01    0.3002842    0.2450772 -47.17 0.0005914712    1.303    0.233
        45  -8.6729    100.5277    147.9914   1.2117730785e+02   3.1884003735e+01    0.2150162     0.136516 -54.67 0.0004154636    1.501    0.334
        46 -12.2696     67.3847    143.7040   1.2884921738e+02   3.8027565722e+01    0.6718709    0.4443921  67.88  0.003031224    1.787    0.441
        47  -8.3061    192.0000    143.9752   9.8702225183e+01   1.3774726961e+01    0.2365952   0.08687649 -42.12 0.0003931488    2.711    0.631
        48 -10.7508     54.5257    229.1577   1.4223147694e+02   2.0747611146e+01    0.3168706    0.1694188  73.12   0.00151248    1.783    0.439
        49  -9.4726    109.4048    137.2121   1.1667251801e+02   3.2830427920e+01    0.4406657    0.2666583 -27.74  0.001690597    2.661    0.624
        50 -10.3222     96.5368    134.4415   1.1944587214e+02   3.5761947924e+01     0.264036    0.2285524 -31.00 0.0007196333    1.312    0.238
        51 -11.0397     56.7037    131.0412   1.2942831086e+02   4.2386963212e+01    0.4822267    0.2591849 -77.61  0.002139414    2.217    0.549
        52  -8.7926     79.7944    131.8221   1.2337150840e+02   3.9062395413e+01    0.1941711    0.1552936  78.91 0.0005837232    1.394    0.283
        53  -9.5233     88.9630    129.9660   1.2051995914e+02   3.8069434826e+01     0.243484    0.1928814  69.60 0.0009074839    1.425    0.298
        54 -11.2181     22.2415    126.4580   1.3780935083e+02   4.6953609162e+01    0.3095607    0.1942151  50.85  0.001121116    1.862    0.463
        55  -8.7720    106.5052    123.9084   1.1444196130e+02   3.6451561535e+01    0.2051676     0.141839 -52.92 0.0009606376    1.384    0.277
        56 -10.1858     32.6837    132.3510   1.3596376128e+02   4.4681017043e+01    0.2462046     0.160959  74.43  0.001369927    1.773    0.436
        57  -9.9579    167.7309    112.7906   9.6350741599e+01   2.5802258090e+01     0.352145    0.2753152 -84.40 0.0008702028    1.601    0.375
        58  -9.0378    203.4601    111.4951   8.8600572502e+01   1.7597498716e+01    0.1516521    0.1477774 -51.30 0.0001351786    1.031    0.030
        59  -8.8007     38.5239     94.8865   1.2761747651e+02   5.2577167594e+01    0.1830215    0.1066276 -59.20 0.0003335777    1.457    0.314
        60 -10.9545    241.6544     92.6883   7.7657032185e+01   1.2278040814e+01    0.2772033    0.2240802  11.61  0.001438224    1.738    0.425
        61  -8.5442    184.4920     77.4925   8.3466675082e+01   2.8482977229e+01    0.1505003    0.1456309  76.65 0.0002491005    1.037    0.036
        62  -8.9680    157.7112     76.6581   8.8756345056e+01   3.5209397080e+01    0.1536615    0.1203248  12.68 0.0006488538    1.647    0.393
        63 -10.0841     42.9787     67.5267   1.1944602963e+02   5.7800028600e+01    0.2676088    0.1960609  49.96  0.001255384    1.905    0.475
        64 -10.7362      2.3534     67.4089   1.3359305054e+02   6.0937563387e+01    0.2805265   0.09381308 -66.91  0.001252717    2.913    0.657
        65  -9.5219     32.7483     62.5601   1.2168466013e+02   5.9755599741e+01    0.1972628    0.1701695  58.82  0.001037265    1.660    0.398
        66 -10.8087     14.7250     55.1744   1.2628346685e+02   6.2576058744e+01     0.203315    0.1804616  12.61 0.0009036089    1.381    0.276
        67 -10.0022    154.9843    229.0000   1.2285692725e+02   4.6322529305e+00    0.2310935   0.06651478  42.54 0.0002096281    2.991    0.666
        68 -10.1751     81.5485    248.8471   1.3919125465e+02   1.3210380152e+01    0.2674376    0.1375387  66.63  0.001075943    1.912    0.477
        69 -10.1115     46.3956    248.5384   1.4517459733e+02   1.8091511491e+01    0.2930382    0.1343796  76.77   0.00130816    2.248    0.555
        70 -10.3586    198.5709    247.2260   1.1724418653e+02  -5.9041560323e+00    0.2116687    0.1226357 -45.88  0.001150164    2.151    0.535
        71 -10.2624     29.4102    248.6674   1.4793358561e+02   2.0136738727e+01    0.3258809     0.186062 -62.30  0.002061171    2.105    0.525
