#   1 NUMBER                 Running object number                                     
#   2 MAG_AUTO               Kron-like elliptical aperture magnitude                    [mag]
#   3 X_IMAGE                Object position along x                                    [pixel]
#   4 Y_IMAGE                Object position along y                                    [pixel]
#   5 X_WORLD                Barycenter position along world x axis                     [deg]
#   6 Y_WORLD                Barycenter position along world y axis                     [deg]
#   7 A_WORLD                Profile RMS along major axis (world units)                 [deg]
#   8 B_WORLD                Profile RMS along minor axis (world units)                 [deg]
#   9 THETA_WORLD            Position angle (CCW/world-x)                               [deg]
#  10 FWHM_WORLD             FWHM assuming a gaussian core                              [deg]
#  11 ELONGATION             A_IMAGE/B_IMAGE                                           
#  12 ELLIPTICITY            1 - B_IMAGE/A_IMAGE                                       
         1 -13.9265    198.0136     53.2305   4.4620184167e+00   2.8763673700e+01     1.164525     0.967421  40.96  0.003752228    1.519    0.342
         2 -13.9927    227.5852     26.4128   3.5534197695e+02   2.5903565795e+01     1.005917      0.90204   5.67  0.005293435    1.566    0.361
         3 -12.6747     31.3188     15.7031   3.6086457585e+01   7.3819907441e+01    0.5259036    0.2988285  26.40  0.002555551    1.852    0.460
         4 -11.6958    227.5517      9.6187   3.5156206465e+02   2.7732371353e+01    0.3072488    0.2312635  85.87  0.000775811    1.386    0.278
         5 -10.9262     26.3215      2.7921   3.0507585585e+01   7.6653887988e+01    0.2318581    0.1751772  29.38  0.001258629    1.196    0.164
         6 -10.6165     61.2057      2.1783   1.1292317818e+01   6.9484115264e+01    0.3159753   0.06209948  56.16  0.001011392    3.532    0.717
         7 -11.2054     39.9996      2.0055   2.0804426283e+01   7.4196725782e+01    0.3455261    0.1613938  44.07  0.001606044    1.902    0.474
         8 -10.3323     45.7936    228.8975   7.3435700328e+01   2.0615890081e+01    0.3669229     0.127141  34.06  0.001698822    2.073    0.518
         9 -19.2676     10.2203    163.3387   7.8971634724e+01   3.8841209913e+01     17.69106     3.765197 -84.92   0.05237489    4.959    0.798
        10 -16.5537     73.1484    146.1137   5.7378426290e+01   3.6131598320e+01     13.99412     6.929335  76.51   0.03047443    4.589    0.782
        11 -11.4936    171.6125    175.1073   3.7001160041e+01   1.3287123704e+01    0.4596716    0.3505839  30.02  0.001052568    1.250    0.200
        12 -11.1800    173.4951    171.4891   3.5945318268e+01   1.3618907493e+01    0.3782545    0.2768646  38.56  0.001379237    1.393    0.282
        13 -10.9423     89.2399    250.4775   6.5295324030e+01   1.1691932301e+01    0.1854112    0.1107548  29.54  0.000247304    1.296    0.228
        14  -8.5396    194.2805    220.3143   4.0098622252e+01   3.0684854203e+00    0.1182565   0.07446879  -3.01 0.0002742462    1.572    0.364
        15  -9.9932    174.7856    179.3926   3.7129404239e+01   1.2048140337e+01    0.2271113    0.1936061  -5.17 0.0006801953    1.061    0.057
        16 -11.7634     15.9291    249.7844   8.0914007488e+01   1.9687117953e+01    0.1881825    0.1264825  28.24 0.0008642507    1.361    0.265
        17 -10.1382    230.4614    166.4965   2.4858824493e+01   5.9085958447e+00    0.1190769     0.095888 -16.30 8.978423e-05    1.037    0.035
        18  -9.0274     50.4989    200.4319   7.0298348816e+01   2.6020952183e+01    0.1360204    0.1084097  49.20  6.46545e-05    1.045    0.043
        19  -9.6692    234.6720    157.6890   2.2594041763e+01   6.5739414930e+00    0.1220296   0.07959011  -4.60 0.0007041321    1.664    0.399
        20  -9.9336    210.7492    198.7473   3.3743176729e+01   3.9769735229e+00    0.2132307    0.1608311  -4.24 0.0004392696    1.090    0.083
        21 -11.6378    133.5815    145.1926   3.9814099952e+01   2.5792323095e+01     1.152524    0.3358428 -54.57  0.003096865    4.881    0.795
        22 -11.3094    108.9330    145.3260   4.6444671850e+01   3.0331948456e+01    0.3284537    0.3183525 -79.52 0.0006783742    1.076    0.071
        23  -9.7467     37.1042    199.1819   7.3677003566e+01   2.7788524803e+01    0.2126452    0.1298523  53.63  0.001146902    1.400    0.286
        24 -10.1874    192.7645    194.5612   3.6272104607e+01   6.9732233520e+00    0.5414542    0.2923174 -60.47  0.001750758    7.038    0.858
        25  -9.6443    167.8674    135.7724   2.9847287013e+01   2.1161263098e+01     0.462049    0.1910218 -57.07  0.001252332    5.511    0.819
        26 -11.7964    105.3950    131.5388   4.4605839659e+01   3.4261527780e+01    0.5889264    0.4307781 -32.83  0.001363864    1.612    0.380
        27 -11.8430     92.8453    131.4244   4.8406274016e+01   3.6598611457e+01    0.3671659    0.3164217  86.04 0.0003804971    1.256    0.204
        28 -10.7867    222.2513    129.2047   1.8821631206e+01   1.2609730072e+01    0.5895261    0.2137636 -48.31  0.002164206    3.681    0.728
        29 -10.0117     69.2297    194.6115   6.4859054107e+01   2.5007003632e+01    0.3727123    0.2068162  84.21  0.001101093    2.457    0.593
        30  -9.9084    136.0000    129.5691   3.5766241906e+01   2.8698242025e+01    0.3259894   0.08617176 -46.88 0.0009206469    3.822    0.738
        31  -9.8233    161.1980    126.8140   2.9235823274e+01   2.4188110694e+01    0.2112607    0.1749566  -4.12   0.00109165    1.375    0.272
        32 -11.5707    113.0290    124.4624   4.0777187971e+01   3.4462183891e+01    0.6312815    0.3595141 -43.09  0.002037292    1.868    0.465
        33 -11.1876     76.4148    120.7701   5.1580214000e+01   4.2163414773e+01     0.317634    0.2860385  89.26 0.0006723393    1.127    0.113
        34 -10.4692    100.3910    120.7209   4.3684899528e+01   3.7834334653e+01    0.2975649    0.2558806  -3.34 0.0004509375    1.399    0.285
        35 -10.8019    122.8976    116.5985   3.6101925121e+01   3.4255100932e+01    0.3063249     0.235527 -60.57  0.001105298    1.400    0.286
        36 -10.0529    108.8880    115.9335   3.9946509604e+01   3.7300685613e+01    0.2299902     0.229196  42.71 0.0003439586    1.037    0.036
        37 -11.6572    116.1928    109.0946   3.6070966451e+01   3.7370687061e+01    0.5240206    0.2538597  50.62  0.001595155    2.187    0.543
        38 -10.5973    134.4752    104.5349   2.9934454799e+01   3.4391537601e+01    0.5041751    0.1515026 -44.21  0.001503156    3.314    0.698
        39 -11.7850    116.1288     99.8867   3.3613307642e+01   3.9463953902e+01    0.4769564    0.3131967 -77.34  0.001817428    2.374    0.579
        40  -8.6915    142.5174     98.5198   2.6350810986e+01   3.3830812300e+01    0.1537486    0.1466849 -76.58 8.200888e-05    1.049    0.047
        41  -9.3768     93.2617    100.8074   4.0986505148e+01   4.4086193417e+01    0.2317648    0.2069023  83.07  0.001149292    1.190    0.160
        42  -9.3472     68.6429     94.2623   4.8200838483e+01   5.0329047709e+01    0.2886806    0.1752428  47.22 0.0009131976    1.698    0.411
        43 -12.0468     38.7334    193.6159   7.2865412428e+01   2.8873304655e+01    0.6340767    0.2923946  38.32   0.00301078    1.740    0.425
        44  -9.0716     46.8071    194.6076   7.0798683198e+01   2.7751405397e+01    0.1715151    0.1044435  40.74 0.0002694012    1.362    0.266
        45  -9.2243    234.3413    191.0186   2.8580995700e+01   2.0960008332e+00    0.1589871    0.1163406 -19.31 0.0005053958    1.125    0.111
        46  -9.4588     46.3052    190.2588   7.0579428180e+01   2.8804649087e+01    0.1805629    0.1243142  63.13 0.0004809937    1.361    0.265
        47  -9.5114     40.2327    185.9212   7.1884145681e+01   3.0495453547e+01    0.2719158    0.1748281 -22.49  0.000927248    2.466    0.594
        48  -9.2720     93.9854     79.9974   3.4606808570e+01   4.8794827522e+01    0.2458269    0.1903315  85.19 0.0005311294    1.639    0.390
        49  -9.7177     41.6669    225.2231   7.4177233508e+01   2.1787475270e+01    0.1543307   0.09898451  48.66 0.0006480736    1.237    0.192
        50  -9.3722    184.3422     77.3092   1.2536308084e+01   2.8184603926e+01    0.1385581    0.1105869  16.45 0.0007044433    1.694    0.410
        51  -9.0505     98.0291     74.2989   3.1389505484e+01   4.9142408500e+01    0.2166438     0.196618  58.50 0.0002106513    1.081    0.075
        52  -8.4250     78.2887    184.2690   6.1261397498e+01   2.6113888492e+01    0.1298046    0.1073919 -11.14 0.0001729717    1.504    0.335
        53 -11.5763    171.5565     70.3242   1.2705314742e+01   3.2227025846e+01    0.4313473    0.2895765 -73.01  0.001999715    1.812    0.448
        54 -10.6226     37.5608    224.9238   7.5119664167e+01   2.2282224386e+01    0.1823502    0.1446913  48.55 0.0005586911    1.028    0.028
        55 -12.6544    181.1651     65.4821   9.8842702103e+00   3.0767828968e+01    0.5155984    0.4996414 -46.32 0.0008035409    1.126    0.112
        56 -11.2160     87.8049    220.6317   6.2886233074e+01   1.7189424174e+01     0.376035    0.3106567  21.20  0.001502098    1.181    0.153
        57  -9.8741    237.5154    249.5086   3.7028289941e+01  -5.0719319093e+00    0.1024599    0.0697823   0.89 1.195441e-05    1.015    0.015
        58 -12.5865    204.0960     48.0917   2.4954686355e+00   2.8131886780e+01    0.5021182    0.4684651 -85.47  0.001631656    1.169    0.144
        59  -9.9425     47.2049     56.6384   4.6229570847e+01   6.3049461559e+01    0.2425787    0.2158739  57.85 0.0006707011    1.246    0.197
        60  -9.4005     69.2991     56.6738   3.5756024209e+01   5.9082984978e+01    0.1504324    0.1205018  86.39 0.0007027559    1.634    0.388
        61  -8.5100     62.7173     45.2884   3.3951437261e+01   6.2724783910e+01    0.1393505    0.1169357  85.28 0.0002124788    1.527    0.345
        62 -10.4691     71.3579    222.8563   6.6994277753e+01   1.8837186886e+01    0.1708426    0.1452243 -63.93 0.0003500472    1.426    0.299
        63 -10.4134     52.0925    243.2242   7.2872760920e+01   1.7226336666e+01    0.1906122    0.1120598  38.28  0.001151473    1.258    0.205
        64 -10.7928     60.0797     21.8704   2.3519222331e+01   6.7335469269e+01    0.3533041     0.269397  12.61  0.001081003    1.513    0.339
        65 -11.4803    180.2673    167.8741   3.3899883533e+01   1.3155159588e+01    0.6478327    0.4721701 -38.05  0.003671828    1.363    0.266
        66 -10.3501     50.0765     20.2857   2.7465629484e+01   6.9669339337e+01     0.196974    0.1696318  38.97 0.0004866758    1.098    0.090
        67  -9.0821     98.0000    241.0241   6.2552669287e+01   1.2207417477e+01    0.2030371    0.1296352 -71.60 0.0007234422    2.146    0.534
        68  -9.5402     97.0548    237.5591   6.2431009055e+01   1.2919369118e+01    0.2858479     0.128886  42.49 0.0009348653    1.861    0.463
        69  -9.0068    189.3989     14.8004   3.5522518628e+02   3.5477994370e+01    0.1631708       0.1223 -19.00 0.0006198919    1.596    0.373
        70  -9.8568     27.9108    237.4373   7.7912311569e+01   2.0823352228e+01    0.1799289     0.128869 -78.58   0.00120539    1.631    0.387
        71 -10.8063     53.1957    231.2184   7.1874562018e+01   1.9347391746e+01    0.2470549    0.1513247 -70.23  0.001067496    1.933    0.483
