#   1 NUMBER                 Running object number                                     
#   2 MAG_AUTO               Kron-like elliptical aperture magnitude                    [mag]
#   3 X_IMAGE                Object position along x                                    [pixel]
#   4 Y_IMAGE                Object position along y                                    [pixel]
#   5 X_WORLD                Barycenter position along world x axis                     [deg]
#   6 Y_WORLD                Barycenter position along world y axis                     [deg]
#   7 A_WORLD                Profile RMS along major axis (world units)                 [deg]
#   8 B_WORLD                Profile RMS along minor axis (world units)                 [deg]
#   9 THETA_WORLD            Position angle (CCW/world-x)                               [deg]
#  10 FWHM_WORLD             FWHM assuming a gaussian core                              [deg]
#  11 ELONGATION             A_IMAGE/B_IMAGE                                           
#  12 ELLIPTICITY            1 - B_IMAGE/A_IMAGE                                       
         1 -16.1558    119.1220    172.8043   6.2045401958e+01   2.0585529998e+01     2.959237      1.86112 -45.81   0.01404218    1.668    0.401
         2 -15.8562    229.3466    175.3173   3.9622968791e+01   2.0336120046e+00     3.722885     2.241841 -49.84   0.01868458    2.363    0.577
         3 -14.9286    197.1123     25.8199   7.4398005639e+00   3.2842244373e+01     2.719352    0.8226489 -44.59  0.009862976    2.777    0.640
         4 -15.0650    188.8381     15.6468   5.3436743038e+00   3.6055974977e+01     2.031643     1.067483 -48.40  0.009585217    1.706    0.414
         5 -14.0725    146.7342     22.2339   1.2787953411e+01   4.5900654944e+01     1.140002    0.7831756 -87.06   0.00548018    1.631    0.387
         6 -13.3866     38.6176     23.8174   4.7696198927e+01   6.9518203319e+01    0.7847152    0.4430826  32.50  0.003953761    1.896    0.473
         7 -13.4281     53.0597     21.4100   3.9000917574e+01   6.7647329615e+01    0.5373097    0.4541125 -59.89  0.003079907    1.626    0.385
         8 -14.3625     21.3760     19.3987   5.5671949948e+01   7.2482581807e+01     1.349529    0.8894174 -60.91   0.00727678    1.924    0.480
         9 -14.1227    145.7134      4.0168   6.3651296770e+00   4.8106259834e+01     1.458612    0.5352964  76.27  0.005419513    2.809    0.644
        10 -13.2051    165.6029      8.9497   5.7017035263e+00   4.2554775993e+01    0.5792036    0.3718022 -68.22  0.002886843    1.597    0.374
        11 -13.8019    157.6353      7.9427   6.2794618273e+00   4.4680135680e+01    0.7451712    0.4045502  81.59  0.003396077    1.885    0.469
        12 -12.2499     45.9391      9.2160   3.5256382089e+01   7.0713875777e+01      0.51579    0.3454018  53.73  0.002768035    1.919    0.479
        13 -12.8308     35.8424      5.1558   3.7969497602e+01   7.2953610138e+01    0.5499666    0.4718299 -40.58  0.003531606    1.475    0.322
        14 -13.0683      6.0454      4.3920   5.8184766058e+01   7.6736127241e+01    0.6162273     0.486321 -55.40  0.004088855    1.523    0.343
        15 -11.3972     36.0177    239.9715   8.7263317001e+01   1.7694422211e+01    0.1778253    0.1315539  59.22 0.0007685057    1.002    0.002
        16 -14.2240     12.4113    239.2414   9.1569926742e+01   2.0211749100e+01    0.7489078    0.4515407  81.31  0.005237771    1.419    0.296
        17 -13.1846     10.1016    248.8882   9.2294120675e+01   1.8686159487e+01    0.3979308    0.2004586  58.10  0.001730303    1.407    0.289
        18 -13.0518      2.9973    247.0258   9.3465319751e+01   1.9676066879e+01    0.5131587    0.2794845 -86.61  0.002481713    1.734    0.423
        19 -13.8795      5.7734    208.2554   9.1705151481e+01   2.6955925746e+01    0.6848682    0.5726489   4.41  0.004880079    1.844    0.458
        20 -13.7783      3.5474    231.1398   9.2911536168e+01   2.2558117218e+01    0.6231585    0.3278591  84.31  0.003869504    1.613    0.380
        21 -14.6958      7.8592    221.7518   9.1796353358e+01   2.3999693775e+01    0.8169308    0.3601697  86.64  0.004302096    2.003    0.501
        22 -13.7502      2.2659    220.9312   9.2830349523e+01   2.4666593634e+01    0.5649703    0.2274891  88.51  0.002313543    2.178    0.541
        23 -15.7018    143.0994    194.0702   6.0039527002e+01   1.2243059416e+01     2.362808    0.9453717 -51.57  0.009660465    2.718    0.632
        24 -14.8449    136.9866    177.7117   5.8672540582e+01   1.6539011217e+01     1.629787    0.8882257 -30.74  0.006601577    2.583    0.613
        25 -15.3263    118.0659    205.8419   6.7255971396e+01   1.3794048794e+01     1.301919     1.043661 -78.10  0.005778362    1.463    0.316
        26 -15.2915     98.3211    194.5462   7.0210104438e+01   1.9030271935e+01     2.549527     1.380246  75.96  0.009937947    3.280    0.695
        27 -14.8958     92.0586    206.2987   7.3049667409e+01   1.7449081835e+01     1.478635     1.043019 -78.65  0.008088006    1.565    0.361
        28 -11.9133     63.5624    220.7920   8.0580299372e+01   1.8228845562e+01    0.4758239    0.1817921  49.33  0.002233401    2.224    0.550
        29 -11.7793     71.0727    213.3560   7.8357384973e+01   1.8794083472e+01    0.2377831    0.1729183  87.73  0.001367592    1.390    0.281
        30 -12.2818     49.6353    232.9451   8.4258056015e+01   1.7508560912e+01    0.3594483    0.1927959  51.51  0.001459659    1.470    0.320
        31 -12.5138    158.0672    205.2372   5.8633167892e+01   7.8673458292e+00    0.3544508    0.2556776  -0.74  0.001970304    1.605    0.377
        32 -12.7110     63.5704    184.9902   7.7281206548e+01   2.5973275452e+01    0.7438295    0.4162619 -75.27  0.003682433    1.770    0.435
        33 -13.3454     74.8389    180.6841   7.4057723435e+01   2.5493767315e+01     1.419568     0.596665 -46.39  0.005394541    3.203    0.688
        34 -13.6913     69.2682    200.0509   7.7493994420e+01   2.1838759100e+01    0.7274678     0.414562  47.94  0.003526652    1.543    0.352
        35 -13.2001     71.6000    193.6670   7.6304770297e+01   2.2946090384e+01     0.608785    0.3476738  27.86  0.002580047    1.917    0.478
        36 -13.3219     19.6005    195.7146   8.8239514941e+01   2.8406961424e+01    0.4648964    0.3404629  61.60  0.001702219    1.107    0.097
        37 -12.8287     44.9894    194.7241   8.2525379371e+01   2.5974278599e+01    0.4215893    0.3215998  74.20  0.001594221    1.110    0.099
        38 -13.4362     51.3348    188.2667   8.0510062380e+01   2.6716227002e+01    0.5995002    0.4715013 -48.83  0.003182222    1.583    0.368
        39 -13.8872     45.3252    184.2703   8.1573416443e+01   2.8348172071e+01     1.053761    0.5727307  16.68  0.004833153    2.718    0.632
        40 -15.0140    246.0443    148.8299   3.1543218619e+01   3.6400368991e+00     1.540995     1.188427 -47.39  0.009338279    1.577    0.366
        41 -13.8744    161.7123    191.4608   5.5610388478e+01   9.7742216859e+00     0.641075    0.4227474 -17.79  0.003197549    1.881    0.468
        42 -14.4422    213.0622    185.2102   4.4382589540e+01   2.8850808694e+00    0.7379239    0.4439305 -31.55  0.004034155    1.506    0.336
        43 -14.5810    207.0086    178.2472   4.4158975599e+01   4.9142649990e+00     1.156403    0.5754309 -26.05  0.005249355    2.132    0.531
        44 -13.0523      5.6036    188.4095   9.0923575227e+01   3.1315390264e+01    0.5234047    0.2558003  59.26  0.001033997    1.658    0.397
        45 -13.9122     13.5265    183.0543   8.8894827609e+01   3.1860613065e+01    0.9622559    0.5949009  35.06  0.005702205    1.659    0.397
        46 -13.8325     34.5552    138.5279   7.9796038593e+01   4.1093457952e+01       1.1168    0.6521038  73.96  0.004605993    1.769    0.435
        47 -13.0427     26.2455    128.2396   8.1095316537e+01   4.4645402899e+01    0.8060861    0.4065458 -54.75  0.003347798    1.891    0.471
        48 -15.5862      6.9964    156.1422   8.8906717671e+01   3.8927769052e+01     2.766361    0.8543546  63.59    0.0101058    3.501    0.714
        49 -14.3957     22.9733    143.5660   8.3656101241e+01   4.0848679143e+01    0.9728521    0.7337614 -75.57  0.003355868    1.156    0.135
        50 -11.7236      1.7887    180.6839   9.1425257417e+01   3.3402306366e+01    0.3329351    0.1435003 -82.63  0.001384435    1.925    0.481
        51 -14.2297     22.6242    158.5319   8.5047860570e+01   3.7014166467e+01     1.787551    0.8199666  80.25  0.007867969    2.184    0.542
        52 -12.0076     64.8134    168.9809   7.5147813717e+01   2.9663858356e+01    0.4804863    0.2829148  84.26  0.002198634    1.923    0.480
        53 -14.3843     44.4632    150.4126   7.8358991914e+01   3.6891381604e+01     1.378844    0.5596532 -57.65  0.005631138    2.291    0.564
        54 -12.2533     48.4509    160.9208   7.8479256088e+01   3.3719136187e+01    0.3768949    0.2902846   5.15 0.0007596553    1.825    0.452
        55 -12.3011     53.1083    156.3342   7.6692373168e+01   3.4341527903e+01    0.4667991    0.3056722 -78.71  0.002297603    1.397    0.284
        56 -15.1091    244.5873    163.1907   3.4720380330e+01   1.6732758249e+00     1.620706    0.8752643 -45.10  0.008150922    2.145    0.534
        57 -13.5864     90.9273    148.9678   6.5182420032e+01   3.0929361328e+01     1.221652    0.6956611  52.24  0.005176074    1.911    0.477
        58 -13.9993    100.6639    146.5959   6.2083158167e+01   2.9935705078e+01     1.046026    0.4929196 -48.32  0.004026132    2.135    0.532
        59 -10.4948     61.1603    153.1991   7.4079888541e+01   3.4143315417e+01    0.1946961    0.1497629  73.50 0.0004557046    1.255    0.203
        60 -11.4571     69.9976    147.4796   7.0775152502e+01   3.4445570969e+01    0.4495793    0.2557829 -43.26  0.001908081    2.111    0.526
        61 -11.1797     69.8708    152.9931   7.1645633774e+01   3.3029787170e+01    0.3333211    0.2155488  18.35   0.00151945    2.045    0.511
        62 -13.3645    128.6500    136.9946   5.2629583578e+01   2.7245377228e+01    0.8717629    0.7167615  73.24  0.004227267    1.445    0.308
        63 -11.4737     75.1372    134.5186   6.7100779232e+01   3.7131157131e+01    0.2645117    0.1963044 -56.46  0.000451404    1.274    0.215
        64 -12.3423    248.0298    125.8355   2.6301701000e+01   6.9225349808e+00     0.401528    0.3188172 -42.49  0.002463923    1.281    0.219
        65 -11.7978      1.8704    132.1450   8.8720350833e+01   4.5439643790e+01    0.4648085    0.1557314 -79.79  0.001895928    2.343    0.573
        66 -12.7322     64.6603    209.8401   7.9428521923e+01   2.0329388498e+01     0.393361    0.1776559  31.24  0.001871624    2.184    0.542
        67 -11.9826     49.8644    136.9943   7.5060425666e+01   3.9834104649e+01    0.4043165    0.3213215  65.88  0.002187511    1.240    0.193
        68  -9.9901     89.2984    123.3225   6.0595600686e+01   3.7862636445e+01    0.1583368    0.1187996 -29.85 0.0004757383    1.624    0.384
        69 -11.6579     20.6646    111.0193   8.0790459604e+01   4.9785291985e+01    0.5685791    0.2159847 -84.83  0.002048024    2.798    0.643
        70 -13.3285    174.3034     63.2999   2.1765732342e+01   3.2808320175e+01    0.7535292     0.575277 -36.49  0.003704613    1.207    0.171
        71 -13.5797    155.7631     55.3242   2.2653484797e+01   3.8750673963e+01     1.061575    0.8353282  79.72   0.00516572    1.417    0.294
        72 -13.1169     12.6018     56.5219   7.4461019621e+01   6.4786685420e+01    0.6442991    0.5964969  21.52  0.004212591    1.325    0.245
        73 -13.2502    232.5688     51.7952   1.0672177553e+01   2.1360850402e+01    0.5201887    0.2603425  75.25  0.002378089    2.558    0.609
        74 -11.9375    239.9530     45.6334   8.4385425995e+00   2.0716809288e+01    0.3246171    0.2125527  42.13  0.001329032    2.194    0.544
        75 -11.2711      1.4621     43.8167   7.7218088521e+01   6.8483338847e+01    0.3282916   0.09145552 -65.76  0.001291106    2.577    0.612
        76 -12.5399     15.5588     39.2427   6.7840478027e+01   6.8759370464e+01    0.4851564     0.374121 -54.45  0.002570839    1.116    0.104
        77 -12.6606     47.4448     38.1695   5.0156453159e+01   6.5467033051e+01    0.4957606    0.4163249  55.34   0.00274888    1.584    0.369
        78 -14.1707    148.3226    226.5690   6.3706149043e+01   5.6929937917e+00    0.6887798    0.5441682  50.41  0.004457822    1.397    0.284
        79 -14.4368    129.9176    223.5541   6.7038149418e+01   8.8032088856e+00    0.9680866    0.6968064  41.22  0.004781418    1.228    0.186
        80 -13.3013    134.5994    210.6486   6.4351899725e+01   1.0426200207e+01    0.5505731    0.3504092 -52.75  0.003024675    1.765    0.433
        81 -11.5591     56.4761    230.9526   8.2777319758e+01   1.7098359591e+01    0.2479973     0.120216  48.63  0.001382951    1.637    0.389
        82 -12.9565    108.7346    226.5111   7.1744461324e+01   1.1238431327e+01     0.647897    0.3417571 -76.25  0.003108547    2.913    0.657
        83 -13.0292    113.9214    227.3669   7.0774330551e+01   1.0372411009e+01    0.3257452    0.2513492 -42.53  0.002087591    1.559    0.359
        84 -12.5316    176.9013    225.8098   5.8020155432e+01   1.8271467245e+00    0.3052248    0.2022525  27.99  0.001876582    1.294    0.227
        85 -12.0008     84.3727    224.5854   7.6586935135e+01   1.4860254533e+01    0.5388662    0.1673146  47.53  0.002203365    2.896    0.655
        86 -12.0295     40.4490    223.2142   8.5477559095e+01   2.0425361696e+01    0.2714911    0.2372023 -66.61  0.001903311    1.444    0.307
        87 -13.2861     42.7604    215.7619   8.4535597296e+01   2.1680033245e+01    0.5625353    0.4396594 -79.71  0.003825379    1.325    0.245
        88 -14.3151    105.5770    161.2920   6.3450690422e+01   2.5501067263e+01     1.695264    0.6515708 -41.64  0.005352504    3.708    0.730
