#   1 NUMBER                 Running object number                                     
#   2 MAG_AUTO               Kron-like elliptical aperture magnitude                    [mag]
#   3 X_IMAGE                Object position along x                                    [pixel]
#   4 Y_IMAGE                Object position along y                                    [pixel]
#   5 X_WORLD                Barycenter position along world x axis                     [deg]
#   6 Y_WORLD                Barycenter position along world y axis                     [deg]
#   7 A_WORLD                Profile RMS along major axis (world units)                 [deg]
#   8 B_WORLD                Profile RMS along minor axis (world units)                 [deg]
#   9 THETA_WORLD            Position angle (CCW/world-x)                               [deg]
#  10 FWHM_WORLD             FWHM assuming a gaussian core                              [deg]
#  11 ELONGATION             A_IMAGE/B_IMAGE                                           
#  12 ELLIPTICITY            1 - B_IMAGE/A_IMAGE                                       
         1 -13.2464    195.6850     30.4336   6.7354915518e+01   3.2718515536e+01      1.13573    0.9624553  58.79  0.006768327    1.215    0.177
         2 -13.7081    210.3744     12.1157   6.1244296306e+01   3.1328494240e+01     1.247963    0.9430201  41.21  0.007401941    1.720    0.419
         3 -11.5959      2.1163     12.2980   1.1474498861e+02   7.0868991326e+01    0.4778846    0.1071144 -45.75  0.002110408    3.746    0.733
         4 -10.9190     81.8081    249.0993   1.3788119350e+02   1.2781514938e+01    0.2125245     0.167818  49.27 0.0009682474    1.280    0.219
         5 -11.5370    124.4953    250.2103   1.3012015336e+02   5.8419129064e+00    0.5424008    0.1332206  44.05  0.001974785    3.281    0.695
         6 -11.0284     66.0127    249.3135   1.4070694602e+02   1.5014993430e+01    0.2890584    0.1834624  68.27 0.0008203571    1.306    0.234
         7 -13.5908     33.0101    246.8044   1.4612950664e+02   1.9772645281e+01     2.447374     1.764455   7.40   0.01328301    3.960    0.747
         8 -14.6933      8.7019    244.3974   1.4988930945e+02   2.2956320431e+01     8.075214     2.804105  30.82   0.03486345    5.312    0.812
         9 -12.6210     34.8467    229.9937   1.4459057496e+02   2.2837967945e+01    0.3100654    0.2507463 -80.84 0.0007609273    1.306    0.234
        10 -13.6059      9.4389    207.1662   1.4741908214e+02   3.0299134551e+01     1.847853     1.145196  15.49   0.01057957    3.189    0.686
        11 -11.3072    105.1958    245.3052   1.3317416340e+02   9.8750107891e+00    0.2452667    0.1641247 -81.30  0.000995149    1.657    0.397
        12 -15.3713      6.5213    149.4721   1.4297539126e+02   4.3251209326e+01     6.143161     1.753741 -77.18   0.02351603    3.405    0.706
        13 -14.5211     41.0224    221.9150   1.4281908130e+02   2.3740110629e+01     1.781107       1.5089 -27.76  0.008154277    2.118    0.528
        14  -8.7575    152.7147    213.0004   1.1914407418e+02   7.7586792897e+00    0.1783361    0.1722217  74.22 0.0003301744    1.082    0.076
        15 -12.1528     51.0728    235.5207   1.4216056448e+02   1.9703640760e+01    0.3660373     0.280825 -87.21  0.001446654    1.184    0.156
        16 -11.3963     61.5845    196.5747   1.3618316371e+02   2.6561550318e+01    0.3298589     0.244772 -49.22  0.001394423    1.670    0.401
        17  -9.8034    193.3161    194.9907   1.0742743087e+02   3.4261961291e+00    0.3605247    0.1839385 -62.96  0.001132543    4.530    0.779
        18  -9.8989    163.5266    249.5033   1.2261123227e+02  -6.4202871507e-01    0.1277473    0.1068154  43.11 0.0002277125    1.015    0.014
        19  -9.7867     42.0220    194.0122   1.3997622070e+02   2.9639173066e+01    0.2124841    0.1219062  71.79 0.0009550148    1.732    0.423
        20 -11.6810     67.6086    188.6168   1.3389341140e+02   2.7532657921e+01    0.2934732     0.230313 -60.27  0.000731553    1.327    0.246
        21 -10.8057     77.6037    176.2788   1.2989553854e+02   2.8944754113e+01     0.256655    0.2203619 -74.68 0.0003696972    1.086    0.080
        22 -13.0796     64.4598    174.1160   1.3262870938e+02   3.1342850329e+01    0.5024707    0.2875232 -45.59  0.001455971    2.127    0.530
        23 -11.8144     85.1231    166.8879   1.2661332117e+02   3.0010329309e+01    0.6576639    0.5733526 -82.61  0.003791486    1.031    0.030
        24  -9.9490     97.9725    151.4304   1.2060089710e+02   3.1586859482e+01      0.29889    0.2688103  53.33 0.0007657048    1.154    0.133
        25 -12.0271     86.4807    150.4999   1.2335299718e+02   3.3718845370e+01    0.3092104    0.2518537 -47.07  0.000554472    1.274    0.215
        26 -12.3418     67.5020    143.8776   1.2703947709e+02   3.8141387107e+01    0.7338935    0.4905719  69.18  0.003374003    1.816    0.449
        27 -11.6300     57.7619    132.4227   1.2754174725e+02   4.2162797777e+01    0.8087142    0.3349213 -75.15  0.002525155    4.343    0.770
        28  -8.6164    192.2212    144.0668   9.6714547404e+01   1.3737064865e+01    0.1982146    0.1239268 -40.47 0.0004386735    1.572    0.364
        29  -9.6105    109.6210    136.9274   1.1453514207e+02   3.2944203441e+01    0.3958099    0.2409218 -29.75  0.001450942    2.369    0.578
        30 -10.4606     96.8055    133.8862   1.1724890660e+02   3.5971752868e+01    0.2762314    0.2269069 -32.33 0.0004610218    1.365    0.267
        31 -10.4737     50.3839    129.8626   1.2908479422e+02   4.3662428816e+01    0.2332183    0.2106149  73.46 0.0005761529    1.198    0.165
        32  -8.8931    106.8534    123.5027   1.1214719085e+02   3.6594948389e+01    0.2013186    0.1505467  41.79 0.0003477804    1.406    0.289
        33 -11.4148     55.1119    229.9157   1.4093443390e+02   2.0295402364e+01    0.3496823    0.1781061  62.42  0.001747689    1.789    0.441
        34  -9.1349    101.1110    147.1401   1.1893550661e+02   3.2065314818e+01    0.2239123    0.1952809 -31.39 0.0006170635    1.321    0.243
        35 -10.3284    168.0514    113.0445   9.4253989530e+01   2.5707642545e+01    0.3457842    0.2827245 -79.45  0.001014399    1.424    0.298
        36  -8.9746    203.3053    111.6807   8.6717586298e+01   1.7685220968e+01    0.1572949    0.1169186 -73.24 0.0004353663    1.632    0.387
        37 -10.5836    242.6129     93.5975   7.5969469635e+01   1.2131347957e+01    0.2644469    0.1097986  44.27 0.0009599869    3.302    0.697
        38 -12.2826    240.4276    246.8979   1.0791043972e+02  -1.2696354945e+01    0.7969245    0.3001055  27.96  0.003379508    3.044    0.672
        39 -11.3037     97.7549    248.7625   1.3494096842e+02   1.0415397666e+01    0.2722184    0.2077093 -69.86  0.001767757    1.433    0.302
