#   1 NUMBER                 Running object number                                     
#   2 MAG_AUTO               Kron-like elliptical aperture magnitude                    [mag]
#   3 X_IMAGE                Object position along x                                    [pixel]
#   4 Y_IMAGE                Object position along y                                    [pixel]
#   5 X_WORLD                Barycenter position along world x axis                     [deg]
#   6 Y_WORLD                Barycenter position along world y axis                     [deg]
#   7 A_WORLD                Profile RMS along major axis (world units)                 [deg]
#   8 B_WORLD                Profile RMS along minor axis (world units)                 [deg]
#   9 THETA_WORLD            Position angle (CCW/world-x)                               [deg]
#  10 FWHM_WORLD             FWHM assuming a gaussian core                              [deg]
#  11 ELONGATION             A_IMAGE/B_IMAGE                                           
#  12 ELLIPTICITY            1 - B_IMAGE/A_IMAGE                                       
         1 -13.1524    224.3345     65.2627   6.9521094682e+01   2.1140561920e+01     1.702401     0.889056 -78.72  0.006446569    3.123    0.680
         2 -10.5965    227.6139     17.1711   5.8703599729e+01   2.7056862616e+01    0.4725576    0.1928098  57.02  0.002186929    2.563    0.610
         3 -11.0674    239.5656     18.0009   5.7788915327e+01   2.4347969242e+01    0.4695288    0.2624544 -60.87  0.002640029    1.591    0.371
         4 -10.6416    250.0507     18.5839   5.7013871630e+01   2.2057952127e+01    0.3959005    0.1520063 -38.87  0.001479464    2.462    0.594
         5 -11.0271    221.4219     13.2187   5.8465117269e+01   2.8896540896e+01    0.4552493    0.2468305 -34.37  0.002455535    2.050    0.512
         6 -10.0155    201.8158     11.8192   6.0134463416e+01   3.3525651336e+01    0.2039419    0.1718623 -42.51 0.0008967218    1.361    0.265
         7 -10.5635    245.9688     13.3679   5.6351663869e+01   2.3542815399e+01    0.5531095    0.1592513  62.90  0.002377594    3.179    0.685
         8 -10.9153    248.7270      6.5930   5.4861835389e+01   2.3756182936e+01    0.5229955    0.3205403 -34.34  0.003182126    1.924    0.480
         9 -11.1351     67.5850     11.8813   8.5961419177e+01   6.2859587867e+01    0.3546853    0.1936309  -8.19  0.001914947    2.115    0.527
        10 -10.4320    233.4388     10.0612   5.6744134365e+01   2.6605495298e+01    0.3741839     0.262447  23.55  0.001931426    3.023    0.669
        11  -9.4653    238.4528      8.5213   5.6026215002e+01   2.5700491385e+01    0.2094555    0.1086228 -59.60 0.0005926447    1.716    0.417
        12 -10.5590    213.1722      9.0611   5.8372178275e+01   3.1219382773e+01    0.3623188    0.2444906 -47.22  0.002208974    1.484    0.326
        13 -10.5757    155.4848      8.5338   6.5160798176e+01   4.4748261656e+01    0.2203428     0.129436 -24.78 0.0007623158    2.049    0.512
        14  -9.4187    206.5032      6.9966   5.8577471497e+01   3.2959421651e+01     0.170445    0.1175652 -39.96  0.001029164    1.579    0.367
        15  -9.8726    102.6040      6.7939   7.4430058150e+01   5.6708539400e+01    0.1577819    0.1107834 -33.34 0.0009558143    1.683    0.406
        16  -9.7286    223.9768      5.9331   5.6727396883e+01   2.9138531087e+01     0.191055    0.1455877 -80.71 0.0005527221    1.048    0.045
        17 -10.3918     63.7851      2.2329   8.3238442471e+01   6.4395430450e+01    0.2072583    0.1584862  10.70 0.0008303892    1.134    0.118
        18  -9.1826    239.6665      2.2991   5.4736024305e+01   2.6136453660e+01     0.126821    0.0685779 -70.36 0.0003583566    1.650    0.394
        19  -9.6842    231.6373      2.7210   5.5444247947e+01   2.7810276300e+01    0.2151174    0.1132036 -82.67 0.0009332394    1.774    0.436
        20 -11.4585    229.4897    226.7447   1.0303665007e+02  -8.6032406142e+00    0.7464147    0.2818078 -38.46  0.003240525    2.680    0.627
        21  -9.5574    209.9076    250.2268   1.1073977976e+02  -9.0492752139e+00    0.2069596    0.1218614  16.88  0.001068065    1.922    0.480
        22  -9.1562    193.2078    250.5688   1.1398797142e+02  -6.4591447077e+00    0.1818027    0.1038385  28.92   0.00085286    1.641    0.391
        23 -10.2438    227.5028    219.4603   1.0208865990e+02  -7.1583826825e+00    0.3374968    0.1940345 -22.66  0.001668344    1.957    0.489
        24  -9.9950    114.0722    231.6716   1.2714646493e+02   1.0320568902e+01    0.2288281    0.1451802  56.37  0.001190554    1.464    0.317
        25  -9.3942    157.6839    231.3228   1.1806793249e+02   2.8051372664e+00    0.1357009    0.1009842  69.61 0.0006881403    1.664    0.399
        26  -9.5809    174.9799    229.8096   1.1427408489e+02   2.2156118310e-02    0.2206716     0.146631  61.93 0.0009915379    1.994    0.498
        27 -10.0663    248.2017    227.2973   9.9721938041e+01  -1.1485506404e+01    0.2464579    0.1532016 -26.15 0.0009788556    1.510    0.338
        28  -9.4387     99.4688    226.4731   1.2949270617e+02   1.3794070241e+01    0.1370884    0.1118362  67.92 0.0002118087    1.073    0.068
        29 -10.4673    208.5236    224.0163   1.0655659691e+02  -4.7801963889e+00    0.3798509     0.251203  26.16  0.001698211    1.463    0.316
        30  -9.5135    155.5984    225.1634   1.1752742737e+02   4.3268900167e+00     0.186211    0.1287831 -36.46 0.0009512524    1.727    0.421
        31 -11.0455    238.8080    220.3982   1.0016437896e+02  -9.0718805788e+00    0.3569627    0.2879326 -42.09  0.001538724    1.460    0.315
        32 -10.0003    204.9360    219.8611   1.0651780405e+02  -3.4786862365e+00    0.2967765      0.18803  -0.76   0.00135985    2.299    0.565
        33 -10.4808    193.9785    219.5362   1.0864927793e+02  -1.5181975438e+00    0.3594189    0.2560925  42.89  0.001643635    1.355    0.262
        34 -10.8216    247.4372    215.9771   9.7790885430e+01  -9.7033973262e+00    0.4826237    0.2087269 -31.72  0.002221263    2.286    0.563
        35  -9.8567      8.4062    217.8097   1.4649795459e+02   2.7646591146e+01    0.1603465   0.08314388 -69.91 0.0009531077    1.698    0.411
        36 -11.3275    214.7371    215.9995   1.0389293203e+02  -4.4970933127e+00    0.4080557    0.2730568 -57.60  0.002041859    2.158    0.537
        37  -9.4613    179.7961    216.3773   1.1099244677e+02   1.5889842291e+00    0.2031172    0.1215714  31.35    0.0007763    1.685    0.407
        38  -9.2028    109.4560    216.4978   1.2604933699e+02   1.4240365228e+01    0.1388283    0.1213331  67.74 7.634512e-05    1.011    0.010
        39 -11.2481    186.5795    213.8155   1.0913318691e+02   8.2844684044e-01    0.4001747    0.2526363 -49.02  0.001643537    1.764    0.433
        40 -10.3410    231.7841    212.4172   9.9981628092e+01  -6.7209384338e+00    0.3726542    0.2605249 -54.95   0.00198304    1.997    0.499
        41  -9.9111    132.5239    214.4592   1.2075134854e+02   1.0624323466e+01    0.1414162    0.1267039  59.00 0.0001771642    1.016    0.016
        42 -10.0141    161.4860    210.9765   1.1390931294e+02   5.9993322879e+00    0.1926347    0.1265589 -78.60 0.0008101443    2.531    0.605
        43 -11.0305    218.6223    215.1975   1.0299359297e+02  -5.0160059134e+00    0.3181602    0.2097504  38.06  0.001651495    1.472    0.321
        44 -10.6288    206.9151    209.1603   1.0415805287e+02  -1.9769781548e+00    0.3229024    0.2131707  61.77  0.001494842    2.318    0.569
        45  -9.2133     86.3173    208.6480   1.2998782635e+02   1.9744571183e+01    0.1472776   0.09274656  73.13  0.000413068    1.739    0.425
        46 -10.3250    124.0011    206.0092   1.2128849400e+02   1.3956237121e+01    0.2064891    0.1835579  64.17            0    1.034    0.032
        47  -9.8226    235.8426    204.0700   9.7647455149e+01  -6.0202222972e+00    0.1873859    0.1828453 -48.86  0.001088001    1.328    0.247
        48 -11.1481    193.4598    202.7469   1.0566718847e+02   1.6170511288e+00    0.3459314    0.2529892  74.49  0.001626009    2.170    0.539
        49  -9.9476    188.1114    203.9081   1.0699226275e+02   2.3912728258e+00    0.2116093    0.1959104  71.98 0.0008033431    1.263    0.208
        50  -9.6743    179.0269    203.6807   1.0885422112e+02   4.1369953949e+00    0.2093744    0.1813407  30.80 0.0008695999    1.099    0.090
        51 -10.2642    198.1872    202.6338   1.0467842489e+02   7.6732104071e-01    0.2979825    0.1575603 -56.65  0.001194761    2.714    0.632
        52 -11.5026    165.1151    201.5428   1.1144082855e+02   7.2041207602e+00    0.4032349    0.3194668 -76.53  0.001844736    1.589    0.371
        53  -9.2715    249.5891    201.7292   9.4722037954e+01  -7.8195362714e+00    0.1662542    0.1125717 -42.96 0.0009216665    1.553    0.356
        54 -10.6848    218.3064    201.8533   1.0053201019e+02  -2.6933058087e+00    0.2296361    0.1842721  46.28 0.0008915465    1.379    0.275
        55  -9.2742    206.4648    202.5371   1.0299148951e+02  -7.1831668073e-01    0.1377979    0.1267461   6.74 0.0002408498    1.005    0.005
        56  -9.6008    160.4606    202.0525   1.1254686295e+02   7.9891152299e+00    0.2098442    0.1436057 -48.68  0.000603749    1.550    0.355
        57  -9.7769    144.5624    201.7442   1.1599673979e+02   1.1074730551e+01    0.2782684    0.1383299 -46.39  0.001145498    2.175    0.540
        58  -9.8982    241.4611    199.9769   9.5834709459e+01  -6.2568673080e+00    0.2469548    0.1999334  -3.25  0.001097309    1.159    0.137
        59  -9.9347    149.5685    198.6969   1.1434357318e+02   1.0769948028e+01    0.2733232     0.140031 -45.77  0.001132302    2.094    0.522
        60 -10.4052    230.9917    195.5702   9.6897309348e+01  -3.7886422157e+00    0.4460432     0.209328 -39.88  0.001571117    2.045    0.511
        61 -10.5158    210.3453    197.1021   1.0116721752e+02  -4.3513285474e-01    0.3552144    0.2452556 -70.73  0.001582162    2.556    0.609
        62 -10.0526    203.9380    197.9084   1.0260368202e+02   5.8452620265e-01    0.2648266    0.2200856   7.12  0.001231821    1.241    0.194
        63 -10.6720    176.3427    197.1942   1.0820580170e+02   5.9255426146e+00    0.3194244    0.2291926 -62.15  0.001528203    1.702    0.412
        64 -10.8229    248.5068    194.4919   9.3513524057e+01  -6.4844747990e+00     0.393168    0.3360766  79.26  0.002310634    1.871    0.466
        65 -11.5794    184.9409    196.2668   1.0620053335e+02   4.4599146884e+00    0.3548377    0.2907645  -9.97  0.001388041    1.380    0.276
        66 -11.8643    195.3166    194.1266   1.0362068633e+02   2.9012459305e+00    0.4374847    0.3238525  38.86  0.002265184    1.317    0.241
        67 -10.0092    129.4611    192.5101   1.1779830798e+02   1.5932338628e+01    0.1464118    0.1375628  68.28  0.000111304    1.011    0.011
        68  -8.9489    210.3165    189.6514   9.9698633111e+01   9.3812765441e-01    0.1378589    0.1145806 -84.79 0.0007047802    1.728    0.421
        69 -11.4029    162.9410    193.2097   1.1036394175e+02   9.3398224752e+00    0.4698277    0.2095336 -46.74  0.001819797    2.337    0.572
        70 -12.1218    158.0520    181.0284   1.0909492020e+02   1.2909289006e+01    0.8729382    0.4070746 -37.95  0.003161478    2.637    0.621
        71 -10.4634    219.4422    178.8257   9.5716501700e+01   1.2591595357e+00    0.4032366    0.2329449  61.41  0.001622404    2.822    0.646
        72  -9.0351    230.5277    180.5349   9.3976182150e+01  -1.0691806863e+00    0.2448763    0.1780576  51.91   0.00107633    1.630    0.386
        73 -10.9528    224.9886    184.7983   9.5878210218e+01  -8.4661324267e-01    0.4162071    0.2882392 -39.24  0.001342792    1.386    0.278
        74  -9.0891    250.3104    186.3182   9.1593140996e+01  -5.4245292006e+00    0.1348514     0.093876  -5.36 0.0007034112    1.641    0.391
        75 -10.1146    230.7009    185.6008   9.4969736408e+01  -2.0018452084e+00     0.293282     0.208272 -72.99  0.001339572    2.576    0.612
        76  -9.4987    189.7667    185.7065   1.0310095010e+02   5.6123276457e+00     0.225164    0.1172955 -54.44 0.0006084923    2.340    0.573
        77 -11.1756    237.8177    190.4619   9.4632962127e+01  -4.0670780027e+00     0.660936    0.2814673 -45.29  0.002760026    2.444    0.591
        78  -9.8381    209.7709    183.9145   9.8648539519e+01   2.1145679701e+00    0.3561887    0.1144608 -41.93  0.001208224    3.059    0.673
        79 -10.7481    226.5457    179.6279   9.4532841995e+01  -1.9095223141e-01     0.355668    0.2738782 -13.98  0.001126876    1.372    0.271
        80  -9.8145    203.5149    183.9777   9.9915168021e+01   3.2898951420e+00    0.2226185    0.1384993 -41.56  0.001033515    1.593    0.372
        81 -10.1770    198.1286    182.3719   1.0068580918e+02   4.6404475929e+00    0.2832641    0.2113973 -47.24  0.001021482    1.380    0.275
        82  -9.1910    130.7606    182.9971   1.1578526315e+02   1.7838510168e+01    0.1962972     0.125237 -54.41 0.0008777745    1.597    0.374
        83 -10.7416    111.6986    182.9988   1.2029602942e+02   2.1374549771e+01    0.2140698    0.1894867 -75.75 0.0008270531    1.098    0.090
        84  -9.8606    242.1631    180.5228   9.1864568404e+01  -3.0910932225e+00    0.3412061    0.1715126 -43.33  0.001560834    1.908    0.476
        85  -9.6798    236.2131    181.0607   9.3041083394e+01  -2.1624019950e+00    0.2178224     0.152868 -60.50  0.001074491    1.976    0.494
        86  -8.8463    250.6707    179.3011   9.0133832435e+01  -4.3039613151e+00    0.1231978     0.104859 -70.80 0.0007032148    1.645    0.392
        87 -11.1107    151.0462    178.2518   1.1014515190e+02   1.4927028992e+01    0.2728751    0.2298649 -53.70  0.001269267    1.213    0.175
        88 -10.3741    197.4643    176.7916   9.9671006068e+01   5.8727984409e+00    0.2806085    0.1405816 -48.11  0.001128469    2.077    0.518
        89 -10.3572    233.4486    174.7330   9.2251855882e+01  -5.4750408893e-01    0.3507743    0.2382474 -42.40  0.001532256    1.406    0.289
        90 -10.9807    193.8088    173.7510   9.9792576869e+01   7.2107999415e+00    0.4851591    0.2083178 -38.98  0.001757749    2.428    0.588
        91  -9.6475    182.7713    175.9862   1.0259788973e+02   8.9802048533e+00    0.2027438    0.1230884 -44.36 0.0008800278    1.657    0.396
        92 -10.5607    224.7831    171.5983   9.3203511073e+01   1.6096483265e+00    0.5550594     0.291315 -53.01  0.002295055    2.330    0.571
        93  -9.4084    203.3233    174.3276   9.7959645457e+01   5.2045908678e+00    0.1512381     0.113357  -1.30 0.0007049018    1.692    0.409
        94 -10.5287    200.0315    171.5906   9.8052531451e+01   6.3988447788e+00     0.302716     0.220161  17.17  0.001422196    1.698    0.411
        95 -11.2903    169.9497    169.2691   1.0399989806e+02   1.3034011144e+01    0.4863722    0.2365502 -54.06  0.001566218    2.326    0.570
        96 -11.3418    212.5163    169.0542   9.5017843669e+01   4.4325100807e+00    0.5317491    0.2981298 -40.84  0.002042351    1.713    0.416
        97 -10.9054    213.1793    164.0075   9.3812551511e+01   5.2819135061e+00    0.4441236    0.2878369  38.08  0.002092972    1.635    0.388
        98  -9.6878    237.4872    170.0376   9.0555018268e+01  -4.2451472479e-01    0.2125693    0.1254638 -39.35 0.0008878413    1.553    0.356
        99 -10.7427    147.3796    168.1949   1.0896130797e+02   1.7930530513e+01    0.2871636    0.2380949  63.17 0.0004634466    1.263    0.208
       100 -10.0646    183.6071    171.1712   1.0140814165e+02   9.8109935512e+00    0.2145579    0.1396228 -33.29 0.0007253801    1.680    0.405
       101 -10.6983    184.5383    165.7014   1.0003960717e+02   1.0762815471e+01    0.3062936    0.2599314 -69.37  0.001351423    1.341    0.255
       102  -9.6659    234.1406    164.4958   8.9999353040e+01   1.1884030676e+00    0.2815388    0.1718802 -55.30  0.001280396    1.985    0.496
       103 -11.1785    136.9820    159.2995   1.0959172351e+02   2.2096590778e+01    0.3060035    0.2199999 -68.39 0.0008718745    1.575    0.365
       104  -9.9945     46.8180    162.1462   1.3282717559e+02   3.6192735231e+01    0.2019806    0.1596584  88.30  0.000476272    1.167    0.143
       105 -11.1426    192.9795    166.0663   9.8330608224e+01   8.9439658461e+00    0.3954434    0.3263319 -51.52  0.001385331    1.243    0.195
       106 -10.3273    246.1009    158.4601   8.6653795096e+01   1.1492130904e-01    0.5830567    0.2140323  41.31  0.002226918    3.139    0.681
       107 -10.4291    183.9905    158.1076   9.8499289238e+01   1.2477399785e+01    0.3943217    0.2258493 -47.37  0.001643674    1.742    0.426
       108 -10.0854    233.0503    152.5877   8.7668173551e+01   3.5966976608e+00     0.281601    0.2437843   3.62  0.001350118    1.279    0.218
       109 -10.1548    226.4061    157.2578   8.9865416327e+01   3.9942929948e+00    0.3777702    0.2562634   8.81  0.001654462    2.227    0.551
       110  -9.8178    229.0388    152.6790   8.8402808153e+01   4.3505234151e+00    0.2810673    0.1938763 -37.84 0.0008429345    1.341    0.254
       111 -10.6608    229.8604    147.8402   8.7209662958e+01   5.1040013288e+00    0.3334188    0.2116655 -50.41 0.0008636852    1.583    0.368
       112 -11.1079    156.5999    157.1789   1.0444375970e+02   1.8506636894e+01    0.3535475    0.2793161 -38.99   0.00130663    1.318    0.241
       113  -9.7367    157.3710    152.8050   1.0329360993e+02   1.9326738389e+01    0.2651935    0.2249452 -14.93  0.001281773    1.409    0.290
       114 -11.0714    191.6053    148.1490   9.4655053724e+01   1.2943443896e+01    0.4815722    0.3008673 -59.49  0.002002409    1.929    0.482
       115 -11.8932    187.6562    142.8810   9.4276936917e+01   1.4902575487e+01    0.5119604    0.3356354 -38.64  0.002266343    1.531    0.347
       116  -9.7439    250.5892    152.7460   8.4717528648e+01   3.3513700313e-01    0.4681888     0.168542 -52.46  0.001424512    4.496    0.778
       117 -10.5846    243.1684    153.1538   8.6038340142e+01   1.6004681030e+00    0.3385252    0.2898331 -61.05  0.001384694    1.304    0.233
       118 -11.5970    244.0087    148.8285   8.4983915243e+01   2.2310861075e+00    0.5473903    0.3762547 -40.62   0.00203385    1.297    0.229
       119 -10.0951    221.5181    153.3297   8.9918276406e+01   5.6997220529e+00    0.3064563    0.2501217  88.10  0.001057434    1.624    0.384
       120 -10.5006    206.3860    153.0935   9.2765646944e+01   8.8120331754e+00    0.2443507    0.2082693  23.50 0.0007726977    1.288    0.224
       121  -9.5457     35.5760    150.7060   1.3404170473e+02   4.0188241422e+01    0.1797162    0.1092475 -78.60  0.000754847    1.515    0.340
       122  -9.4636    182.0380    150.5009   9.7218274793e+01   1.4510793152e+01    0.2319131    0.1527596  46.33  0.001017575    1.544    0.352
       123  -9.3723    234.5749    147.7461   8.6360962814e+01   4.2078924109e+00    0.2009275    0.1236387 -49.47  0.000936339    1.607    0.378
       124 -10.5785    224.0488    146.9017   8.8049252480e+01   6.4313609766e+00    0.3577628    0.3171562  63.62  0.001346382    1.270    0.213
       125  -9.9040    217.0802    147.7723   8.9528200441e+01   7.6691526456e+00     0.386696    0.1910917  39.94   0.00154808    2.290    0.563
       126 -12.0128    206.4549    147.2736   9.1455511930e+01   9.9653316033e+00    0.5345822    0.4272632 -15.18  0.002658531    1.460    0.315
       127  -9.1261    162.3181    148.3546   1.0113768797e+02   1.9257256843e+01    0.1619257    0.1265607  -5.17 0.0007046203    1.748    0.428
       128 -10.0718     16.8991    147.1159   1.3826248965e+02   4.2785080389e+01     0.191362    0.1450686  86.15 0.0008222541    1.233    0.189
       129 -10.3617    176.5263    145.9732   9.7386627472e+01   1.6680518604e+01    0.2468751    0.1515254 -44.93  0.001036378    1.604    0.377
       130  -9.6742    111.4986    146.5410   1.1330690612e+02   3.0121578045e+01    0.1527091    0.1450744 -80.75 0.0008092366    1.010    0.010
       131 -11.8485    196.5817    148.2687   9.3655784316e+01   1.1852528605e+01    0.7178857    0.3213361 -50.68  0.002590664    2.421    0.587
       132 -10.7416    230.5762    141.0308   8.5600396799e+01   6.2491408572e+00    0.3535244    0.2529207 -41.70  0.001039124    1.276    0.216
       133 -10.5593    155.8709    141.8613   1.0114478325e+02   2.2112243617e+01    0.2447285     0.225228  -1.17  0.001236936    1.231    0.188
       134 -10.0015    249.9398    140.4348   8.2243066616e+01   2.6538973878e+00    0.2785739    0.2176821  36.71  0.001256835    1.482    0.325
       135 -10.2748    166.8284    141.1876   9.8446016540e+01   1.9855632923e+01    0.2172408    0.1914766 -10.51 0.0006352075    1.316    0.240
       136 -10.5240    225.0334    138.3054   8.5976959837e+01   7.8810682885e+00    0.4304234    0.2506913 -35.08  0.001918248    1.696    0.410
       137 -10.4591    219.4460    138.9586   8.7130021047e+01   8.9010219570e+00    0.3786099     0.297728  81.60  0.001404119    1.630    0.387
       138 -10.5630    215.9814    135.5264   8.6994540173e+01   1.0292844005e+01    0.2904421    0.2211363  42.50 0.0009143581    1.422    0.297
       139 -10.6247    205.9311    137.5056   8.9344651442e+01   1.2038563984e+01    0.2215232    0.1502183  49.12 0.0005884248    1.549    0.355
       140 -10.1344    138.2743    136.5811   1.0418261889e+02   2.7104874598e+01    0.2805466     0.192768 -29.24  0.001180291    1.803    0.445
       141 -10.6913    249.2525    134.6394   8.1126584148e+01   3.8236301499e+00     0.429732    0.2424503 -40.54  0.002059784    1.556    0.357
       142 -10.5663    248.3121    130.6476   8.0425636987e+01   4.7201536896e+00    0.3587776    0.2175857 -64.64  0.001590484    2.277    0.561
       143 -10.7563    233.5635    133.5425   8.3446993752e+01   7.0627004859e+00    0.7165653    0.2599754 -35.06   0.00244254    3.021    0.669
       144 -10.4830    164.3262    136.0416   9.7802074252e+01   2.1540954466e+01    0.2309115    0.2033209 -49.95 0.0008091466    1.120    0.107
       145 -10.4390      9.2175    142.1450   1.3957412105e+02   4.4550911201e+01    0.1668676    0.1217901  82.87 0.0005663226    1.325    0.245
       146  -9.5969     52.9516    135.8552   1.2707707603e+02   4.1819563135e+01    0.2054183    0.1669592 -42.07 0.0005273967    1.284    0.221
       147 -11.1148    241.9486    133.0496   8.1952179924e+01   5.5039722795e+00    0.4534318    0.3901169 -68.09    0.0022236    1.252    0.201
       148 -11.4295    169.5505    133.9894   9.6125608003e+01   2.0821448516e+01    0.4686893    0.2289405 -52.32  0.001347587    2.213    0.548
       149  -9.8038    150.4987    134.5093   1.0068736349e+02   2.4939483738e+01    0.1576343    0.1531964 -80.09    4.504e-06    1.012    0.011
       150 -10.1613    221.1996    129.4038   8.4666889663e+01   1.0383518290e+01       0.2772    0.2186707 -83.20 0.0008246288    1.565    0.361
       151  -9.1621    118.6728    129.2880   1.0750653515e+02   3.2826866799e+01    0.1562581    0.1214769  81.81  0.000377582    1.613    0.380
       152  -9.7417     86.1833    129.3881   1.1645738841e+02   3.8684198200e+01    0.2006032    0.1341308  49.98 0.0006909713    1.646    0.393
       153  -9.5142     61.9841    129.5553   1.2336308860e+02   4.2195833096e+01    0.1864938    0.1396896  31.59 0.0003555212    1.513    0.339
       154 -10.8557    206.3330    126.9693   8.6834937397e+01   1.4055928388e+01    0.3357983    0.2272445 -41.38  0.000727224    1.411    0.291
       155 -11.1311    212.0338    124.7255   8.5251578001e+01   1.3251869130e+01    0.5305313    0.3863288  27.84  0.002487656    1.781    0.438
       156 -10.9123    193.4482    127.9971   8.9595823749e+01   1.6709108248e+01     0.299417    0.2197735  72.63  0.001046514    1.663    0.399
       157 -10.1107    172.0299    128.5300   9.4255745482e+01   2.1438325695e+01    0.2393076    0.1552335  49.32 0.0007782748    1.566    0.362
       158 -10.4506    229.0812    125.4072   8.2404992473e+01   9.5013433681e+00    0.4171717    0.3192975  -4.08   0.00204431    1.826    0.452
       159 -11.2882    199.7035    125.5588   8.7778409084e+01   1.5804867018e+01    0.4610077    0.3388062 -57.31  0.002183743    1.411    0.291
       160 -10.7511    196.4596    121.7560   8.7510335609e+01   1.7297567074e+01     0.491275     0.308248  26.65  0.001925971    2.450    0.592
       161  -9.3868    114.0085    126.9608   1.0819936211e+02   3.4285127189e+01    0.1853552     0.179696 -65.57 0.0005631926    1.006    0.006
       162  -9.6006    243.9219    119.6353   7.8742385949e+01   7.5614746275e+00      0.30742    0.1528613 -59.69  0.001168645    2.803    0.643
       163  -9.9428    188.8584    122.9124   8.9310367119e+01   1.8786191064e+01    0.3780892    0.2160558 -32.61  0.001500466    1.995    0.499
       164  -9.4885    177.3806    123.7892   9.1930901843e+01   2.1224225561e+01    0.2261432    0.1466027 -32.90 0.0009451116    1.711    0.416
       165  -9.7455    161.2163    124.1913   9.5637453711e+01   2.4825333991e+01     0.228513    0.2158236 -22.41 0.0005470624    1.134    0.118
       166 -10.2211    221.9951    120.9388   8.2609237835e+01   1.1835047864e+01    0.3258477    0.2856868  30.88  0.001090388    1.328    0.247
       167 -10.9352    204.2897    120.4336   8.5689198748e+01   1.5802506246e+01    0.4308442    0.2456563  37.34  0.001741165    2.199    0.545
       168 -12.2683    211.6854    116.8192   8.3478020319e+01   1.4864703021e+01    0.9720993    0.5472028  28.67   0.00347516    3.236    0.691
       169 -11.1077    217.4719    115.5144   8.2150982477e+01   1.3843458285e+01    0.4910648    0.2495341  53.46   0.00204176    2.098    0.523
       170 -10.7943    241.7700    124.6922   8.0173322803e+01   7.0683170447e+00     0.397559    0.3458053  71.60  0.001974374    1.294    0.227
       171 -11.4267    230.5329    115.9109   8.0042058061e+01   1.0973234408e+01     0.464768    0.3747255  83.54  0.001700946    1.424    0.298
       172 -10.3171    235.4504    115.1895   7.9092058514e+01   1.0083561017e+01    0.4353275    0.2683668 -60.08  0.001999175    1.819    0.450
       173 -12.3363    228.7859     94.0902   7.5405460541e+01   1.5306083248e+01    0.9497797    0.5002815  52.67  0.003568191    2.042    0.510
       174 -12.1898    216.6492     89.4193   7.6214303026e+01   1.8835531868e+01    0.5683837    0.3949738 -71.41  0.002741373    1.622    0.384
       175 -11.2556    241.4995    104.1543   7.5743327376e+01   1.0826342356e+01    0.9051403    0.3841218 -45.60  0.003729505    2.091    0.522
       176 -10.7133    235.9425    100.0769   7.5669773655e+01   1.2708590834e+01    0.7378253    0.2697388 -35.47  0.002614435    2.951    0.661
       177 -12.0643    227.2235     73.9815   7.1092499922e+01   1.9084949730e+01    0.7024041    0.4654656  56.52  0.003616986    1.599    0.375
       178 -10.9339    243.2177     92.6984   7.3007738334e+01   1.2472186628e+01    0.4459341    0.3146645 -47.43  0.001862389    1.250    0.200
       179 -12.1403    248.2658    108.2628   7.5646581270e+01   8.7304417561e+00     1.248689    0.5142764 -32.59  0.004641366    2.907    0.656
       180 -10.8600    246.9180     98.6745   7.3781659735e+01   1.0679024653e+01    0.4916917    0.3083962  71.87  0.002431312    1.916    0.478
       181 -12.3075    245.6604     81.3706   7.0244948562e+01   1.3874928853e+01     1.115887    0.5166735 -54.14  0.004823509    2.143    0.533
       182 -12.1468    236.0540     74.4685   7.0006594304e+01   1.7058272842e+01     1.371226    0.3556028 -45.89   0.00458763    3.412    0.707
       183  -9.4637    203.5766    115.7053   8.4703132107e+01   1.6892065190e+01    0.2862798    0.1438976 -37.51 0.0009541135    2.012    0.503
       184 -10.2241    170.0059    116.5103   9.1734475282e+01   2.4444618005e+01    0.2387624    0.1547268  50.88 0.0006688168    1.562    0.360
       185  -9.3559     52.1556    113.1596   1.2291719294e+02   4.7285695224e+01    0.1813219     0.147414 -76.59 0.0005378726    1.295    0.228
       186  -9.7008     15.0093    112.0024   1.3383021575e+02   5.1056361812e+01     0.149591    0.1195112 -61.34 0.0004407055    1.006    0.006
       187  -9.2726    104.4804    111.6053   1.0703089907e+02   3.9622482222e+01     0.145987    0.1436446 -63.01 0.0001167707    1.035    0.034
       188  -9.6551     11.5465    110.5091   1.3460459721e+02   5.1635842392e+01    0.1232339   0.09623639 -61.01 0.0001574465    1.010    0.010
       189 -11.1437    227.0127    106.3106   7.8448640322e+01   1.3491218129e+01    0.3178192    0.2201094  47.99  0.001579424    1.610    0.379
       190 -10.5739    235.6979    107.9020   7.7440214906e+01   1.1358258044e+01    0.5161034    0.3648537  80.93  0.002573236    1.753    0.429
       191  -9.5516    230.4102    107.1751   7.8102795481e+01   1.2605340344e+01    0.6313397    0.1903879 -42.20  0.002129887    2.953    0.661
       192 -11.1924    215.1679    107.9000   8.0782332131e+01   1.5791852955e+01    0.4640707    0.3009299  64.29  0.001869068    1.716    0.417
       193  -9.8920    190.5018    108.5168   8.5467469049e+01   2.1300893207e+01    0.2744629    0.2200971   8.20  0.001284665    1.726    0.421
       194 -11.3910    184.1319    107.6821   8.6530041890e+01   2.2951969740e+01    0.4961489    0.3804301  -4.24  0.002227228    1.886    0.470
       195  -9.5242    197.4992    108.0151   8.3996774259e+01   1.9778188565e+01    0.2182611    0.1214707 -61.63 0.0008081387    2.388    0.581
       196 -11.4709    221.3361    100.7373   7.8090052571e+01   1.5749738212e+01    0.3513934    0.2456841 -66.19  0.001438755    1.565    0.361
       197  -9.8723    167.7182    100.0312   8.8011445788e+01   2.8333439888e+01    0.2282651    0.2060746 -46.40  0.001176763    1.109    0.098
       198 -10.3909    160.8902     99.6305   8.9410603670e+01   3.0020765776e+01    0.2704859    0.2148209 -31.56  0.001090078    1.360    0.265
       199 -10.4450    129.9893     98.0195   9.6446060851e+01   3.7373517172e+01    0.2346781    0.1886142 -89.21 0.0005902325    1.586    0.369
       200 -11.0372    195.7275     96.8781   8.1598816832e+01   2.2316430916e+01    0.2993112    0.1782912 -44.66  0.001305056    1.619    0.382
       201  -9.6600    176.4670     95.8553   8.5083395457e+01   2.7071008819e+01    0.3272709    0.2431295  15.83  0.001433102    1.994    0.499
       202 -10.7578    241.6690     68.8896   6.8082809619e+01   1.6744711645e+01    0.3864339     0.270135  46.28  0.002069138    1.840    0.456
       203  -9.3292    208.1739     95.3790   7.9023185747e+01   1.9700522118e+01    0.2063935    0.1380471  71.22 0.0009330823    1.679    0.404
       204 -10.1833    200.8284     92.6817   7.9647455010e+01   2.1898605580e+01    0.2078823    0.1874392 -39.88 0.0009723459    1.159    0.137
       205 -11.3049    225.6356     86.8467   7.4235898815e+01   1.7267169880e+01    0.4931331    0.3944042  10.92  0.002514356    1.927    0.481
       206 -10.8787    176.2501     87.2677   8.2894141799e+01   2.8736030037e+01    0.2944936     0.234484 -79.07 0.0007600547    1.407    0.289
       207 -10.5528    198.0289     86.0271   7.8504948017e+01   2.3760250611e+01    0.2259723     0.186747  14.02 0.0007374311    1.671    0.401
       208  -9.4839     15.4866     83.4699   1.2839012546e+02   5.7267259086e+01    0.1211722   0.09580047 -48.24 0.0001451332    1.004    0.004
       209  -9.8903    233.7130    247.8534   1.0591896767e+02  -1.2276249160e+01    0.2480657    0.1329194  53.08  0.001100163    3.482    0.713
       210 -10.6472    210.8634     80.9114   7.5125934080e+01   2.1649050589e+01    0.2093711     0.205982  30.90 0.0005761341    1.220    0.180
       211  -9.8065    159.4452     80.7033   8.4621793387e+01   3.3958835591e+01     0.268586     0.183113  33.97   0.00119264    1.758    0.431
       212  -9.9364    195.9936     79.6763   7.7284301319e+01   2.5361031131e+01    0.2393432    0.1193997  81.03 0.0007043797    4.242    0.764
       213 -10.1297    119.4767     78.5196   9.3647981379e+01   4.3449542613e+01     0.264705    0.2003433   7.95 0.0009262207    1.680    0.405
       214 -10.2277    175.8655     77.2996   8.0349811340e+01   3.0613548766e+01     0.284355    0.2216059 -33.57 0.0007846932    1.384    0.278
       215 -10.2405    189.9994     76.9925   7.7657227248e+01   2.7258332081e+01    0.2270325    0.1842356  21.76  0.000796072    1.658    0.397
       216 -10.4637    214.9552     75.1535   7.3134026551e+01   2.1678189103e+01    0.4356644    0.2668042  57.60  0.002091518    1.658    0.397
       217 -10.0919    201.5499     72.5651   7.4602316528e+01   2.5248129626e+01    0.3850691    0.1430839  64.17  0.001321439    3.039    0.671
       218  -9.6992    249.7530     71.3243   6.7615497513e+01   1.4652907834e+01    0.2093566    0.1674652  60.21 0.0008075651    1.422    0.297
       219  -9.0029    163.4808     70.5063   8.0973050924e+01   3.4766919858e+01    0.1468721    0.1401539  62.77 5.351735e-05    1.044    0.042
       220 -10.4039    250.1667     65.5174   6.6360038673e+01   1.5480031198e+01    0.3611413    0.1804687 -39.03  0.001728715    1.899    0.473
       221  -9.9940    210.9873     66.9559   7.1795071793e+01   2.3942226481e+01    0.2357015    0.1552416 -71.42  0.001115068    1.687    0.407
       222 -10.0397    238.6048     64.9306   6.7611645886e+01   1.8028989116e+01    0.2736892    0.1655167 -28.87  0.001313838    2.081    0.519
       223  -9.9948    197.6032     64.2265   7.3184173353e+01   2.7545276777e+01    0.1927193    0.1389919 -27.28 0.0007370956    1.662    0.398
       224 -11.1635    206.7528     60.5375   7.0892516209e+01   2.5949725615e+01    0.4012083    0.2326953 -42.59   0.00190925    1.679    0.405
       225  -9.4117    158.4632     61.4760   7.9481965137e+01   3.7445166731e+01    0.1445295    0.1359338  69.03 0.0001823497    1.004    0.004
       226 -10.1176    238.5948     60.2069   6.6599795080e+01   1.8762378583e+01     0.248846    0.1855219  62.79 0.0009686871    1.426    0.299
       227  -9.8354    235.0293     59.9847   6.6982626221e+01   1.9575587820e+01    0.2157489    0.1740339 -71.94 0.0007587772    1.082    0.075
       228 -10.7204    236.7005     89.7116   7.3268529632e+01   1.4360333558e+01    0.4925496    0.3500284 -55.66  0.001803715    1.284    0.221
       229 -11.0089    202.2434     57.6080   7.0852878924e+01   2.7468334584e+01    0.2878035    0.1812503  52.74   0.00114946    1.648    0.393
       230  -9.8829    134.4654     59.4851   8.4139964516e+01   4.3399361267e+01    0.1427474    0.1342347  41.05 0.0002311857    1.019    0.019
       231 -10.1909    250.3052     55.0142   6.4186174427e+01   1.7048718672e+01     0.282299    0.1602443 -42.49 0.0009900965    1.616    0.381
       232 -10.8481    237.4221     53.6973   6.5348619861e+01   1.9999622167e+01    0.4830664    0.2547621  82.40  0.002231014    2.200    0.546
       233 -11.4870    229.1668     52.3534   6.6033533524e+01   2.2025090756e+01    0.5270053     0.401133 -79.64  0.003063908    1.202    0.168
       234 -10.7703    244.2699     51.3824   6.4093666816e+01   1.8861061085e+01    0.4244669    0.2662588 -77.82  0.001975121    1.628    0.386
       235 -10.2933    250.2210     47.4154   6.2654334489e+01   1.8176782852e+01    0.3956928    0.1795553 -36.55  0.001854819    2.256    0.557
       236 -11.2556    244.1786     42.1702   6.2209219253e+01   2.0199824119e+01    0.4053285    0.3419997 -77.77  0.002599005    1.072    0.067
       237  -9.7078    207.5405     53.8842   6.9196886645e+01   2.6775176592e+01    0.1983475    0.1305929 -41.27 0.0005348497    1.525    0.344
       238 -11.5857    201.2924     53.0136   6.9880387021e+01   2.8384626531e+01     0.275389    0.1836527  60.75   0.00141015    1.442    0.306
       239 -11.4385    199.4830     47.0766   6.8702898542e+01   2.9676614630e+01    0.3114453    0.1943496 -34.44  0.001240031    1.751    0.429
       240  -9.2985     96.8799     51.8317   9.1581079456e+01   5.2543846819e+01    0.1736245    0.1654339 -77.64   0.00106362    1.324    0.245
       241  -9.4826    163.3634     52.7893   7.6102291277e+01   3.7585021037e+01    0.1928866    0.1388381 -21.66 0.0009529725    1.696    0.410
       242 -10.7496    216.1835     42.4233   6.5406359867e+01   2.6405103593e+01    0.5100218    0.4043772  30.01  0.002336722    1.869    0.465
       243  -9.5966    238.1362     45.4721   6.3530397334e+01   2.1039334783e+01    0.1867066    0.1171185  72.31  0.001013609    1.538    0.350
       244 -10.1598    232.9539     43.8073   6.3748805943e+01   2.2414017280e+01    0.3206868      0.18267  46.55  0.001538624    2.416    0.586
       245 -11.1275    190.4058     41.9581   6.8752300407e+01   3.2563270456e+01    0.4034192    0.2921448  29.24  0.002050014    1.981    0.495
       246  -9.0361     76.5359     43.5623   9.5027605868e+01   5.7452277157e+01    0.1284896    0.1114356   6.66 0.0002115337    1.009    0.009
       247 -11.2402    200.8773     39.5220   6.6694455111e+01   3.0389613775e+01    0.3381323    0.2102317 -25.97   0.00166979    2.048    0.512
       248  -9.8923    209.3663     39.2661   6.5532980931e+01   2.8423193142e+01    0.2205387    0.1884978 -79.99 0.0007019373    1.026    0.025
       249  -9.6307    173.5063     39.9115   7.0830322778e+01   3.6921002604e+01    0.1950189    0.1366528 -35.69 0.0007815139    1.556    0.357
       250 -10.1399    238.5798     38.2532   6.1980051373e+01   2.1949683554e+01    0.2540307     0.191653 -69.15  0.001205925    1.120    0.107
       251 -11.2854    185.6670     37.9307   6.8436660165e+01   3.4242260536e+01    0.4049387    0.1856576 -45.83  0.001767242    2.240    0.554
       252  -9.2188    165.4979     39.5043   7.2058762209e+01   3.8911026299e+01    0.1384917    0.1242775  67.96 -7.891019e-05    1.029    0.028
       253  -9.4567     61.3149     38.4930   9.8390845743e+01   6.0599748503e+01     0.215485    0.1042571 -36.28  0.001078489    2.004    0.501
       254 -10.2610    236.6037     31.0484   6.0694684535e+01   2.3344925579e+01    0.2656553    0.2122006 -49.37  0.001370377    1.279    0.218
       255 -11.1749    231.6745     32.0681   6.1403937772e+01   2.4295167563e+01    0.7318052    0.2656784  78.83  0.002725459    3.510    0.715
       256 -10.3316    229.0021     36.4828   6.2620324628e+01   2.4302621827e+01    0.4689966    0.2268859 -89.61  0.002005239    2.626    0.619
       257 -10.3812    226.3033     33.6704   6.2310208828e+01   2.5282683973e+01    0.2378433    0.1683762 -69.04 0.0007288584    1.266    0.210
       258 -10.3425    250.3275     35.6826   6.0304180946e+01   1.9790755982e+01     0.256166    0.1602634 -71.23 0.0009751733    1.447    0.309
       259 -11.2183    247.9366     31.8003   5.9761230512e+01   2.0813067650e+01    0.4559361    0.3922361 -55.86  0.002878563    1.252    0.202
       260  -9.3985     67.5718     34.8035   9.4848604312e+01   6.0155924929e+01     0.161702    0.1115756 -40.64 0.0006840026    1.664    0.399
       261 -10.2257    241.6557     33.8218   6.0763573269e+01   2.1882717336e+01    0.2707823    0.1722891 -69.06  0.001541562    1.419    0.295
       262 -10.8305    215.0383     30.8594   6.2945245127e+01   2.8213348715e+01    0.4379445    0.3229353  75.74  0.002595646    1.219    0.180
       263 -10.1176    181.3985     31.3266   6.7384850427e+01   3.6110389026e+01    0.2357229    0.1360288 -26.27  0.001133148    2.134    0.531
       264 -10.6418    201.4769     27.5672   6.3793967427e+01   3.1787064787e+01    0.2782292    0.1399218 -20.10  0.001159105    3.272    0.694
       265 -10.1713    149.9984     28.2642   7.1623721298e+01   4.4000503946e+01    0.2002259    0.1585881  61.54 0.0005997756    1.112    0.101
       266  -9.7580    177.0704    248.3556   1.1679053812e+02  -3.4651812035e+00    0.2625599    0.1417279  49.80  0.001286752    1.907    0.476
       267 -11.5417    224.9537     22.8259   6.0142012740e+01   2.6967539004e+01    0.5384948    0.2992099  76.58  0.002882988    1.627    0.386
       268 -10.1911    142.5253     25.5204   7.2190086638e+01   4.6065997016e+01    0.1332375    0.1170895  59.54  1.89188e-05    1.003    0.003
       269 -10.9520    244.4044     22.4309   5.8236791999e+01   2.2768140211e+01    0.3370574    0.2385758  78.10  0.001424277    1.300    0.231
       270  -9.5780    249.0993    246.7022   1.0295863978e+02  -1.4272204478e+01     0.164524     0.125227  11.67 0.0006081324    1.079    0.073
       271  -9.1578    170.2999     29.3529   6.8535309307e+01   3.9021042779e+01    0.1352804   0.09734102  35.00 0.0004370907    1.697    0.411
       272  -9.5167    187.0237    247.3008   1.1467732613e+02  -4.9474431497e+00    0.1818445    0.1438093  33.25  0.000482722    1.083    0.077
       273  -9.9641    234.3905     19.6238   5.8576353098e+01   2.5271597598e+01    0.2230226    0.1664951  40.06  0.001219698    2.056    0.514
       274 -10.7315    231.8871     83.0327   7.2468524299e+01   1.6542444468e+01    0.5415971    0.3350816 -59.61  0.002624221    1.625    0.385
       275  -9.8468    218.0161     16.0000   5.9383496375e+01   2.9344064528e+01    0.3929803    0.1919061  80.68  0.001935845    1.934    0.483
       276  -9.3384    112.7039    246.6597   1.2931187162e+02   7.6386895259e+00    0.1159521     0.101709  -1.98  0.000703169    1.659    0.397
       277  -9.3317    186.8642     16.6380   6.2991674219e+01   3.6508746338e+01    0.1808005    0.1065212  81.18 0.0004757117    1.595    0.373
       278  -9.8313    199.6629     15.0768   6.1112284273e+01   3.3670245337e+01    0.2098865     0.166673  80.31 0.0006800157    1.073    0.068
       279  -9.9186    191.9224    245.5276   1.1344126743e+02  -5.4748913125e+00     0.298477    0.1090503  34.43  0.001202537    2.630    0.620
       280 -10.4638    224.8074    242.9116   1.0672833705e+02  -1.0275747688e+01     0.299383    0.2731339 -32.89  0.002069137    1.381    0.276
       281 -10.0858    202.8962    242.2927   1.1078599617e+02  -6.7601396346e+00    0.3122497    0.1537064  40.14   0.00153344    1.824    0.452
       282  -8.7030    173.3076     14.3134   6.4170013722e+01   3.9972274712e+01    0.1286878   0.08905647  43.04 0.0003544276    1.624    0.384
       283 -10.7635    239.6977    240.0828   1.0350692376e+02  -1.2069602737e+01    0.3782302    0.2577134  56.15  0.002048125    2.537    0.606
       284 -10.0296    215.2392    240.7175   1.0815764704e+02  -8.4851279794e+00     0.206712    0.1903579  29.61   0.00139811    1.249    0.199
       285  -9.5718    246.5032    240.5290   1.0236049153e+02  -1.3093823060e+01    0.1209665   0.09677479   3.91 4.963052e-05    1.003    0.003
       286 -10.3349    230.9514    236.8821   1.0455363682e+02  -1.0332106203e+01    0.2684506    0.1730563 -35.97  0.001141464    1.618    0.382
       287  -9.5971    162.3849     14.7834   6.5837463524e+01   4.2516950457e+01    0.1597908    0.1266147  -2.87 0.0009425609    1.664    0.399
       288 -11.3367    206.2525    236.0389   1.0909007019e+02  -6.3348073073e+00    0.4387201    0.3698058  42.49  0.001992356    1.279    0.218
       289  -9.4676    243.8742    237.1258   1.0223942039e+02  -1.2256103987e+01    0.1705905    0.1549421  -5.36 0.0009771233    1.266    0.210
       290 -10.3150    219.5674    235.7003   1.0648000686e+02  -8.4115698162e+00    0.2991792    0.2034006  23.09  0.001420924    1.357    0.263
       291  -9.5216    244.8289    231.7503   1.0112114232e+02  -1.1636864373e+01    0.1952023    0.1572101 -56.55 0.0007108449    1.968    0.492
       292 -10.1976    238.8576    231.7248   1.0219685592e+02  -1.0762453673e+01    0.3945607    0.1874932  43.62  0.001921655    2.329    0.571
       293  -9.8260    224.4870    225.9035   1.0382506312e+02  -7.6883880257e+00    0.2524073    0.1595702 -35.86  0.001387384    1.608    0.378
