#   1 NUMBER                 Running object number                                     
#   2 MAG_AUTO               Kron-like elliptical aperture magnitude                    [mag]
#   3 X_IMAGE                Object position along x                                    [pixel]
#   4 Y_IMAGE                Object position along y                                    [pixel]
#   5 X_WORLD                Barycenter position along world x axis                     [deg]
#   6 Y_WORLD                Barycenter position along world y axis                     [deg]
#   7 A_WORLD                Profile RMS along major axis (world units)                 [deg]
#   8 B_WORLD                Profile RMS along minor axis (world units)                 [deg]
#   9 THETA_WORLD            Position angle (CCW/world-x)                               [deg]
#  10 FWHM_WORLD             FWHM assuming a gaussian core                              [deg]
#  11 ELONGATION             A_IMAGE/B_IMAGE                                           
#  12 ELLIPTICITY            1 - B_IMAGE/A_IMAGE                                       
         1 -11.3272    216.0010     34.5078   3.9271566482e+01   2.7477619469e+01    0.8227931    0.5075083 -77.12  0.004310004    1.688    0.407
         2 -11.5138    223.5149     28.1363   3.7068908006e+01   2.6600430088e+01    0.7821249    0.4763391  60.43  0.002452976    1.738    0.424
         3 -11.6379    239.8310     13.1759   3.2517531121e+01   2.4866656815e+01    0.6671123    0.4752211 -62.63  0.002493492    1.135    0.119
         4 -10.4406      2.0000     12.3568   9.1146229998e+01   7.2997817930e+01     0.866661   0.07239804 -49.01  0.002464457    7.970    0.875
         5  -9.1800    119.1897    238.9945   1.0256647914e+02   8.5714542662e+00     0.198212    0.1455469 -20.35  0.001090481    2.029    0.507
         6 -10.8638     72.5929    249.4325   1.1303740851e+02   1.3373770399e+01    0.7216462    0.2491665  35.15  0.003204036    2.671    0.626
         7 -10.2902     60.0676    247.9243   1.1532462697e+02   1.5297151015e+01    0.3714446    0.2577084 -83.94  0.002433172    1.457    0.313
         8  -9.0469     52.0407    250.0000   1.1700377975e+02   1.5915789264e+01    0.2873024    0.1003015  43.47  0.001412924    2.187    0.543
         9  -9.2302     25.3350    249.0343   1.2183717524e+02   1.9207767759e+01    0.3098317    0.1330992  75.53   0.00162246    2.362    0.577
        10 -11.9663      5.8407    246.4630   1.2513044315e+02   2.1712492286e+01     1.618834    0.8391466 -86.73   0.01048674    1.680    0.405
        11 -11.2353     23.8117    207.4215   1.1946560011e+02   2.7866403067e+01    0.4216771    0.3128642 -42.82  0.001042803    1.928    0.481
        12 -12.9430     34.3323    197.1578   1.1637322280e+02   2.9035749129e+01     1.498459      1.08512  61.04  0.006763867    1.225    0.183
        13 -11.0551     84.8837    230.7470   1.0875699862e+02   1.5275940312e+01     0.623475    0.3538307 -80.50  0.003179365    2.128    0.530
        14 -10.2609     87.1050    224.9570   1.0765232468e+02   1.6124327662e+01    0.3647444    0.2597643  66.64  0.002107169    1.372    0.271
        15  -9.9057    111.2558    230.9980   1.0323083320e+02   1.1292112075e+01    0.2391893    0.1612467  26.19  0.001199122    1.619    0.382
        16  -9.4315    128.3797    227.7636   9.9170064128e+01   9.2127018801e+00    0.1722886    0.1226833 -42.91 0.0009518825    1.645    0.392
        17 -12.6089     18.1239    168.5715   1.1755012510e+02   3.7345108544e+01     3.683987     1.253809  80.78  0.009567358    7.393    0.865
        18  -8.6127    121.3201    223.3234   1.0007336123e+02   1.1195173969e+01    0.1291565    0.1031033  -3.39 0.0007045454    1.675    0.403
        19  -9.5874    163.3330    222.3489   9.0974474995e+01   4.5018479836e+00    0.3009114    0.1497513  42.55  0.001392297    1.868    0.465
        20  -8.2921     60.1046    232.6340   1.1404272997e+02   1.8278188023e+01    0.2091714    0.1440196  84.18 0.0007473503    1.397    0.284
        21 -10.2955     57.4755    210.6152   1.1253854272e+02   2.3255316614e+01    0.4291688    0.2534093  50.91  0.002330899    1.510    0.338
        22  -8.5683     19.5127    238.3272   1.2229011765e+02   2.1893332812e+01    0.2600406    0.1186287  35.67  0.001016592    2.111    0.526
        23  -8.8789    128.7861    236.8239   1.0030272982e+02   7.4767507291e+00    0.2104865    0.1377685  -5.78 0.0009556009    2.876    0.652
        24 -10.5356      2.3037    170.8350   1.2149140712e+02   3.8124622184e+01    0.6859151   0.08904184 -71.40   0.00222354    4.594    0.782
        25  -8.3265     80.9224    182.0536   1.0359377475e+02   2.6546250008e+01    0.2221973    0.1701266 -29.38  0.001134465    1.765    0.433
        26 -10.0330     53.9480    180.0726   1.1000233242e+02   3.0728763108e+01    0.4258139    0.2770036 -32.75  0.001591495    2.344    0.573
        27 -10.1572     60.1528    174.1722   1.0770494370e+02   3.1356740248e+01    0.3185969    0.2461273 -48.49 0.0004840564    1.442    0.307
        28  -9.7610      8.0008    167.7663   1.1991597025e+02   3.8396807291e+01    0.2266253    0.1514187 -80.95 0.0007990388    1.214    0.176
        29  -9.8380     71.4523    164.2981   1.0335258527e+02   3.2228992651e+01    0.3219326    0.2868244  43.21 0.0006129776    1.185    0.156
        30 -11.6527     57.4760    160.7097   1.0653086288e+02   3.5008404013e+01    0.5367389    0.3191274 -42.24  0.001508359    2.030    0.507
        31 -10.8318      2.2661    186.1722   1.2256383713e+02   3.4606906882e+01     0.602807    0.2841826  82.22  0.003139955    1.931    0.482
        32 -11.2874     78.9470    157.6855   1.0026290804e+02   3.2763104023e+01    0.8184413    0.6315293  56.03  0.001752247    1.326    0.246
        33  -8.9057     33.4069    157.8704   1.1254738502e+02   3.8479477254e+01     0.384131    0.1937694  69.14  0.001661101    2.485    0.598
        34 -11.4319     68.2348    144.3030   1.0090697660e+02   3.7664139595e+01    0.7579501    0.5245935  71.19  0.002798011    1.727    0.421
        35  -7.9677    122.5897    151.4465   8.7385807737e+01   2.6752945965e+01    0.1508782    0.1469519 -78.14 5.173025e-05    1.018    0.018
        36  -9.0066     94.4321    143.6435   9.3346611923e+01   3.3751002061e+01     0.296571    0.2514918  86.72   0.00106778    1.276    0.217
        37  -8.4454     97.7712    140.2500   9.1702693815e+01   3.4008287814e+01    0.2860074    0.2050487 -12.43  0.001227324    2.089    0.521
        38 -10.3287     82.2472    141.9518   9.6454688415e+01   3.6165247716e+01    0.3173356    0.2888146 -61.33 0.0004782856    1.048    0.046
        39 -10.5967      2.2003    128.5008   1.1774133998e+02   4.8225419549e+01    0.6827374    0.1924209 -78.17  0.002500099    3.337    0.700
        40  -9.5949      1.6788    104.4854   1.1498463377e+02   5.4011203425e+01    0.3433676    0.1034904 -65.35  0.001466312    2.344    0.573
        41  -8.8354      1.6194    119.0633   1.1685030881e+02   5.0531947970e+01    0.5638787    0.1123916 -74.69  0.001750787    4.550    0.780
        42 -10.3164      2.4967    111.2067   1.1561501210e+02   5.2365406163e+01    0.5879689    0.2107701 -71.36  0.002613158    2.207    0.547
        43  -9.7450     58.7814    134.8933   1.0197600951e+02   4.1302263328e+01    0.3957464    0.2195918 -79.49  0.001566022    2.213    0.548
        44  -8.3015     94.2333    127.7701   8.9966319669e+01   3.7673947384e+01    0.2084642    0.1755787 -25.40 0.0006339158    1.332    0.249
        45  -7.7338     14.6388    128.3110   1.1411494262e+02   4.7427122331e+01    0.1332872   0.08522892  67.46  0.000704125    1.746    0.427
        46  -9.4882      7.6030    125.6209   1.1585111392e+02   4.8577946840e+01    0.2119827    0.1984038 -60.54  0.001480452    1.191    0.160
        47  -9.0534    107.0277    131.5957   8.7179079477e+01   3.4435111779e+01    0.3763763    0.2776298  34.52  0.001104164    1.432    0.302
        48  -8.0148    104.9842    120.2499   8.5044973891e+01   3.7523313199e+01    0.2059159    0.1937509  30.74  0.000199288    1.107    0.097
        49  -8.7271      2.2188     82.0079   1.1128688846e+02   5.9217605723e+01    0.1721338   0.08130154 -66.20 0.0005906711    1.694    0.410
        50  -8.7067     13.2919     60.2921   1.0204159502e+02   6.3346459568e+01    0.2070937    0.1484262 -53.67 0.0006818922    1.195    0.163
        51 -11.1003    202.2322     49.0063   4.4390355365e+01   2.8699536254e+01    0.5553168    0.4284834 -12.80  0.002994121    1.717    0.418
        52 -11.6684    209.6684     38.9005   4.1004530133e+01   2.8349232625e+01    0.6707572    0.4423939  58.93  0.003475647    1.577    0.366
        53 -10.2186     85.2345    247.4863   1.1038402254e+02   1.2004444797e+01    0.3450003    0.2086287  53.28  0.001007885    1.413    0.292
        54  -9.2347     92.8985    244.7335   1.0858198560e+02   1.1428931269e+01    0.3091843    0.1465627  24.02  0.001266566    3.331    0.700
        55  -8.2424    127.7999     35.7637   5.3068637041e+01   4.8501898562e+01    0.1884682    0.1605586 -80.11 0.0007145564    1.349    0.258
        56 -12.8375      9.2235    207.1555   1.2243890601e+02   2.9354936116e+01     1.537707    0.9387875 -73.76  0.004372311    1.486    0.327
