#   1 NUMBER                 Running object number                                     
#   2 MAG_AUTO               Kron-like elliptical aperture magnitude                    [mag]
#   3 X_IMAGE                Object position along x                                    [pixel]
#   4 Y_IMAGE                Object position along y                                    [pixel]
#   5 X_WORLD                Barycenter position along world x axis                     [deg]
#   6 Y_WORLD                Barycenter position along world y axis                     [deg]
#   7 A_WORLD                Profile RMS along major axis (world units)                 [deg]
#   8 B_WORLD                Profile RMS along minor axis (world units)                 [deg]
#   9 THETA_WORLD            Position angle (CCW/world-x)                               [deg]
#  10 FWHM_WORLD             FWHM assuming a gaussian core                              [deg]
#  11 ELONGATION             A_IMAGE/B_IMAGE                                           
#  12 ELLIPTICITY            1 - B_IMAGE/A_IMAGE                                       
         1 -12.9062    172.1566     52.8871   4.5457248257e+01   3.5259200142e+01      1.07466    0.9574276  38.32  0.004017339    1.295    0.228
         2 -13.6081    190.7021     23.7633   3.5582158024e+01   3.4706069116e+01     1.131256    0.9080458  66.26   0.00486863    1.249    0.199
         3  -8.1375    164.7409      8.9772   3.4852705725e+01   4.2237578431e+01    0.1379781    0.1082935 -33.27 0.0003191037    1.456    0.313
         4 -10.4554    119.4416      9.9318   4.1835030383e+01   5.2764152652e+01     0.566783    0.2962537  40.26  0.002803062    1.970    0.492
         5  -9.6115    188.4930    210.8794   7.8824510496e+01   1.8246879508e+00    0.3909816    0.2021319 -46.67  0.001744409    2.081    0.520
         6  -8.8472    152.3469    248.5988   9.2586112218e+01   6.6724921226e-01    0.4010023    0.2263328 -11.13  0.001645969    3.382    0.704
         7  -9.6346    102.9890    250.5910   1.0330862521e+02   7.5301278641e+00    0.1849978    0.1055831  37.53 5.214282e-05    1.480    0.324
         8  -9.8453     94.4333    249.1861   1.0496432356e+02   9.0083264562e+00    0.1843347    0.1664295  18.33 0.0003683042    1.247    0.198
         9 -18.7312     57.6630    209.9396   1.0892084090e+02   2.2360778211e+01     7.146019     5.126994 -69.72   0.02569077    1.370    0.270
        10  -9.4485    165.3066    211.3812   8.3886589051e+01   5.4511609498e+00      0.22875    0.2250262  12.47 0.0004200029    1.180    0.153
        11 -11.1588     11.3599    206.7172   1.1911147856e+02   2.8181192897e+01      0.22508    0.1877526  73.18  0.001535703    1.070    0.066
        12  -9.5246    169.0020    202.1406   8.1409754147e+01   6.6475698892e+00    0.3188053    0.2648807  63.68  0.001014689    1.606    0.377
        13 -11.3214    191.3767    192.7832   7.4827160421e+01   4.7221582477e+00     1.020338    0.6803795 -71.54  0.004170508    3.164    0.684
        14 -10.6373    101.3527    244.3678   1.0294752442e+02   8.9528369713e+00    0.2351649    0.1950949  48.96 0.0003880439    1.069    0.065
        15 -10.1103    181.0000    187.0272   7.5897397848e+01   7.6032235350e+00    0.2933612    0.2093474 -48.72  0.001466898    1.490    0.329
        16 -11.1985    181.7217    181.0069   7.4537904402e+01   8.6829837056e+00    0.5511308     0.308057 -35.95  0.001344057    1.777    0.437
        17 -11.5710    180.1681    175.4666   7.3742154304e+01   1.0085168679e+01    0.9752588    0.4288693 -54.16  0.003414191    3.022    0.669
        18  -8.9632    117.6124    241.0008   9.9006872122e+01   7.2167231329e+00    0.2973444    0.1619499  38.17   0.00127973    1.581    0.368
        19  -8.4208    189.8229    238.5885   8.3307335729e+01  -3.1163592359e+00     0.172836    0.1073241  39.79  0.000533331    1.689    0.408
        20  -9.5036    208.7043    185.8160   6.9965900150e+01   3.1835430847e+00    0.2488451    0.1663145  46.26  0.001260792    1.807    0.447
        21 -10.2677    209.9632    232.3631   7.8288305520e+01  -4.9379641649e+00    0.2080437    0.1618522 -23.36 0.0002662248    1.214    0.176
        22  -9.3073    175.2078    179.7659   7.5706996101e+01   1.0095908631e+01    0.2072853    0.1650453  -7.99  0.000445548    1.343    0.255
        23  -9.5369    202.5065    187.4095   7.1504167886e+01   3.8975012254e+00    0.3126756    0.1301837  33.24  0.001036933    2.617    0.618
        24 -10.4410     12.0135    233.6432   1.2064123251e+02   2.2222384832e+01    0.1246218    0.0928463  54.21 0.0003036051    1.177    0.151
        25 -10.5714      6.0372    177.3283   1.1818413246e+02   3.5572424660e+01    0.3528335    0.1965381  58.46  0.001046176    1.763    0.433
        26  -8.8441    177.0685    232.0860   8.4867130532e+01  -1.7408177536e-01    0.1949795    0.1674556  13.29 0.0003611065    1.037    0.036
        27  -8.9272     11.4367    174.9241   1.1666540837e+02   3.5723220093e+01    0.1726017    0.1057958 -74.20  0.000361015    1.375    0.272
        28 -10.4377    187.4160    169.7197   7.0995458773e+01   9.9406994778e+00    0.4667268    0.2754887 -44.80    0.0018788    1.640    0.390
        29  -9.7989    186.7109    165.3321   7.0215388554e+01   1.0958753374e+01    0.2664956    0.2343158  36.70 0.0008054681    1.212    0.175
        30 -11.5813    155.0579    167.2444   7.7731249149e+01   1.6510350149e+01     0.552569    0.2990909 -55.64   0.00156968    2.122    0.529
        31  -8.9407    112.9783    246.0242   1.0064058412e+02   6.9463117595e+00    0.1454213     0.126462  40.14 0.0009193486    1.011    0.011
        32 -12.2205    146.1258    153.8787   7.7001738801e+01   2.1260927295e+01      1.10174    0.7197827  80.24  0.003867534    3.154    0.683
        33  -9.7353    156.8697    155.1332   7.4674587374e+01   1.8857824717e+01    0.2308697    0.2108668  89.47 0.0004656812    1.287    0.223
        34  -9.7150    176.7362    149.7140   6.8929919558e+01   1.6105326983e+01    0.2491168    0.2406208 -47.47 0.0002686949    1.092    0.084
        35 -10.8677    149.9131    147.5619   7.4642673620e+01   2.1947534671e+01    0.4321233     0.300384 -67.69 0.0008754845    1.887    0.470
        36 -11.2693    155.3413    224.6446   8.8316374457e+01   4.5152625609e+00    0.3107379    0.2782005 -16.53  0.001313631    1.135    0.119
        37 -11.6838    143.8265    146.1242   7.5819928383e+01   2.3500351309e+01    0.6293921    0.4141592 -66.42  0.002562156    2.010    0.502
        38  -8.8338    178.8354    227.8183   8.3793013492e+01   2.9913858141e-01    0.1933837    0.1562198  -2.61 0.0004465851    1.160    0.138
        39  -9.4978    165.3822    226.9644   8.6508658458e+01   2.5130836486e+00    0.1879797    0.1677859  -7.38 0.0008478672    1.092    0.084
        40 -11.8386    107.0081    121.1211   7.9798729177e+01   3.6713475167e+01    0.7145523    0.4869281 -76.00  0.001886929    2.143    0.533
        41 -10.4933    112.2197    121.4287   7.8356042349e+01   3.5630277653e+01    0.3387873    0.2722931  70.66  0.001105607    1.543    0.352
        42 -12.8695     17.5729    244.7443   1.2019676423e+02   1.9382816963e+01    0.2734984    0.2176151 -54.32  0.001911645    1.681    0.405
        43  99.0000      5.6778    223.1734   1.2130386383e+02   2.5049561296e+01    0.1119283   0.06402392  53.96 0.0006550527    1.478    0.324
        44  -9.5929    113.4098    117.0472   7.6888284223e+01   3.6422361372e+01    0.2353705    0.2103916  38.27 0.0003110291    1.143    0.125
        45  -9.3342    167.7114    113.3739   6.2210823905e+01   2.5604545586e+01    0.3187371    0.2447867 -78.25  0.001050499    1.680    0.405
        46 -12.2802    119.2901    110.9210   7.3594695857e+01   3.6631262600e+01    0.7290868    0.5250653  58.98  0.003246293    1.635    0.388
        47 -10.4910    102.9248    104.2775   7.6577847146e+01   4.1419092382e+01     0.356632    0.2366546  59.01  0.001500111    1.943    0.485
        48  -8.9642    183.1565    103.4796   5.6575086710e+01   2.4158409156e+01    0.3015569    0.1913913 -25.96  0.001288108    1.907    0.476
        49  -9.5491     21.5309     95.0064   1.0280174226e+02   5.4937210395e+01    0.3277256    0.1943705   5.59  0.001035937    2.014    0.503
        50  -9.6160     49.9933     93.9697   9.1822767854e+01   5.2338034478e+01    0.2405484    0.1951248  18.67 0.0004650695    1.315    0.239
        51 -10.0027    176.9169    218.3376   8.2585203319e+01   2.2848527702e+00     0.308836    0.1707927 -38.72  0.001479163    1.844    0.458
        52  -8.5701     17.3056     89.0173   1.0318968935e+02   5.6672948684e+01    0.1848271    0.1445625 -51.52 0.0003406119    1.059    0.056
        53  -8.4917    128.5092    246.4654   9.7359268320e+01   4.5726824630e+00    0.1300793    0.1116366  31.91 1.595181e-05    1.006    0.006
        54  -9.8097    153.3616    215.1119   8.7186545551e+01   6.6726781838e+00    0.4171255    0.2301081  16.81  0.001193662    2.446    0.591
        55  -8.8856     44.2892     82.3492   9.0929482030e+01   5.5684788810e+01    0.2750693    0.1615138  31.25    0.0013383    1.829    0.453
        56 -12.1980    159.1974     66.2788   5.1411402553e+01   3.6275688284e+01     1.368905    0.6915901  48.61  0.001088474    2.000    0.500
        57 -10.1452     27.4741    249.0927   1.1856332560e+02   1.7463806023e+01    0.1148764   0.04742056  42.98 0.0003452253    1.926    0.481
        58 -11.5966    177.8479     44.8732   4.2478325819e+01   3.5043163051e+01    0.4213829    0.3923087  86.40 0.0008559607    1.071    0.066
        59  -9.3454    151.7283     47.9782   4.7631391237e+01   4.0808972728e+01    0.1851356    0.1799387 -66.74 0.0003435402    1.083    0.076
        60 -10.3038    161.0616    211.4075   8.4831379096e+01   6.1411095709e+00    0.3852952    0.2005382 -48.78 0.0009615468    2.063    0.515
        61  -8.5957    120.1912     40.2171   5.1764534960e+01   4.9298766347e+01    0.1742541    0.1563039 -79.01 0.0003270409    1.269    0.212
        62  -8.7781    225.2865     38.0429   3.5219579349e+01   2.5424882794e+01    0.1707116    0.1378531 -60.79 0.0004782448    1.069    0.065
        63  -8.9346    166.5205    247.0633   8.9403601350e+01  -1.1461685650e+00    0.1742367    0.1221873 -36.87  0.001012747    1.554    0.356
        64  -9.3990    162.9553    246.5765   9.0072521669e+01  -5.4608688111e-01    0.2234095    0.2081647  34.02 0.0004988081    1.239    0.193
