#   1 NUMBER                 Running object number                                     
#   2 MAG_AUTO               Kron-like elliptical aperture magnitude                    [mag]
#   3 X_IMAGE                Object position along x                                    [pixel]
#   4 Y_IMAGE                Object position along y                                    [pixel]
#   5 X_WORLD                Barycenter position along world x axis                     [deg]
#   6 Y_WORLD                Barycenter position along world y axis                     [deg]
#   7 A_WORLD                Profile RMS along major axis (world units)                 [deg]
#   8 B_WORLD                Profile RMS along minor axis (world units)                 [deg]
#   9 THETA_WORLD            Position angle (CCW/world-x)                               [deg]
#  10 FWHM_WORLD             FWHM assuming a gaussian core                              [deg]
#  11 ELONGATION             A_IMAGE/B_IMAGE                                           
#  12 ELLIPTICITY            1 - B_IMAGE/A_IMAGE                                       
         1 -15.2557     16.5386    109.1600   1.3614323938e+02   5.1451966836e+01     1.446173     1.117034  76.75  0.009588181    1.481    0.325
         2 -15.2759     26.0993     94.6784   1.3072501357e+02   5.3904076331e+01      1.44656     1.235845  -5.18   0.01003069    1.380    0.275
         3 -15.2530    105.5665    108.1674   1.1001120970e+02   4.0277183823e+01     2.513606      2.01809 -20.96   0.01267237    1.447    0.309
         4 -14.9715    160.9955     80.6850   8.8336848039e+01   3.3731849396e+01     2.176395     1.373361  24.02  0.002462215    2.483    0.597
         5 -15.3314     55.5691     71.1633   1.1531303656e+02   5.5821272152e+01     1.859923     1.571833  23.48  0.003991079    1.299    0.230
         6 -15.3188    122.0102     37.4026   8.4052430304e+01   4.9665747296e+01     2.024966     0.894795  45.84  0.006612927    2.071    0.517
         7 -14.5147    166.6393     30.0833   7.2738207469e+01   4.0020601542e+01     1.078451     0.762729  56.93  0.003080862    1.276    0.216
         8 -14.7587    146.9727     30.6542   7.6456161000e+01   4.4738635258e+01     1.663658     1.052412  74.43  0.008045056    1.755    0.430
         9 -13.4704     67.2617     48.6280   1.0410017364e+02   5.8291488169e+01     1.017326    0.5714296 -28.99  0.005232337    1.746    0.427
        10 -15.5757      7.0791     69.4717   1.3173735093e+02   6.0472700947e+01     1.581048    0.6915493 -60.86  0.006182584    1.822    0.451
        11 -15.1413     42.0430      7.1721   9.7139236081e+01   6.7459746692e+01     1.812538     1.074578  -0.60   0.01121503    1.672    0.402
        12 -13.3132      8.2343      3.1142   1.1020939420e+02   7.1537453938e+01    0.6156318    0.4580109  10.21  0.004990384    1.356    0.262
        13 -13.6130     25.1097     31.3496   1.1393626771e+02   6.6074370042e+01    0.8077512    0.7053587 -77.16  0.005706082    2.055    0.513
        14 -15.0863      8.4318     29.3586   1.2031990675e+02   6.7705852058e+01    0.8687007    0.7277899  21.28   0.00691167    1.554    0.357
        15 -15.5093     14.3028     19.3958   1.1413357929e+02   6.8813211694e+01     1.335773    0.6646216 -17.65  0.007773494    2.087    0.521
        16 -13.7950     52.7993     29.8139   1.0238682385e+02   6.3185678117e+01     1.354955    0.6957305  10.22  0.006131717    2.990    0.666
        17 -14.9095     84.3707     66.8476   1.0450736160e+02   5.2450499934e+01       2.3102     1.365008   5.09  0.008156105    3.050    0.672
        18 -13.2620    187.4911     12.9362   6.5065605894e+01   3.6821157713e+01    0.9603034    0.7452183  42.55  0.003652352    1.479    0.324
        19 -15.0717    212.4956     41.1023   6.8843593031e+01   2.7275358056e+01       2.2758     1.199029  68.40   0.01052556    1.797    0.444
        20 -12.9525    194.8328     23.5168   6.6807453612e+01   3.3842941996e+01     0.734332    0.3816581 -32.37  0.002829202    2.100    0.524
        21 -13.4897    222.9475     21.3720   6.3003079732e+01   2.7333057459e+01    0.5754772    0.4640513  20.53  0.001486643    1.907    0.476
        22 -13.5744    215.2751      9.5576   6.1128411766e+01   3.0500754867e+01    0.7920019    0.4404443  64.30  0.001120639    1.625    0.385
        23 -13.8883    215.3575     20.8038   6.3691528414e+01   2.9196198654e+01    0.7926328    0.5794675 -22.08   0.00358071    1.776    0.437
        24 -14.1771    218.7657     15.0450   6.2012822890e+01   2.9063510449e+01    0.8571768    0.5802254  57.46  0.003835634    1.541    0.351
        25 -13.6103    189.8077     26.8417   6.8330304154e+01   3.4682750083e+01     1.157744    0.4950514 -56.25  0.003811391    3.093    0.677
        26 -13.5196    242.0591     36.0245   6.4226162102e+01   2.1045505082e+01    0.9105715     0.499568  85.93  0.002758214    1.933    0.483
        27 -15.7935     99.7834     12.9347   8.0970975265e+01   5.7146183434e+01     1.431484    0.6889622  49.71  0.003488111    1.775    0.437
        28 -12.3355    202.1829     12.0106   6.3088941767e+01   3.3355272120e+01    0.3849776    0.3531888  13.62 0.0005057948    1.457    0.314
        29 -10.8972    162.1579      8.9760   6.7460384866e+01   4.3387177842e+01    0.2931595    0.1969855 -82.75  0.001553862    1.687    0.407
        30 -11.1797    153.6714      8.1922   6.8528432675e+01   4.5502285905e+01     0.239426    0.1790232  59.89 0.0003002176    1.140    0.123
        31 -11.1369    125.8336      8.8512   7.3659600703e+01   5.1932619548e+01    0.2436215    0.1972447  56.77   0.00102624    1.094    0.086
        32 -11.9556    120.7517      3.9368   7.3028432801e+01   5.3488665023e+01     0.506375    0.2929242  88.63  0.002282892    2.871    0.652
        33 -10.9938     80.4908      8.0244   8.4337537382e+01   6.1324804398e+01    0.1670457    0.1107767 -15.79 0.0006372892    1.533    0.348
        34 -11.3045     67.7766      3.7627   8.6461324010e+01   6.3945963724e+01    0.2542865    0.1671696  18.96  0.001338029    1.355    0.262
        35 -11.7941     26.7427      3.7607   1.0196955170e+02   6.9687080533e+01    0.2501137    0.1564596  12.99 0.0006363629    1.403    0.287
        36 -11.2743    250.3242      2.4225   5.6598433448e+01   2.3363704551e+01    0.2263559    0.1318824 -45.06  0.001339873    1.595    0.373
        37 -11.4586    243.8594      2.3312   5.7071544813e+01   2.4778884085e+01    0.2461392    0.1830075  77.13 0.0009565239    1.260    0.206
        38 -13.5664    232.1985      2.6129   5.8069052444e+01   2.7344785508e+01     1.289912    0.3579869  65.09  0.004624789    2.980    0.664
        39 -12.2856     80.7926      1.9652   8.1813563585e+01   6.1808652581e+01     0.537863    0.1483959  49.03  0.002283687    2.833    0.647
        40 -10.8643     62.4841      1.5166   8.7218392031e+01   6.5024482770e+01    0.2216847    0.1355453  26.46 0.0006762854    1.404    0.288
        41 -11.2462     59.4898      1.5398   8.8231018875e+01   6.5502414278e+01    0.2307526    0.1416876  24.03  0.001352272    1.411    0.291
        42 -12.9142    201.7039    191.7469   1.0610969742e+02   2.4450400399e+00    0.6452416    0.4757387 -23.80  0.002153475    1.498    0.332
        43 -13.4841     80.1571    221.9962   1.3613677541e+02   1.8525539323e+01     1.025368    0.4500119  66.61  0.004128783    3.099    0.677
        44 -14.5245     96.0897    236.6745   1.3469150837e+02   1.3156649017e+01     1.712665     0.904275  64.76  0.007204862    1.977    0.494
        45 -11.0954     41.4020    249.7912   1.4557877153e+02   1.8394634235e+01    0.2440343    0.1548769  77.89   0.00146792    1.233    0.189
        46 -10.9966     40.6801    245.6648   1.4540748280e+02   1.9254847178e+01     0.211929    0.1497657 -78.78  0.001505252    1.381    0.276
        47 -13.6947     27.3177    245.0606   1.4756073086e+02   2.0969680851e+01    0.9309176    0.5607863  88.73  0.005997405    1.335    0.251
        48 -14.2301     23.8221    223.8979   1.4672967943e+02   2.5472290371e+01      1.12752    0.5892143 -81.74  0.005998579    1.592    0.372
        49 -13.4781      9.9779    210.7470   1.4824023315e+02   2.9582827156e+01    0.6528397    0.5894749  63.01  0.004810837    1.456    0.313
        50 -13.5346     29.9457    169.6190   1.4076816232e+02   3.6500497288e+01    0.7079164    0.4829473 -37.93  0.001884373    2.123    0.529
        51 -12.7829     16.6827    196.2167   1.4595475281e+02   3.1961396854e+01    0.7477697    0.2290822 -61.28  0.003243879    2.923    0.658
        52 -15.5988      9.0940    180.0668   1.4611940485e+02   3.6157998655e+01     2.286967     1.056484 -74.15   0.01289416    1.681    0.405
        53 -11.8659      3.0822    249.8809   1.5160219583e+02   2.2716031523e+01    0.2703054    0.1433867  58.11  0.001922923    1.437    0.304
        54 -14.1748      9.1092    245.6808   1.5047324792e+02   2.2861188291e+01    0.7534257     0.381338  63.40  0.003156515    1.487    0.327
        55 -12.6288     98.3751    187.3173   1.2779092263e+02   2.3137553738e+01    0.4720169    0.4307387 -79.73  0.002829283    1.120    0.107
        56 -11.9482    232.2111    185.7052   9.8999066092e+01  -2.2460535682e+00    0.4227236    0.2506483  48.17  0.002043872    1.842    0.457
        57 -11.6394    109.3192    183.5426   1.2471501441e+02   2.2109962244e+01    0.3249957    0.2569834  24.32   0.00158302    1.619    0.382
        58 -12.3361     48.6641    180.7994   1.3794675195e+02   3.1848194532e+01    0.5910075    0.2863866 -62.50  0.002965654    1.833    0.454
        59 -11.8684    198.6368    182.9037   1.0496253421e+02   4.6841054873e+00    0.3821983    0.2479362  35.68  0.001262461    1.541    0.351
        60 -12.6820    194.6818    177.2642   1.0461781592e+02   6.5586739088e+00    0.5621741     0.418861 -58.90  0.001230246    1.589    0.371
        61 -11.3092    122.6552    181.9631   1.2140012539e+02   2.0043200416e+01    0.5044519    0.2935938  79.19  0.001850751    3.028    0.670
        62 -12.7211     85.0204    179.8928   1.2969757880e+02   2.6996241205e+01    0.5887571    0.3623154 -86.09  0.002781579    1.864    0.463
        63 -13.0616    164.5290    195.0505   1.1447505947e+02   9.1353598711e+00    0.7749651    0.4561792 -65.61  0.003226774    2.438    0.590
        64 -12.3736    131.7612    173.1689   1.1769642065e+02   2.0279107302e+01    0.5174093    0.4517895  66.70  0.002778235    1.109    0.098
        65 -13.1448    123.9278    166.5578   1.1827757234e+02   2.3298067134e+01    0.7661901    0.5049412 -73.71  0.003400933    1.819    0.450
        66 -12.5977    112.1053    156.2146   1.1913429972e+02   2.7928687394e+01    0.7570707    0.4518633  76.61   0.00282653    2.791    0.642
        67 -12.5321    122.4035    155.6396   1.1648499898e+02   2.6115870912e+01    0.6581721    0.4614617 -43.30  0.002929901    1.530    0.346
        68 -11.0552    177.3721    167.2087   1.0617286367e+02   1.2179869837e+01    0.2127984    0.1423044 -54.78 0.0006897768    1.641    0.390
        69 -12.8902    237.5918    159.8745   9.2628183589e+01   1.2202798782e+00     1.052781    0.1881762  42.02  0.002511541    7.086    0.859
        70 -10.7231    101.8106    161.4215   1.2265450786e+02   2.8547033997e+01      0.32434    0.1466478  30.35  0.001140891    3.152    0.683
        71 -11.5092     27.6135    158.8061   1.4007518569e+02   3.9203142395e+01    0.3432514     0.219126 -72.56  0.001640869    1.263    0.208
        72 -12.3105     24.4337    156.4243   1.4052842140e+02   4.0052259293e+01    0.4324574     0.320541 -28.02  0.002655641    1.995    0.499
        73 -12.4699     77.4982    157.2144   1.2790255361e+02   3.3471047149e+01    0.8527972    0.5013027  61.08   0.00126834    1.979    0.495
        74 -13.1123     74.4871    153.3444   1.2800049241e+02   3.4834705008e+01      0.70667    0.5906138  24.28     0.002891    1.491    0.329
        75 -13.2427    208.2363    154.4693   9.6964044203e+01   8.1639510858e+00    0.8045425    0.5898277  45.06  0.003948931    1.386    0.279
        76 -11.0737    154.9087    157.3541   1.0909151092e+02   1.9078933869e+01    0.3624433    0.1867472  54.98  0.001358457    2.187    0.543
        77 -11.5110     55.5152    156.1050   1.3312552582e+02   3.6740999434e+01      0.37578    0.2826379  -5.78  0.001728668    2.162    0.537
        78 -12.0986     85.6544    153.4455   1.2521572042e+02   3.3118861711e+01    0.5839548    0.3523697 -45.14  0.002705372    1.816    0.449
        79 -11.8866     41.5328    152.3623   1.3598639149e+02   3.9258028765e+01    0.5503018    0.2682242 -76.93  0.002582673    2.001    0.500
        80 -12.0638    103.3304    150.0000   1.2010219494e+02   3.0980588049e+01    0.4124245    0.3290618 -32.61  0.001518937    1.520    0.342
        81 -12.1179      6.2160    148.0534   1.4378010017e+02   4.3479392016e+01      0.49458    0.2938031 -84.63  0.003028733    1.390    0.281
        82 -12.4555    244.1952    147.1185   8.8720142926e+01   2.2039321043e+00    0.4675652    0.2732055 -40.61  0.002215233    1.574    0.365
        83 -10.2545     60.4662    149.4938   1.3088562412e+02   3.7676405517e+01    0.1768053     0.121917  51.99 0.0001243299    1.538    0.350
        84 -11.9266     63.4973    146.7984   1.2967843442e+02   3.7919719312e+01    0.2422288    0.2332935 -88.79 0.0009331058    1.151    0.131
        85 -11.3772     44.6240    145.3162   1.3422174290e+02   4.0568151961e+01    0.2132614    0.1997906 -70.34 0.0006529088    1.174    0.148
        86 -11.5756     38.4674    145.7363   1.3581722173e+02   4.1134371464e+01    0.2374584    0.2029456 -73.56 0.0006805297    1.068    0.063
        87 -11.2393    162.3425    142.2315   1.0397813613e+02   2.0783648128e+01    0.5072308    0.2755975 -32.32  0.001863657    2.373    0.579
        88 -11.5115    149.6526    141.1680   1.0670332223e+02   2.3809281038e+01    0.5082801    0.3232624  69.09  0.001988702    2.190    0.543
        89 -11.2332     88.8140    140.9515   1.2204803605e+02   3.5591304033e+01    0.3527155    0.2638684  -5.41  0.001665222    2.090    0.521
        90 -13.0063     44.3020    136.9435   1.3302375523e+02   4.2568582719e+01    0.9483812    0.3884772 -53.45  0.004246104    2.126    0.530
        91 -11.2475     64.0000    133.9859   1.2730505381e+02   4.0894456835e+01    0.6820338    0.1722037 -53.41   0.00229628    3.266    0.694
        92 -10.7943     60.8150    133.6662   1.2810137820e+02   4.1384011025e+01    0.2506687    0.1965904  52.50 0.0008141189    1.393    0.282
        93 -10.2840     15.0023    139.0296   1.4070457390e+02   4.4836559750e+01    0.1373731    0.1172458 -81.14 0.0004284607    1.108    0.098
        94 -11.0406     56.4159    137.5069   1.2994567808e+02   4.1028709896e+01    0.2633529    0.2108904 -55.99  0.001235307    1.166    0.143
        95 -12.6835    246.6119    133.6423   8.5365430583e+01   4.1169607180e+00    0.5759836     0.440235 -50.41  0.002408633    1.289    0.224
        96 -13.3185    223.7539    128.7369   8.8167827101e+01   9.7620696834e+00    0.8199995    0.5618258 -67.40  0.003671655    1.928    0.481
        97 -13.6229    232.3711    133.3175   8.7693599352e+01   7.0760966799e+00     1.032947     0.513547  50.99  0.004325651    2.166    0.538
        98 -13.8037    232.2008    127.2678   8.6348756262e+01   8.2246682199e+00    0.8463123    0.6296253  64.73  0.004248213    1.556    0.357
        99 -10.9530     31.7309    136.0343   1.3613093597e+02   4.4065015041e+01    0.1849944    0.1365522 -68.70 0.0005742353    1.101    0.092
       100 -13.1714    120.4850    111.0722   1.0668952960e+02   3.6724558629e+01    0.8017468    0.6731814 -41.40  0.002905089    1.179    0.152
       101 -12.2602    110.4575    132.0231   1.1444721138e+02   3.3916928943e+01    0.5678794    0.4825759  -4.72  0.002614546    1.500    0.333
       102 -13.5041    134.5097    103.1421   1.0091619095e+02   3.5468268046e+01     1.816068    0.4499506  49.38    0.0047898    4.403    0.773
       103 -14.3566    105.0772    122.9927   1.1379921227e+02   3.7010176934e+01     2.235681     1.003232  36.33  0.008389519    2.509    0.602
       104 -13.2953     85.1724    115.3135   1.1753266973e+02   4.2190778484e+01     1.032462    0.6179924  19.26  0.004381493    2.468    0.595
       105 -13.7649     90.2371    109.4660   1.1468317710e+02   4.2695502229e+01     1.354522    0.7444026  27.47  0.005671405    2.330    0.571
       106 -11.6139    137.5451    132.9754   1.0772886633e+02   2.8258065046e+01    0.4332176    0.2927642  24.19  0.001185837    2.007    0.502
       107 -13.0870    132.7801    129.8841   1.0818450723e+02   2.9964716229e+01    0.9487503    0.5071293 -43.00  0.003754569    1.913    0.477
       108 -10.9315     57.7719    128.0239   1.2789275352e+02   4.3096357341e+01    0.2740277    0.1747209 -61.08 0.0007158223    1.360    0.265
       109 -11.3780     60.6263    124.7624   1.2648662985e+02   4.3502903499e+01    0.3070778    0.2458278 -30.81  0.001424144    1.439    0.305
       110 -13.1470     62.2841    102.1427   1.2119371348e+02   4.8472175730e+01     1.311607    0.5113532 -58.37  0.005194614    2.476    0.596
       111 -13.8315     29.7047    119.3061   1.3410102478e+02   4.8101560154e+01     2.386498    0.2804887 -55.46   0.00760072    4.328    0.769
       112 -12.6878      4.1578    119.8721   1.4104427943e+02   4.9911808831e+01     0.483372     0.390641   9.42  0.002233071    1.675    0.403
       113 -11.7172    235.4817    248.8065   1.0998219039e+02  -1.2119910987e+01    0.2353801    0.1439241  33.74  0.001418493    1.391    0.281
       114 -13.8695    170.6180    242.0550   1.2101444357e+02  -4.7991504894e-01     1.062263    0.7564233  29.09  0.006162523    1.387    0.279
       115 -13.9137      2.5656     96.9709   1.3824141479e+02   5.5008283086e+01    0.8885697    0.3113855 -66.07   0.00349608    2.127    0.530
       116 -11.1880    184.8839    124.1044   9.4631120812e+01   1.9480099513e+01    0.2971977    0.2344844  65.26 0.0007019253    1.369    0.269
       117 -12.4713    180.8197    121.0986   9.4750576733e+01   2.1046053038e+01    0.5108281    0.3291967  46.31  0.001558402    1.576    0.366
       118 -12.6778    147.1660    238.7180   1.2508235675e+02   4.1906768323e+00    0.5179775    0.3510862  79.89  0.002255566    2.054    0.513
       119 -10.2874     11.1120    134.4622   1.4110308597e+02   4.6169286406e+01     0.139618    0.1175493  37.78 0.0004424411    1.482    0.325
       120 -13.7036     48.4396     96.6119   1.2417996680e+02   5.1349179619e+01     1.124941    0.9170882  67.10  0.006570314    1.558    0.358
       121 -12.2405    193.5513    117.2796   9.1160472099e+01   1.8830111540e+01     0.524417     0.245104  54.84  0.001926215    2.268    0.559
       122 -12.2825    199.3407    114.9920   8.9449580537e+01   1.7923913170e+01    0.3714159    0.2891771 -16.02  0.001736225    1.592    0.372
       123 -10.8101     51.2374    116.5180   1.2753293427e+02   4.6552539843e+01    0.3369654    0.1753048 -78.06  0.001400032    2.665    0.625
       124 -12.5276    176.4669    111.8611   9.3352293096e+01   2.3960877514e+01    0.4952309    0.3888055 -36.81  0.002320744    1.306    0.235
       125 -12.0592     46.3044    109.5255   1.2758123744e+02   4.8699365390e+01     0.471215    0.3062105 -48.79  0.001913836    1.349    0.259
       126 -10.7530    194.6346    112.6873   8.9803712491e+01   1.9482521708e+01    0.1597902    0.1237574  14.23 0.0002301566    1.762    0.433
       127 -11.3805    222.4920    109.9288   8.3982909705e+01   1.3550810224e+01    0.3011971    0.2296561  56.35  0.001513291    1.378    0.274
       128 -10.3622     42.5021    113.5177   1.2946704223e+02   4.8192505513e+01    0.1883994    0.1303945  27.66 0.0007921307    1.725    0.420
       129 -13.0490    137.2770     96.2566   9.8323473066e+01   3.6280480838e+01    0.5451338     0.431256 -53.51  0.001432754    1.311    0.237
       130 -12.8337    249.1322     97.6893   7.6978756110e+01   9.8970886896e+00    0.6497697    0.3155103 -41.23  0.002854932    1.829    0.453
       131 -11.3208    161.3888     97.1600   9.2805659155e+01   3.0508203894e+01    0.4288094    0.2551515  49.99  0.001725124    1.666    0.400
       132 -10.8585    188.8180     97.0659   8.6985058076e+01   2.3895889817e+01    0.2496292    0.2103533 -73.46  0.001237334    1.265    0.209
       133 -12.2711    127.4611     95.6266   1.0067478301e+02   3.8559801739e+01      0.57445    0.3871704  86.65  0.002218247    2.653    0.623
       134 -11.2278     76.0390     95.7714   1.1543412034e+02   4.7962413051e+01    0.2181048     0.180985 -46.75 0.0002326269    1.098    0.089
       135 -13.8996    188.4484     84.2886   8.3720542749e+01   2.6345835145e+01     1.486624      0.65413  53.77   0.00138549    2.224    0.550
       136 -14.4930    197.8499     70.9303   7.8539514864e+01   2.6337561153e+01     2.808767    0.7814242  47.27  0.007892331    4.413    0.773
       137 -13.5919    213.7633     78.6193   7.7853225581e+01   2.1172032323e+01     1.145669     0.740069  80.26   0.00515339    1.845    0.458
       138 -12.2076    219.6415     74.9035   7.6028181365e+01   2.0395724353e+01    0.3881653    0.3000235  82.61 0.0005494798    1.334    0.251
       139 -12.3813    145.0150    231.4945   1.2448321964e+02   5.8503749571e+00    0.4387045    0.2344263 -45.36  0.002126504    2.268    0.559
       140 -14.0586    132.9035     81.7209   9.5277839717e+01   4.0113256940e+01     1.300715    0.8944669  25.32  0.004457309    1.820    0.450
       141 -13.2525     74.4155     37.2238   9.7586091800e+01   5.8921564619e+01    0.6727927    0.2878095  45.36  0.001731239    2.482    0.597
       142 -13.8571    159.1084     44.4268   7.8245032032e+01   4.0018635063e+01     1.826843    0.4514913  50.99  0.005675255    3.538    0.717
       143 -12.3736     51.7260    248.6511   1.4377524838e+02   1.7288216681e+01    0.4258699    0.3338685  70.26   0.00296371    1.131    0.116
       144 -14.2813    101.3563     50.2031   9.3864516980e+01   5.2165966297e+01     0.887842    0.6186213  56.58  0.002323581    1.667    0.400
       145 -15.1376    119.4383     54.7637   9.0424056718e+01   4.7740070749e+01      1.29725    0.7149963  42.86  0.001854523    1.752    0.429
       146 -12.8996     57.4660    246.7368   1.4264697946e+02   1.6885512391e+01    0.7886299    0.4713584  33.93  0.004609307    2.191    0.543
       147 -13.2500    236.8662    230.6304   1.0663876101e+02  -9.9346205767e+00    0.5853977    0.4780148 -51.10  0.003710649    1.751    0.429
       148 -10.4041    136.6694    237.3194   1.2693882880e+02   6.2704557820e+00    0.1352729   0.08998007  68.39 0.0005980943    1.690    0.408
       149 -11.7764     89.7434     87.4978   1.0902804570e+02   4.7527675142e+01    0.4436192    0.2998547  52.18  0.001977267    1.760    0.432
       150 -11.5375     16.4508    235.2042   1.4871114528e+02   2.4056164025e+01    0.3310996    0.1213587  67.81  0.001546035    2.664    0.625
       151 -10.4547     78.9776     87.4948   1.1231984928e+02   4.9274181517e+01    0.1940742    0.1368456  36.33 0.0004292508    1.526    0.344
       152 -12.7996    241.8346     83.8409   7.4891438802e+01   1.3815471726e+01     0.568947    0.3108677  61.98  0.002257057    1.954    0.488
       153 -13.4894    238.3882     80.3684   7.4580962609e+01   1.5159973414e+01     1.068258    0.4318803  60.79  0.004204208    2.627    0.619
       154 -10.8540     98.4217     84.0582   1.0545246942e+02   4.6696760332e+01    0.2489443     0.199583  61.30 0.0005908048    1.516    0.340
       155 -10.2258     73.5162    244.9615   1.3968303106e+02   1.4986839082e+01      0.16457    0.1060054 -71.46  0.001020134    1.589    0.371
       156 -13.3925      8.7557     42.9314   1.2443798259e+02   6.5385265779e+01    0.7281203    0.5903571  37.38  0.005462296    1.748    0.428
       157 -11.0553     39.5300    210.7644   1.4284717116e+02   2.6368164985e+01    0.3469244    0.1352194  41.65  0.001509581    2.423    0.587
       158 -13.0453     46.1542    209.0990   1.4142982361e+02   2.5912578671e+01     0.570288    0.2790591  73.57  0.002807093    2.209    0.547
       159 -13.1761     57.4316    202.6589   1.3855345713e+02   2.5849535897e+01     1.152693    0.3705531 -69.37  0.004663554    2.980    0.664
       160 -12.8609     34.0582     32.9277   1.1085021744e+02   6.4957183843e+01    0.4040631     0.336494  41.57  0.002401554    1.753    0.430
       161 -12.4539     53.1287    214.4891   1.4059964666e+02   2.3883574564e+01    0.4074301    0.2651917  84.48  0.001928773    1.344    0.256
       162 -13.3208     68.2791    222.5752   1.3849469595e+02   2.0139785632e+01    0.7164057    0.4880737 -53.80  0.004237912    1.845    0.458
       163 -12.0864    113.8152     80.5242   9.9999400832e+01   4.4418422594e+01    0.4242083    0.3856338 -31.23  0.001405136    1.080    0.074
       164 -11.8432     90.8933     80.1301   1.0655111011e+02   4.8816489879e+01    0.4252967     0.341437  12.65  0.001608445    1.370    0.270
       165 -14.0463     62.9762    214.9628   1.3874214469e+02   2.2463174352e+01     1.031245    0.6042939 -68.67  0.004988271    1.619    0.382
       166 -12.4590    242.1295     72.2179   7.2220749933e+01   1.5655341368e+01    0.6207244    0.3479844 -67.29  0.002702022    2.211    0.548
       167 -12.6059     41.8519     77.3417   1.2166481855e+02   5.6131009685e+01    0.3455451    0.2269001 -50.00 0.0006592816    1.288    0.224
       168 -11.8896    152.2641     71.5354   8.7649180752e+01   3.7461802984e+01    0.3703804    0.2831197   4.68 0.0005959899    1.752    0.429
       169 -11.3140    115.4880     65.6698   9.4973011269e+01   4.6785157231e+01    0.3575781    0.2424439 -29.68  0.001739716    1.535    0.348
       170 -14.0840    169.7877     77.4012   8.5549537083e+01   3.2172421847e+01    0.8289285    0.7270681   9.66  0.002664116    1.362    0.266
       171 -11.5124    158.0551     63.9498   8.4176221648e+01   3.7335054471e+01    0.3614107    0.2115376 -45.51  0.001571783    1.805    0.446
       172 -11.5227     86.3295     49.6202   9.8179138879e+01   5.5045799943e+01    0.4324893    0.2426714 -22.86  0.001859278    2.028    0.507
       173 -13.1203     78.9701     61.0790   1.0438085194e+02   5.4371967240e+01    0.5401242    0.4679249   5.59  0.002160137    1.104    0.094
       174 -12.1532     82.4029     57.2048   1.0199943655e+02   5.4478276354e+01    0.4061673    0.2299073 -39.26  0.001606508    1.702    0.413
       175 -13.9048    178.0535     57.4769   7.8423126742e+01   3.3415423515e+01    0.8179018    0.6369842 -65.22  0.002322883    1.382    0.276
       176 -12.6216     39.2828     60.4905   1.1792231348e+02   5.9694081117e+01    0.3067354    0.2793802  35.64  0.001956055    1.405    0.288
       177 -11.5497    248.5894    224.6071   1.0346609333e+02  -1.0923271647e+01    0.2324932     0.222076  74.44  0.001598018    1.635    0.389
       178 -13.2148    248.6759     51.5254   6.6855759734e+01   1.7382697896e+01    0.6888171     0.446878 -34.25  0.003667942    1.642    0.391
       179 -11.9985    230.3178     55.3209   6.9896721891e+01   2.0982055489e+01    0.5805452    0.2683958  68.34  0.002275898    2.227    0.551
       180 -12.3747     24.5749     60.1602   1.2320667468e+02   6.1095255591e+01     0.289411    0.1808314 -45.80  0.001475188    1.268    0.211
       181 -10.1192     40.3208     51.3286   1.1472447793e+02   6.1253163759e+01    0.1281991   0.07802567 -20.81 0.0006121006    1.689    0.408
       182 -10.5285     23.1824     49.9573   1.2082364708e+02   6.3097377042e+01    0.1611667    0.1395074 -42.00  0.000498575    1.225    0.184
       183 -13.6414    133.6097     67.1511   9.0730635969e+01   4.2576980990e+01     1.229542    0.8094774  40.61  0.004436715    1.526    0.345
       184 -10.5221    163.4923    225.4667   1.1987846098e+02   3.5953753155e+00    0.1354077    0.1181019  41.45 0.0001683034    1.031    0.030
       185 -13.2389     22.5788    181.1158   1.4349072414e+02   3.4662852009e+01     0.508109    0.3263554 -81.46   0.00197326    1.236    0.191
       186 -13.4153     94.4928    218.7556   1.3291745180e+02   1.6969696621e+01     0.454188    0.3289901  65.92  0.001655903    1.220    0.180
       187 -13.6591     98.6137    216.8587   1.3184799119e+02   1.6695735989e+01    0.6105653    0.4763704 -61.79  0.003654687    1.400    0.286
       188 -10.6887    157.5044    220.0090   1.2022538993e+02   5.6821566719e+00    0.1967706    0.1370899 -50.41  0.001043553    1.622    0.383
       189 -11.7662     85.4715    215.8912   1.3438693637e+02   1.8980890159e+01    0.3515985    0.2120015  53.09  0.001513365    1.465    0.317
       190 -12.7324    185.2836    212.7936   1.1336075274e+02   1.8037741628e+00    0.4336316    0.2249448 -44.83  0.001981921    2.131    0.531
       191 -11.0652    109.5150     85.5142   1.0267613912e+02   4.4301770740e+01    0.2438517     0.191212 -31.44    0.0010773    1.285    0.222
       192 -10.9925     25.4570     43.2385   1.1784905831e+02   6.4088970243e+01    0.2113655   0.08752131 -44.56  0.000594667    1.923    0.480
       193 -10.7842    157.4499    213.2757   1.1914519279e+02   6.9515862463e+00    0.1783632    0.1347497 -68.29 0.0009409772    1.589    0.371
       194 -11.6301    136.8523    211.4667   1.2315561257e+02   1.1138805712e+01    0.2576415    0.2013147 -71.81  0.001186435    1.410    0.291
       195 -12.1394    245.4928     31.0187   6.2811634847e+01   2.0946198048e+01    0.3483986    0.2242685 -43.69  0.001526183    1.471    0.320
       196 -12.3082    104.9298     35.9210   8.7921943885e+01   5.3486690924e+01    0.4871181    0.2812043 -22.02  0.002385543    1.905    0.475
       197 -12.1915     96.9484     27.2388   8.7002545093e+01   5.6167533060e+01    0.3390468    0.2779427  12.39  0.001406354    1.142    0.124
       198 -10.3581     52.6345    228.2892   1.4195383375e+02   2.1111708229e+01    0.1297851   0.06918114  67.23 0.0007024517    1.702    0.413
       199 -11.5508     76.5421     23.5594   9.1701239116e+01   6.0362427677e+01    0.3426977     0.243675  41.37  0.001917121    1.379    0.275
       200 -11.4237     70.7516     16.9058   9.0933969249e+01   6.2111672206e+01    0.2027302    0.1666486  24.04 0.0004232453    1.111    0.100
       201 -10.8267     60.2176     16.0229   9.4149939697e+01   6.3890001205e+01    0.2126583    0.1593884 -36.51  0.001385191    1.623    0.384
       202 -11.5659    227.4280    209.5084   1.0453718712e+02  -5.2736942788e+00    0.3547544    0.2705255  82.91  0.001765929    2.588    0.614
       203 -11.0409     65.3445     24.2650   9.5698544697e+01   6.2107174102e+01    0.3216219    0.1858695  -8.21  0.001688638    2.012    0.503
       204 -10.9758    204.8283    218.1555   1.1044039941e+02  -2.6805169263e+00    0.1881209    0.1484201   7.00  0.001022419    1.338    0.253
       205 -11.6896     80.0962    208.4193   1.3458820120e+02   2.1383934820e+01    0.3379618    0.1939781  64.85  0.001707341    1.748    0.428
       206 -10.7844    149.7432    206.8092   1.1968681156e+02   9.6590788384e+00     0.246617    0.1785834  36.26  0.001144239    1.369    0.269
       207  -9.7780    154.3314    214.6624   1.2001802306e+02   7.2724358090e+00    0.1432965    0.1030314  73.55 0.0007052009    1.738    0.425
       208 -11.3327    213.2551    200.8837   1.0560289588e+02  -1.3419213951e+00    0.3822887     0.300895  66.28  0.002048005    1.731    0.422
       209 -10.1334     80.6171    201.7972   1.3366658103e+02   2.2740762707e+01    0.1864857    0.1130479 -80.93 0.0009417836    1.691    0.409
       210 -11.9200     41.5122    201.0077   1.4156783459e+02   2.8217242106e+01    0.2508921    0.1548682 -87.32  0.001476802    1.395    0.283
       211 -13.6161     39.4652    195.1940   1.4141230774e+02   2.9727210030e+01    0.8794178    0.4426229  58.86  0.004324568    1.911    0.477
       212 -11.9388    178.6666    195.6757   1.1159877042e+02   6.2236179044e+00    0.2427994     0.137022 -36.89  0.001058371    2.025    0.506
       213 -10.5251    107.5193    193.0602   1.2663121169e+02   2.0295522276e+01    0.2075203    0.1332366 -60.22  0.001024954    1.574    0.365
       214 -10.4227     81.3064    193.4169   1.3243394880e+02   2.4492190095e+01    0.2348503    0.1272573  37.83  0.001118064    1.967    0.492
       215 -12.5538    211.2025    189.4644   1.0376934485e+02   1.0263325814e+00    0.3806492     0.277514 -33.01   0.00199548    1.397    0.284
