#   1 NUMBER                 Running object number                                     
#   2 MAG_AUTO               Kron-like elliptical aperture magnitude                    [mag]
#   3 X_IMAGE                Object position along x                                    [pixel]
#   4 Y_IMAGE                Object position along y                                    [pixel]
#   5 X_WORLD                Barycenter position along world x axis                     [deg]
#   6 Y_WORLD                Barycenter position along world y axis                     [deg]
#   7 A_WORLD                Profile RMS along major axis (world units)                 [deg]
#   8 B_WORLD                Profile RMS along minor axis (world units)                 [deg]
#   9 THETA_WORLD            Position angle (CCW/world-x)                               [deg]
#  10 FWHM_WORLD             FWHM assuming a gaussian core                              [deg]
#  11 ELONGATION             A_IMAGE/B_IMAGE                                           
#  12 ELLIPTICITY            1 - B_IMAGE/A_IMAGE                                       
         1 -13.6049    217.6352     46.8135   2.8535226060e+00   2.5111839739e+01     1.040735    0.7622747  43.78  0.001297429    1.765    0.433
         2 -12.1975    248.4136     27.6023   3.5611255937e+02   2.1280882862e+01    0.6101978     0.512007 -10.51  0.004299728    1.530    0.346
         3 -12.2113    243.8127     21.9781   3.5516598891e+02   2.2760853517e+01     0.625874    0.5151634  25.39  0.004251825    1.820    0.451
         4  -9.0508      2.3958      1.8001   5.7020895384e+01   7.9805722655e+01    0.1722328   0.09333379 -44.40 0.0006693184    1.587    0.370
         5  -9.8689    185.2155    240.2639   4.7296973239e+01   1.8027178404e+00    0.2447486    0.1367605 -40.46  0.001345747    2.158    0.537
         6  -9.5561     75.0169    249.4202   7.0738933195e+01   1.4172624325e+01    0.3004942    0.1366404 -51.87  0.001595148    2.983    0.665
         7  -8.9637     76.3124    244.3364   7.0087796177e+01   1.4875289388e+01    0.1825089    0.1337504 -41.89 0.0006684106    1.882    0.469
         8 -13.4490     44.0467    242.2710   7.6924719330e+01   1.8886005226e+01    0.9622202    0.7326831  22.63  0.006243482    1.375    0.273
         9 -15.3242      5.7380    135.9349   8.1217203373e+01   4.6228984424e+01     9.561856     1.937843 -85.55   0.02714512    5.083    0.803
        10  -8.8790     67.7600    241.6799   7.1750197034e+01   1.6342023838e+01    0.1599618    0.1559971 -38.51 0.0008088918    1.367    0.269
        11 -10.2076     72.0127    225.2967   6.9548627608e+01   1.8809642395e+01    0.3379648    0.1703502  33.50  0.001613023    1.551    0.355
        12 -10.3972     75.7211    220.4504   6.8270718000e+01   1.9269833873e+01    0.3889179    0.2725945  73.75  0.001824187    1.632    0.387
        13 -10.6483    103.6933    238.4145   6.3630750939e+01   1.2481659006e+01    0.4770132    0.2808702 -22.21  0.002361757    2.980    0.664
        14 -12.3645    105.8959    229.2759   6.2216236313e+01   1.3739721879e+01    0.9163432    0.4031738  35.20  0.004546191    1.743    0.426
        15 -11.4572     89.3426    223.5206   6.5385548981e+01   1.6945004351e+01    0.7119788    0.5090857  84.82   0.00424666    1.806    0.446
        16  -8.7577    108.4405    239.8898   6.2750369425e+01   1.1630955285e+01    0.1482226    0.1229126 -62.82  0.001022169    1.584    0.369
        17 -11.0544     81.4429    221.0174   6.6981502657e+01   1.8434415639e+01     0.500844    0.2456773  42.09 0.0009484355    1.632    0.387
        18  -9.1618    184.8762    232.6029   4.6306594453e+01   2.8263573151e+00    0.3200048   0.06573742 -40.23  0.001182187    5.315    0.812
        19 -10.1753     72.7552    232.8926   6.9991138219e+01   1.7314344323e+01    0.2335612    0.1701427  45.34 0.0006740355    1.113    0.101
        20 -12.3254    126.7709    229.5829   5.7664823758e+01   1.0893889850e+01    0.6332365    0.3856358  26.10  0.003647337    1.360    0.265
        21 -10.7362     43.0296    230.0034   7.6492232157e+01   2.1258410492e+01     0.305846    0.2691254 -78.68  0.001819782    1.392    0.282
        22 -11.3713    147.5064    228.5180   5.3134151525e+01   8.2640234090e+00    0.4044651    0.1615796  35.21  0.001938237    2.013    0.503
        23 -10.8422     47.1210    229.2537   7.5526966857e+01   2.0956815040e+01    0.2508223     0.183663  60.87 0.0008356599    1.231    0.188
        24  -9.4862    164.4738    226.4923   4.9401237486e+01   6.2937049231e+00    0.1222131   0.09575534  17.55  0.000126298    1.016    0.016
        25 -10.1492    174.9752    223.3353   4.6880829607e+01   5.3542264047e+00     0.219029    0.1256785  23.04 0.0007322296    1.473    0.321
        26 -11.7953     97.9349    223.9835   6.3459073159e+01   1.5729769906e+01    0.5842367    0.5162799  60.73   0.00194456    1.244    0.196
        27  -9.8923     67.1447    221.2825   7.0353981360e+01   2.0171535636e+01    0.1924559    0.1615603  69.25 0.0003778113    1.235    0.190
        28  -8.7631    118.4998    221.5084   5.8522923636e+01   1.3376648551e+01    0.1290895    0.1037899  30.38 0.0001642081    1.010    0.010
        29  -8.8996    165.0363    218.0000   4.8085289098e+01   7.4707719982e+00    0.2084932   0.05901556  33.58 0.0003071085    2.968    0.663
        30  -9.0175    111.9951    214.7966   5.9195292957e+01   1.5473779115e+01    0.1782454    0.1342487  64.43 0.0007573197    1.629    0.386
        31  -9.6562     96.0960    211.6450   6.2560615336e+01   1.8276287672e+01    0.3210799    0.1944267 -68.67  0.001695693    2.088    0.521
        32  -8.5172    102.4678    211.4654   6.1026639512e+01   1.7427263572e+01    0.1325709    0.1090976  35.05 4.356585e-05    1.004    0.004
        33  -9.7427    211.3132    198.7290   3.6275671915e+01   3.9521688286e+00    0.2369694     0.158146  17.67  0.000817115    1.320    0.242
        34  -9.9997    194.2077    197.0126   3.9081042489e+01   6.5204261256e+00    0.3446207    0.1804397 -56.44   0.00131739    4.938    0.798
        35 -11.4865     68.0372    191.8884   6.7459759545e+01   2.6138258116e+01    0.5089457    0.2750574  75.80  0.001844972    2.495    0.599
        36  -9.7014     55.4206    193.9291   7.0956420556e+01   2.7268434192e+01    0.2982817    0.2175127  72.62 0.0009833649    1.371    0.271
        37  -9.4282     52.8138    190.2067   7.1317047996e+01   2.8410355061e+01    0.2143615      0.15954  71.10 0.0004121985    1.309    0.236
        38 -10.9228     74.3514    190.8583   6.5693685630e+01   2.5528532499e+01     0.278639    0.2281795 -82.10 0.0008523296    1.347    0.258
        39  -9.2154    207.4585    189.7157   3.5417445767e+01   5.7199772236e+00    0.1662003     0.100782 -21.38  0.000941343    1.580    0.367
        40 -10.2768     63.9576    182.4288   6.7566300242e+01   2.8793508942e+01    0.3599219    0.2251605 -82.85  0.001514242    1.804    0.446
        41  -9.0700     60.4362    179.4291   6.8218875401e+01   2.9938608841e+01    0.2909878    0.2359273 -75.91 7.790106e-05    1.316    0.240
        42  -9.9290    116.1459    181.4654   5.3619784693e+01   2.1332317017e+01    0.2362792    0.1876434  27.02   0.00040772    1.160    0.138
        43  -9.6920     99.9723    181.2503   5.7741541034e+01   2.3920914215e+01    0.2182054    0.2033648 -42.40  0.000223356    1.214    0.176
        44  -9.7737     81.0048    180.2355   6.2664460644e+01   2.6967502156e+01    0.2044564    0.1888702  67.00 0.0004685257    1.098    0.090
        45  -9.5352    174.7259    179.9645   3.9935499230e+01   1.2096190302e+01    0.2677026     0.209744 -43.74 0.0009937026    1.461    0.316
        46 -11.0182    179.3366    166.6680   3.6523786270e+01   1.3591221989e+01    0.7211576    0.4730996 -23.98  0.003762942    1.590    0.371
        47 -10.5195    171.9923    175.3630   3.9663596546e+01   1.3314258261e+01      0.36859    0.2835546  18.59    0.0010817    1.206    0.171
        48 -10.2169    173.4980    171.4617   3.8627363000e+01   1.3737802761e+01    0.2728975     0.221345  51.87  0.001193199    1.527    0.345
        49 -12.9562     86.8593    161.3736   5.8384337494e+01   3.0462109945e+01     3.093825     1.428265  58.26   0.01057103    3.202    0.688
        50 -11.2867     66.7910    126.0523   5.8772698895e+01   4.2406382338e+01      1.14562    0.6489283 -75.44  0.004662848    2.037    0.509
        51 -10.6547     76.2928    133.6796   5.6969199583e+01   3.8968252056e+01    0.5888712    0.3631551 -50.02 0.0001692377    1.712    0.416
        52 -11.8465     57.2704    141.0422   6.4454884899e+01   3.9838612761e+01    0.9002172    0.6918869 -18.42  0.001646224    1.709    0.415
        53 -11.8421     62.8461    161.5358   6.5468310889e+01   3.3910017004e+01    0.6876948    0.4749529 -20.52   0.00318124    2.139    0.532
        54 -11.6757     67.6727    157.6499   6.3507035911e+01   3.4208189446e+01    0.4625818    0.4441201 -53.14  0.001319459    1.169    0.145
        55 -12.8647     70.1774    145.0465   6.0879888138e+01   3.7006987996e+01    0.8886562    0.5720756  70.71  0.003732834    1.859    0.462
        56 -12.7569     64.3569    145.6597   6.2829017129e+01   3.7685338370e+01    0.7195253    0.5188892   8.79 0.0008136388    1.736    0.424
        57  -9.9293    110.6547    167.3068   5.2754041419e+01   2.5246686828e+01    0.3202701    0.2492122  68.81 0.0009585739    1.533    0.348
        58 -11.8581    237.9943    161.6085   2.5314406094e+01   5.3843000721e+00    0.4569431    0.2970316   8.19  0.002765608    1.651    0.394
        59  -9.0893    129.3205    162.9845   4.7155600189e+01   2.2967058689e+01    0.1945256    0.1791933 -46.64 0.0004316583    1.179    0.152
        60 -11.5479     92.7265    156.0408   5.5832348304e+01   3.0791168183e+01    0.8199597    0.4687872  84.96  0.002469864    3.312    0.698
        61  -9.8846    126.8019    157.4431   4.6757509794e+01   2.4586562344e+01    0.3458807    0.2540009  66.58 0.0009173015    1.778    0.438
        62 -11.0036     43.8546    156.3917   7.0648551223e+01   3.7550609048e+01    0.4933722    0.2391711  55.79  0.001380437    2.091    0.522
        63 -14.1543     18.8529    236.1518   8.2067419084e+01   2.2532262028e+01     0.711042     0.447575 -67.67  0.003771056    1.977    0.494
        64 -10.2945     78.8254    168.5696   6.1733578353e+01   2.9973485867e+01    0.4698648    0.2721726  78.37  0.001530704    2.506    0.601
        65 -10.0976     30.6526    153.4697   7.4467063122e+01   3.9692626502e+01    0.4471081    0.2350547  27.94  0.001266987    1.830    0.454
        66  -9.5133    122.8679    149.6704   4.6272449502e+01   2.6988751237e+01    0.3202958    0.2089891 -73.15  0.001046886    2.245    0.555
        67 -10.6949    134.0083    147.0013   4.2841405527e+01   2.5487276489e+01    0.9380332    0.2620423 -53.46  0.002547568    4.847    0.794
        68  -9.1393     44.6723    149.5860   6.9649445875e+01   3.9189753508e+01    0.2462912    0.1637711  52.60  0.000216463    1.406    0.289
        69  -9.1036    114.9982    148.2771   4.8120119327e+01   2.8741274077e+01    0.2034662    0.1810976  33.91 0.0002377237    1.067    0.063
        70 -11.3997     83.7813    145.5328   5.6707541892e+01   3.4789168596e+01    0.6657645    0.4965383  -6.01  0.001095354    1.853    0.460
        71 -10.8849     82.1554    140.8966   5.6396125597e+01   3.6204466811e+01    0.3688128    0.2804021  33.46 0.0004428434    1.280    0.219
        72 -10.5065    108.9642    145.3730   4.9231232030e+01   3.0502321515e+01    0.3055432    0.2599601  45.34 0.0006488675    1.119    0.107
        73 -10.4223     36.8119    142.4468   7.1413054040e+01   4.1905912329e+01    0.3031305    0.2247877 -87.93 0.0008388761    1.299    0.230
        74  -9.2020     27.2445    142.6268   7.4592943712e+01   4.2807599446e+01    0.2518262    0.2208309  14.18  0.001266054    1.300    0.231
        75 -12.3862     56.8198    125.0993   6.2114075333e+01   4.4081823668e+01     1.784199    0.8887423  86.79  0.003070747    3.329    0.700
        76  -9.4965    146.0320    141.4792   3.8701014049e+01   2.4335490310e+01     0.220558    0.1415433  41.08 0.0003655238    1.515    0.340
        77 -12.1752     76.7896    150.5056   5.9677764863e+01   3.4650073209e+01     1.396451    0.5031791 -46.90  0.001046166    3.443    0.710
        78  -9.0792     37.7435    137.2576   7.0517104455e+01   4.3167275709e+01    0.2935154    0.1415414  49.70  0.001222384    2.025    0.506
        79 -11.4215    103.5468    131.8824   4.8038043219e+01   3.4680662469e+01    0.9707625    0.6034499  15.68  0.003201797    2.372    0.578
        80 -11.6120     86.7717    132.1757   5.3288770074e+01   3.7618612140e+01    0.2953168    0.2796774 -57.70 0.0003878003    1.104    0.094
        81  -9.0756     18.8724    133.8655   7.6639133997e+01   4.5824644921e+01    0.2319719    0.1335424  58.93 0.0009974864    1.666    0.400
        82 -10.1887     44.6880    130.8802   6.7303157556e+01   4.4079011791e+01    0.3787492    0.3379947  44.40  0.001992573    1.105    0.095
        83  -8.6828    140.5367    130.0025   3.7470797135e+01   2.7809125463e+01     0.198653    0.1350252 -73.16 0.0004392284    2.273    0.560
        84  -9.8157    136.0000    129.5032   3.8497367296e+01   2.8837524247e+01    0.3368384   0.08705676 -46.55 0.0009378516    3.960    0.747
        85 -10.3540     33.6134    127.3927   7.0790444800e+01   4.6212618517e+01    0.4530825    0.2168325  54.00  0.001846689    2.190    0.543
        86 -10.0311     35.0114    124.0548   6.9865152111e+01   4.6963668483e+01    0.3136356    0.2500296  12.34 0.0003482038    1.425    0.298
        87 -15.8699      5.1208    230.7198   8.4840724289e+01   2.4786758556e+01     1.577656    0.6658126 -84.40  0.008729561    2.488    0.598
        88  -9.5061    133.4413    122.3334   3.7458097838e+01   3.0908026159e+01    0.4243886    0.2334191  62.06  0.001490251    2.793    0.642
        89 -10.0408    135.0000    118.5459   3.6127818713e+01   3.1395413962e+01    0.4447175   0.08804482 -45.48  0.001071915    5.123    0.805
        90 -10.6276     45.9092    121.9389   6.5556605489e+01   4.6319303350e+01     0.467534    0.2477501  52.46  0.001569051    1.999    0.500
        91  -9.9969     96.9959    121.4628   4.7747572508e+01   3.8433077772e+01    0.2919161    0.2711358   2.32  0.001493642    1.190    0.160
        92  -9.5733    109.8353    126.5018   4.4982818463e+01   3.4756468336e+01    0.3211899    0.2434569 -23.89  0.001049899    1.651    0.394
        93  -8.6302    106.3485    120.8315   4.4708208108e+01   3.6781391023e+01    0.2148778    0.1418745 -40.74 0.0003347284    1.655    0.396
        94 -14.6268     55.5652    233.2119   7.3872535786e+01   1.9271641384e+01     4.338437     2.118914 -52.07    0.0207669    2.798    0.643
        95 -10.3462     59.8882    121.1500   6.0318767811e+01   4.4701277313e+01    0.3057441    0.2448992  59.62 0.0002793184    1.254    0.202
        96  -9.5537    106.7234    116.1548   4.3470509051e+01   3.7816433981e+01    0.2519293    0.2417178  72.87 0.0003774116    1.046    0.044
        97  -9.5646     24.6435    116.4380   7.2812600585e+01   4.9988235782e+01    0.3441328    0.1774385  43.13  0.001529112    1.886    0.470
        98 -11.0241    243.7506    114.2585   1.5149579975e+01   1.1042194696e+01    0.2531512     0.185647 -62.48  0.001079827    1.859    0.462
        99 -10.8176     52.9067    109.6589   6.0777346984e+01   4.8718768390e+01    0.4621444    0.2648148 -62.35  0.001554262    1.678    0.404
       100 -10.4195     52.1101    103.8423   5.9934712082e+01   5.0375961225e+01     0.292488    0.2291051 -85.11  0.001079326    1.334    0.250
       101 -10.7863     33.6706    110.4438   6.8493016968e+01   5.0765669920e+01    0.5242324    0.3398294 -88.59  0.001911413    1.588    0.370
       102  -9.4879     28.6202    108.0905   7.0177288004e+01   5.1887647027e+01    0.2665465    0.1731929  43.55 0.0005666234    1.537    0.349
       103 -11.1306     23.5691    104.6448   7.1769899767e+01   5.3259584680e+01    0.4702508     0.293196  48.42  0.001811409    1.631    0.387
       104  -9.8861    138.3101    111.6508   3.3542269568e+01   3.2146851429e+01    0.3545444    0.2051699 -49.65 0.0006853344    1.801    0.445
       105  -9.5556     19.6229    108.3279   7.3836713267e+01   5.2579803743e+01     0.274933    0.1709364  60.05  0.001030895    1.651    0.394
       106  -9.9408    114.8424    108.2307   3.9029790311e+01   3.7979720233e+01    0.2224975    0.1922956  -2.48 0.0008185971    1.378    0.274
       107  -9.9430    134.4140    105.3989   3.2891180322e+01   3.4323386876e+01    0.4828854    0.2272299 -59.04  0.001436106    3.355    0.702
       108 -10.3824    114.0346    103.9909   3.8136392876e+01   3.9117788120e+01    0.3297238    0.2380699  60.16  0.000848069    1.532    0.347
       109  -9.6078     68.2099    103.8043   5.3628370716e+01   4.7993399936e+01    0.3720228    0.2085581   2.07  0.001097586    4.284    0.767
       110  -9.8792     46.4627    103.7349   6.2194819116e+01   5.1136098391e+01    0.2894416    0.2166436  60.01 0.0005214852    1.412    0.292
       111  -8.9390     88.1132    101.0975   4.5688725954e+01   4.5133191867e+01    0.2473284    0.1876983  78.45 0.0007055206    1.652    0.395
       112  -9.4442    110.7363     99.8381   3.7982305811e+01   4.0774848952e+01    0.2981701    0.2218017 -71.98  0.001306278    1.649    0.394
       113  -9.1962     58.9348     98.8208   5.6095103764e+01   5.0735830141e+01    0.2633041      0.15488  54.11 0.0007489817    1.955    0.489
       114 -11.8104     45.6465     94.3362   6.0623511736e+01   5.3745983937e+01    0.6768603    0.4607858  54.83  0.001948928    1.605    0.377
       115  -9.8471     23.1147     93.0449   7.0304522941e+01   5.6424173056e+01    0.3488657    0.2302524   2.15  0.001269227    1.804    0.446
       116  -8.5044    144.9064     92.6379   2.6795113011e+01   3.4524578495e+01    0.2132449    0.1442242  64.77 0.0006585018    1.695    0.410
       117  -8.8680     77.0351     90.7077   4.6885463644e+01   4.9785900397e+01    0.2169759     0.196447  39.75 0.0003906433    1.102    0.092
       118 -10.6146     51.5573     90.2073   5.7137613336e+01   5.4052888505e+01    0.3071426    0.2211977  56.37  0.001100719    1.530    0.347
       119 -10.6709     24.5753     86.6044   6.8580809527e+01   5.8029433831e+01    0.3232789     0.270298 -45.91 0.0006316995    1.189    0.159
       120  -8.2149    162.2916     87.6999   2.1646377608e+01   3.1389665711e+01    0.1505286    0.1148278 -71.43 0.0003278115    1.565    0.361
       121  -9.2729     73.4506     87.0435   4.7230388083e+01   5.1345271004e+01    0.2736013    0.2093297  57.03  0.000569544    1.415    0.293
       122  -9.3808     20.2678     97.5885   7.2215896156e+01   5.5425367136e+01     0.185278    0.1360775  -4.22 0.0009509287    1.608    0.378
       123 -10.3068    116.2773     79.0827   3.0128811031e+01   4.4033548602e+01    0.3818784    0.2769298 -85.16  0.001086352    1.926    0.481
       124  -9.8227     60.3669     77.5176   4.9866201604e+01   5.5957994794e+01    0.2819959    0.2730394 -61.21 0.0006336258    1.027    0.026
       125  -8.6512    132.4975     77.5197   2.5298193232e+01   4.0435056334e+01    0.1601806    0.1465581 -82.32 4.817922e-05    1.125    0.111
       126  -9.4687     39.2112     76.3942   5.9385202919e+01   5.9239037175e+01    0.2022825    0.1289152  39.13   0.00062933    1.622    0.384
       127  -9.5502    143.9202     71.1160   2.0634677874e+01   3.8804978210e+01    0.4240858    0.2480447 -65.26  0.001563733    2.477    0.596
       128  -9.4816     30.4727     71.5501   6.2570930004e+01   6.1449508779e+01     0.306484    0.1346898 -66.61  0.001211873    2.178    0.541
       129 -12.2022    195.0746     61.9374   9.2278732477e+00   2.7986873748e+01    0.6618655    0.5530163 -10.85  0.000862375    1.414    0.293
       130 -12.9633    207.5485     54.0747   5.6913343785e+00   2.6319982512e+01     0.973685    0.8258207 -35.57  0.003249127    1.142    0.125
       131  -8.2653    114.0000    249.0231   6.2477118501e+01   9.4873368047e+00    0.1477198   0.06941851 -57.47 0.0004970558    2.840    0.648
       132 -10.7529     21.1749     52.6138   6.2837121071e+01   6.7093828122e+01    0.2716784    0.2255242 -28.88 0.0002303953    1.170    0.146
       133  -8.9330    139.6671     66.3226   2.0060824334e+01   4.0718291597e+01    0.1630502    0.1174988 -74.24 0.0007050182    1.704    0.413
       134 -15.4240     39.7737    178.1613   7.3847066093e+01   3.2678262375e+01     6.759281     3.389769  27.20   0.03178987    1.881    0.468
       135 -16.8772      5.9004    218.4855   8.4365561990e+01   2.7103398014e+01     3.443973     1.932538  41.09   0.01430955    1.339    0.253
       136 -14.9881     10.1083    206.3365   8.3036101280e+01   2.9236180205e+01    0.8575984    0.5716935  16.25  0.002900606    1.717    0.418
       137 -11.2708     22.3784     33.6263   5.5439305749e+01   7.1441026550e+01    0.3692009    0.2578886  24.66 0.0009360577    1.462    0.316
       138 -10.1647     82.9946    245.8598   6.8766495464e+01   1.3818009192e+01    0.1721745    0.1448259  42.69 0.0003117596    1.130    0.115
       139  -9.5024    147.0203    243.0199   5.5039760240e+01   6.1900246350e+00    0.1812594    0.1368712  28.07 0.0005011271    1.104    0.094
       140  -9.8476      2.1954     22.4320   6.7237390169e+01   7.5463521313e+01    0.2054398     0.142856 -69.16 0.0008574468    1.432    0.302
       141  -9.5179     61.0677     21.2017   2.5614873139e+01   6.7392154177e+01    0.2875088    0.2138106  59.03 0.0008098389    1.438    0.305
       142  -9.1539    189.5069     15.0510   3.5714933195e+02   3.5209257938e+01    0.1933805    0.1218548 -30.87 0.0007087021    1.555    0.357
       143  -8.6624    108.9910     11.5173   6.0239686350e+00   5.6604396709e+01    0.2045025    0.1128298 -79.26 0.0007586694    2.387    0.581
