#   1 NUMBER                 Running object number                                     
#   2 MAG_AUTO               Kron-like elliptical aperture magnitude                    [mag]
#   3 X_IMAGE                Object position along x                                    [pixel]
#   4 Y_IMAGE                Object position along y                                    [pixel]
#   5 X_WORLD                Barycenter position along world x axis                     [deg]
#   6 Y_WORLD                Barycenter position along world y axis                     [deg]
#   7 A_WORLD                Profile RMS along major axis (world units)                 [deg]
#   8 B_WORLD                Profile RMS along minor axis (world units)                 [deg]
#   9 THETA_WORLD            Position angle (CCW/world-x)                               [deg]
#  10 FWHM_WORLD             FWHM assuming a gaussian core                              [deg]
#  11 ELONGATION             A_IMAGE/B_IMAGE                                           
#  12 ELLIPTICITY            1 - B_IMAGE/A_IMAGE                                       
         1 -14.9690      6.4944     70.8308   9.4712522850e+01   6.1592750401e+01     1.269832    0.6930685 -49.75   0.00638356    1.456    0.313
         2 -12.2164    194.7755     23.2369   2.7400437457e+01   3.4270356158e+01     0.517095    0.3030951 -30.88  0.002969975    2.033    0.508
         3 -13.8162    188.5534     25.2200   2.8486852862e+01   3.5373373813e+01     1.543122    0.5245256 -58.99  0.005442684    4.570    0.781
         4 -13.8737    187.6958     11.1048   2.5501134922e+01   3.7055975800e+01    0.9239314    0.5294985 -49.90  0.005592105    1.681    0.405
         5 -13.3580    120.6999     25.7610   3.8702240901e+01   5.0508015965e+01    0.9088848    0.5669461  39.12  0.004911297    1.654    0.396
         6 -14.6990    166.3943     28.2620   3.1880333493e+01   3.9897718263e+01     1.239138    0.8199381  81.29  0.006873183    1.414    0.293
         7 -14.3157    120.7694     36.8228   4.2077622468e+01   4.9253232599e+01     1.560823    0.5541143  53.86  0.006363298    2.358    0.576
         8 -14.6704    147.0638     30.0469   3.5191767231e+01   4.4067574098e+01     1.397649    0.6303877  65.58   0.00649165    1.989    0.497
         9 -12.9343     45.1930     33.3226   6.4429739341e+01   6.4416097577e+01     0.709144    0.4609493  35.75  0.004139045    1.479    0.324
        10 -13.5287      2.7898     10.2374   7.5989796324e+01   7.2640043440e+01     0.659869    0.4495081 -34.32  0.003963606    1.509    0.337
        11 -13.1431      7.9171      2.5592   6.9151730491e+01   7.3112600518e+01    0.6323756    0.3441159  37.62  0.003819464    2.292    0.564
        12 -15.9703     12.9258     21.0042   7.4997191768e+01   7.0184132903e+01     1.883577    0.9896128 -16.62  0.008668877    1.883    0.469
        13 -13.8763     25.1383     13.3518   6.5064993341e+01   6.9796353544e+01    0.8087425    0.2385104  37.95  0.003519642    3.195    0.687
        14 -12.8040    223.5345     20.6340   2.4276782846e+01   2.8722497174e+01    0.3037557    0.2641721  73.75  0.002063608    1.373    0.272
        15 -14.6680    217.6529     13.2592   2.3347866546e+01   3.0687638452e+01     1.107256    0.9112055 -37.95  0.007216568    1.510    0.338
        16 -13.3196     86.2527     14.5524   4.2833758071e+01   5.9063822392e+01    0.6656466    0.4511934 -60.18  0.003640723    2.360    0.576
        17 -15.3085     98.9539     11.1011   3.8551930195e+01   5.6680897605e+01     1.527413    0.7319975  60.82  0.007127451    1.775    0.437
        18 -12.4978     70.1196     15.8919   4.7991104877e+01   6.2164217747e+01    0.3422164    0.3167571  59.38  0.001896757    1.351    0.260
        19 -12.4177     59.2332     16.0653   5.1716318229e+01   6.4173146648e+01    0.3613218    0.2862997  43.47  0.002397249    1.259    0.206
        20 -12.1225     46.8441     12.8228   5.5009420806e+01   6.6641807342e+01    0.2792694    0.2095203  37.78  0.001340374    1.265    0.210
        21 -13.9040     42.0551      4.3170   5.3076972131e+01   6.8253411144e+01    0.6491328    0.4372954  25.87  0.003473583    1.163    0.140
        22 -11.5262     74.9188      8.2178   4.3530710816e+01   6.1914980252e+01    0.3228756    0.1664529  -8.45  0.001129341    2.533    0.605
        23 -11.0808    168.3082      9.3288   2.7100980291e+01   4.1420950797e+01    0.1152827   0.08131346  46.52  0.000307351    1.660    0.398
        24 -10.9349     59.2596      7.7899   4.8218451300e+01   6.4951357635e+01    0.2407507    0.1101998  33.21  0.001045689    2.011    0.503
        25 -12.5236    119.5346      3.0750   3.2036678530e+01   5.2810619461e+01    0.4871398    0.2523849  85.35  0.002361048    2.403    0.584
        26 -10.8470     66.9386      3.7376   4.4071870045e+01   6.3841155214e+01     0.168725    0.1265681  44.79 0.0005138996    1.105    0.095
        27 -12.6523    153.0817      8.6174   2.8726565296e+01   4.4858642301e+01    0.2579506    0.2195537  67.45 0.0008325355    1.124    0.110
        28 -13.2227     55.5080     26.9716   5.7619034314e+01   6.3603968402e+01    0.6592641    0.3707535  38.21  0.003618584    1.540    0.350
        29 -11.2661    169.4184      1.5074   2.5170282654e+01   4.1884117181e+01    0.2470731   0.09395438  71.68  0.001014255    2.150    0.535
        30 -11.4301     81.1431      1.4876   3.9298644871e+01   6.1179544559e+01    0.4973246   0.06840625  57.18  0.001636464    4.392    0.772
        31 -11.4700     61.3099      1.4608   4.4860691463e+01   6.5090485184e+01     0.316646   0.09407316  53.62  0.001363798    2.748    0.636
        32 -11.0234    233.0255      1.6789   2.0177797514e+01   2.8950544736e+01    0.1547864    0.1073024 -85.94  0.001104982    1.150    0.131
        33 -11.2108      1.9459    159.1540   1.0998711894e+02   4.0363259716e+01    0.3152128    0.1512128 -68.07  0.001516303    1.676    0.403
        34 -12.6728    109.4867    249.1779   9.3258629281e+01   6.2041971342e+00    0.4278314    0.2673407  40.18  0.002245393    1.436    0.304
        35 -12.9967     57.4526    246.4567   1.0464007612e+02   1.3735568111e+01    0.6584541    0.2190076  30.88  0.002656644    2.798    0.643
        36 -12.5598      2.8244    249.1708   1.1611421387e+02   1.9059539641e+01    0.4529988    0.2763063  82.73  0.002684698    1.420    0.296
        37 -13.6389      9.5246    245.3396   1.1460030437e+02   1.9231917794e+01    0.8026239    0.4355464  60.59  0.003529406    1.594    0.372
        38 -11.8862     76.9676    156.6834   8.7436697740e+01   3.3128632457e+01    0.4200394    0.3325934  17.37  0.001159585    1.383    0.277
        39 -13.1257     73.6439    153.0928   8.7761075665e+01   3.4554031918e+01    0.7430172     0.538114  14.43   0.00279516    1.587    0.370
        40 -11.8781      7.5563    144.6367   1.0682365468e+02   4.3714899036e+01    0.4722727     0.242618 -30.44  0.002150297    2.388    0.581
        41 -12.2401     60.7044    147.1209   9.0648419162e+01   3.7901601874e+01    0.4403786    0.3192335  -6.03  0.002064729    1.709    0.415
        42 -11.8089    244.4142    147.2110   4.6583334195e+01   5.5076162720e+00    0.1947511    0.1017922 -48.86  0.000959887    1.716    0.417
        43 -11.3808    103.3694    149.9276   7.8196540860e+01   3.0595263146e+01    0.4097549    0.2541524 -33.29  0.001654623    1.858    0.462
        44 -12.5439    246.2410    134.7325   4.3903196666e+01   7.4239018408e+00    0.3216399    0.2073302 -78.52    0.0015223    2.844    0.648
        45 -12.0878     45.0669    132.8601   9.3051829497e+01   4.3512372556e+01    0.5758305    0.3312835 -78.64  0.002397678    2.167    0.539
        46 -11.5487    136.2337    132.7333   6.5067595519e+01   2.8511378808e+01    0.3243735    0.2186369  45.25 0.0003028962    1.542    0.351
        47 -12.5688     84.5059    114.8328   7.5768011824e+01   4.2511224880e+01    0.8221762     0.350428  30.40  0.002911319    2.576    0.612
        48 -12.0998     78.4987    110.1636   7.6566798768e+01   4.4609235378e+01    0.4620672     0.352047  82.38  0.001992366    2.003    0.501
        49 -14.0407    108.8092    121.1289   6.9796192153e+01   3.6628622643e+01     1.389956     1.125499   1.73  0.006637094    1.425    0.298
        50 -14.3400    106.2466    105.8976   6.6550872115e+01   4.0576165449e+01     1.920807      1.18859 -31.48  0.008091035    1.822    0.451
        51 -13.6178     95.6577    110.2677   7.0987025730e+01   4.1608840531e+01     1.035567     0.874346  56.90  0.005204848    1.371    0.270
        52 -11.9426      4.1048    119.4597   1.0467606072e+02   5.0311498647e+01    0.4883929    0.1437969  15.52  0.001836059    3.891    0.743
        53 -12.4515     49.8212     98.6886   8.3866113516e+01   5.1416048752e+01    0.8192747    0.4492264  10.03  0.003455524    2.293    0.564
        54 -12.2060     49.2408     93.2214   8.2669005631e+01   5.2742120689e+01    0.4388371    0.3760025   1.42  0.002504174    1.143    0.125
        55 -11.6638     35.5671     86.4850   8.6292597301e+01   5.5815415429e+01    0.3287163     0.232014 -19.33 0.0005753391    1.386    0.279
        56 -12.6923     42.3465     90.5127   8.4637945892e+01   5.4175071635e+01    0.3646681    0.2797307 -61.45 0.0001503174    1.438    0.305
        57 -14.7460     24.9397     93.5326   9.2274149341e+01   5.5200998787e+01     1.354254     1.145765 -16.31   0.00822835    1.141    0.124
        58 -14.8689     16.0405    107.5317   9.8532769617e+01   5.2529232556e+01     1.450254     1.067873  73.34  0.007767444    1.789    0.441
        59 -13.5161      2.4234     97.2176   1.0179644483e+02   5.5824845853e+01    0.8265887    0.3017409 -70.40  0.003373682    2.610    0.617
        60 -11.1086    121.9396    112.2154   6.3722344131e+01   3.6038799401e+01     0.266879    0.2218772 -39.95 0.0005970588    1.190    0.160
        61 -12.1150     63.4247    110.1685   8.1780368314e+01   4.6901383616e+01    0.5474436    0.3878402 -67.94  0.002579219    1.674    0.403
        62 -11.2974    177.3225    110.3313   5.0186113250e+01   2.4693718557e+01    0.1463759    0.1167374  -0.10 0.0007049803    1.700    0.412
        63 -11.5462     42.0635    106.9218   8.8751779711e+01   5.0362977333e+01    0.3061482    0.1981923  12.14  0.001032316    1.709    0.415
        64 -11.9644    136.2740    102.8471   5.7452113083e+01   3.5002241171e+01    0.5452942    0.2442233  48.13  0.001833817    2.266    0.559
        65 -11.7492    120.9492    101.3489   6.1077288401e+01   3.8566365539e+01    0.3169628    0.2285742 -35.10  0.001479627    1.430    0.301
        66 -12.0483     60.8680     97.5479   7.9451439076e+01   5.0213960297e+01    0.3996989    0.3269725  69.68  0.002045003    1.720    0.419
        67 -11.4145     89.8636     97.4748   6.9338113200e+01   4.5512748173e+01    0.3093083    0.2470725 -82.27  0.001428988    1.799    0.444
        68 -12.4606    136.3258     94.8809   5.5301265181e+01   3.6577682310e+01    0.4930578    0.3454522  50.68   0.00233547    1.431    0.301
        69 -11.6248    134.9084    125.5387   6.3647246330e+01   3.0414115930e+01    0.3132305    0.2712416 -36.13 0.0009390257    1.137    0.120
        70 -12.1910    188.4881     84.1382   4.1975967811e+01   2.7087085277e+01    0.5662383    0.2392461  42.74  0.002102489    3.274    0.695
        71 -11.8641    158.8007     65.1004   4.2458053907e+01   3.6727404030e+01    0.6650993    0.2440434 -49.11  0.002380257    3.200    0.688
        72 -13.3292    164.0453     71.4466   4.3126143416e+01   3.4546484020e+01      1.34851    0.4886968  50.89  0.005080184    2.700    0.630
        73 -14.0935    169.5703     76.8474   4.3480067882e+01   3.2431207032e+01     1.091108    0.4763008  52.44  0.004493849    2.260    0.558
        74 -11.8522    158.2011     83.4088   4.7335888501e+01   3.3848692173e+01    0.3307331    0.2483683  64.54 0.0008126296    1.371    0.270
        75 -12.8327    161.2657     80.0690   4.5862669929e+01   3.3741410384e+01    0.5916815    0.3621685  38.78  0.002261441    1.950    0.487
        76 -13.3926     65.2547     52.0544   6.3505680271e+01   5.8423041032e+01     1.161389    0.6893408 -20.90  0.005656417    1.929    0.482
        77 -13.6813     54.3761     67.5934   7.3079390284e+01   5.7412357525e+01     1.837079    0.7410231  31.04  0.007508911    2.461    0.594
        78 -13.4888     87.2092     65.0972   6.0311832861e+01   5.2292709876e+01    0.9943047    0.5907186  14.94  0.004113177    2.494    0.599
        79 -13.4681     91.6239     57.9326   5.6543914799e+01   5.2600838973e+01    0.5374503     0.478625  15.24  0.003025424    1.053    0.050
        80 -13.0104     54.7160     81.6557   7.7309035408e+01   5.4550872007e+01    0.5784648    0.4291557 -53.86  0.003059187    1.479    0.324
        81 -14.0736     61.2493     75.6074   7.2945525724e+01   5.4841593129e+01    0.7320791    0.4755763 -21.55  0.001296259    1.674    0.403
        82 -13.1413     71.2760     74.9207   6.8988628211e+01   5.3379394661e+01    0.5967529    0.4060469   6.04  0.002867875    1.732    0.423
        83 -12.3812     77.2487     72.9185   6.6219134917e+01   5.2733774645e+01    0.5140321    0.3129037 -24.04  0.001591325    1.916    0.478
        84 -12.7192    237.6555     80.4890   3.4425578120e+01   1.7939580897e+01    0.3636086    0.2069719  88.34  0.001809031    2.484    0.597
        85 -12.8137    211.9575     77.6509   3.7036914422e+01   2.3290463698e+01    0.6474124    0.3640233  83.99  0.002963554    2.513    0.602
        86 -12.5382    135.7578     79.8283   5.1295305732e+01   3.9497874282e+01    0.6049393    0.3349488  46.79  0.001902147    1.756    0.431
        87 -11.8116    114.0006     79.8174   5.6864181032e+01   4.4247410930e+01    0.3839666     0.330047 -36.67  0.001434471    1.202    0.168
        88 -11.5192     42.5084     79.4706   8.1545548302e+01   5.6574906487e+01     0.286148    0.1790421 -37.45  0.001073479    1.443    0.307
        89 -11.2090     41.6241     76.1742   8.0951438209e+01   5.7372194122e+01    0.2388855    0.1828398 -38.66 0.0006563154    1.192    0.161
        90 -13.3161     28.4595    245.7376   1.1078066611e+02   1.7228696130e+01    0.4790303    0.3371639  69.57   0.00289244    1.255    0.203
        91 -13.9939      4.5266     63.5965   9.3810048559e+01   6.3232035639e+01    0.5629122    0.5100278 -25.75  0.003661808    1.204    0.169
        92 -12.1451     36.7857     92.8410   8.7422779188e+01   5.4249418557e+01    0.4061666    0.2432479  10.23  0.001371756    1.848    0.459
        93 -12.4592    214.6128     71.2727   3.5337280658e+01   2.3753932733e+01    0.2939651    0.2304291  80.92  0.001360708    1.279    0.218
        94 -13.4863    199.3926     69.7829   3.7043100687e+01   2.7097831458e+01    0.6861925    0.4057857  51.06  0.002911301    1.880    0.468
        95 -11.4005    117.8387     72.2053   5.3564048689e+01   4.4769450192e+01    0.2367339    0.2222501  41.40 0.0004885953    1.021    0.020
        96 -12.6156    134.7432     66.1978   4.7680879138e+01   4.2009721255e+01    0.7825056    0.5014206  27.23  0.003510213    2.130    0.531
        97 -11.8770     25.0240     58.8873   8.2928631617e+01   6.2614903637e+01    0.5162778    0.2763353 -41.96  0.002195544    1.616    0.381
        98 -11.3519     31.7658     65.0171   8.1802204064e+01   6.0738203092e+01    0.2292398    0.2080998 -39.68  0.001469929    1.275    0.215
        99 -11.9644     30.8355     60.9876   8.0950427007e+01   6.1623153891e+01    0.3156733    0.2822308 -42.53  0.002020431    1.316    0.240
       100 -11.6059     99.9213     65.1673   5.6391144475e+01   4.9748128902e+01      0.27694    0.2433787 -83.78  0.001533284    1.486    0.327
       101 -12.6305    200.2146     61.3759   3.5066990604e+01   2.8189531345e+01    0.2455034    0.2260516 -89.94 0.0009255894    1.127    0.113
       102 -12.6158     79.1582     60.6143   6.1504835961e+01   5.4565882535e+01    0.4789473    0.3659175  19.25  0.001984982    1.271    0.213
       103 -13.1344     82.3012     54.2090   5.8261048737e+01   5.5006070925e+01    0.7795414    0.5010648  14.54  0.003727863    1.928    0.481
       104 -13.5628    177.8313     56.8550   3.7193034444e+01   3.3682051583e+01    0.8347589    0.4989653 -53.04  0.003546018    1.690    0.408
       105 -11.1240    111.5292     58.9662   5.1184383874e+01   4.8283260165e+01    0.2232113    0.2017804   0.24 0.0005386749    1.168    0.144
       106 -14.6229    120.4632     54.5609   4.7574948475e+01   4.6977576182e+01    0.9430455    0.6146915  46.93  0.002154186    1.410    0.291
       107 -11.1177     39.2109     60.1176   7.6955839751e+01   6.0835779731e+01    0.2409723    0.1717153  51.11  0.001260708    2.163    0.538
       108 -11.4196     17.6656     55.3903   8.5278444394e+01   6.3951315051e+01    0.3102009    0.1731019 -51.01    0.0016704    1.708    0.415
       109 -12.5589    247.7153     51.6567   2.7970731369e+01   2.0319201710e+01    0.5074823    0.2505545 -40.62  0.002878032    1.843    0.457
       110 -13.7075    103.0491     50.2519   5.0678142461e+01   5.1388825162e+01    0.9931996    0.5675451 -51.97  0.002704898    2.412    0.585
       111 -13.2924     98.0059     50.0217   5.2010986947e+01   5.2483659368e+01    0.5260834    0.3914449 -50.86  0.001999769    1.665    0.399
       112 -11.5038     37.1990     53.5873   7.5622028421e+01   6.2272226793e+01    0.3314799    0.1884223  20.77  0.001721695    1.704    0.413
       113 -11.2077     38.4558     50.4960   7.3968691064e+01   6.2658592601e+01    0.2996904     0.146641  26.40  0.001454635    1.965    0.491
       114 -11.7477    136.2944     49.4719   4.2564384767e+01   4.4122529516e+01    0.2554691    0.2322009  55.04 0.0006571038    1.044    0.042
       115 -10.6472     23.5366     49.9687   8.0696183931e+01   6.4427117995e+01    0.1774374    0.1076685 -41.25  0.000476968    1.487    0.327
       116 -13.0887    157.1766     44.3663   3.7333686232e+01   4.0035400604e+01    0.7896562    0.4858456  38.78  0.003918407    2.035    0.509
       117 -12.7097      4.0569     43.2968   8.8205487009e+01   6.7235084574e+01    0.5075457     0.318361 -10.95  0.003132974    1.406    0.289
       118 -12.0936     11.6538     43.5060   8.4363315445e+01   6.6648608974e+01    0.4161524    0.2100629  -2.99  0.002120323    2.135    0.532
       119 -14.3752    212.7098     41.0781   2.9282165064e+01   2.8399797928e+01     1.900691    0.5963405  74.33   0.00695957    4.247    0.765
       120 -13.4522    171.8505    242.3008   7.8286657995e+01  -1.4157256928e+00    0.4279817    0.3491473  33.59  0.002576937    1.313    0.239
       121 -13.8800     97.7281    238.9462   9.4667152342e+01   9.9859149186e+00    0.7635096    0.5259676  30.77  0.003899355    1.343    0.256
       122 -13.9204     91.1295    231.5352   9.5281739996e+01   1.2531175085e+01    0.5992724    0.5072157 -81.94  0.003482818    1.290    0.225
       123 -11.1296    147.3298    238.6831   8.3149097702e+01   2.7853376470e+00    0.1333319    0.1043557  58.07  0.000575428    1.682    0.406
       124 -12.6303     24.6176    216.8511   1.0942318323e+02   2.4132685516e+01    0.6567896    0.3211184  56.03  0.003146427    2.023    0.506
       125 -11.4539     13.7114    222.4442   1.1228583493e+02   2.3889966671e+01     0.324674    0.1677604  83.53  0.001277367    1.913    0.477
       126 -13.8951     26.2811    226.4435   1.0981578644e+02   2.1732631022e+01    0.8582935    0.3797397 -52.87  0.003926504    2.583    0.613
       127 -13.5828    140.0425     21.3928   3.3962809785e+01   4.6583561085e+01    0.9745417    0.2778426  63.67  0.002913335    2.925    0.658
       128 -12.4493     75.9720     37.0176   5.4209707545e+01   5.8658019295e+01    0.4077166    0.2262776  42.80  0.001106649    1.580    0.367
       129 -11.7367     70.4915     35.9995   5.5682737215e+01   5.9817797537e+01    0.2846613    0.2346767 -17.07  0.000682042    1.265    0.209
       130 -12.8730    242.1028     35.8142   2.5578995520e+01   2.3400093864e+01    0.5025946    0.2233863  73.65  0.002255504    2.269    0.559
       131 -11.2392     34.9867     34.7192   6.9564299255e+01   6.5641743599e+01    0.2195081    0.1557865  11.87 0.0004557857    1.206    0.171
       132 -13.7802     20.3739    224.0490   1.1093968824e+02   2.2879228148e+01    0.5910965    0.5198472 -82.09  0.002379594    1.152    0.132
       133 -13.6757     65.4477    223.2465   1.0043123834e+02   1.7910803181e+01     1.052871    0.7169976  45.84  0.005603141    1.371    0.271
       134 -13.8105     64.1967    214.0692   9.9670115320e+01   2.0244826155e+01    0.6054895    0.4381681  61.59  0.002649846    1.411    0.291
       135 -12.9148     59.3962    212.7850   1.0070782936e+02   2.1167258645e+01    0.4363524     0.294001 -44.76  0.001337513    1.695    0.410
       136 -12.2890     94.3371    218.0686   9.2701723558e+01   1.5123198430e+01    0.2907299    0.1986064  40.50  0.001450543    1.384    0.277
       137 -11.7135      4.5132    213.4944   1.1369443323e+02   2.6786784949e+01    0.2486537    0.1828344  62.26  0.001567252    1.215    0.177
       138 -13.6023    216.2179     27.9674   2.6311675509e+01   2.9313917577e+01    0.4882698    0.2781623 -64.35  0.002578701    1.603    0.376
       139 -10.9510    136.6813    211.3132   8.1185538720e+01   1.0099610158e+01    0.1442989    0.1146674  65.68 0.0004828758    1.648    0.393
       140 -12.2074     63.4896     24.9635   5.3842870339e+01   6.2444783841e+01    0.4666012    0.2775412  18.85  0.002038767    1.832    0.454
       141 -13.3185    132.2717     32.6919   3.8517997758e+01   4.7136400238e+01    0.5590761    0.4182536  52.17  0.001769639    1.208    0.172
       142 -11.3950     88.7243     25.9464   4.6295339972e+01   5.7424925265e+01    0.2787446    0.1724301 -21.95  0.001524684    1.857    0.461
       143 -11.7488     31.1116     25.2778   6.7475539957e+01   6.7493134150e+01    0.3695409    0.1780124  22.38  0.001489161    2.005    0.501
       144 -11.4545     36.3444     23.3014   6.4164024316e+01   6.7043280185e+01    0.3007112    0.1774394 -26.36  0.001704234    1.673    0.402
       145 -11.1356     51.7606     20.4108   5.6348851645e+01   6.5005677421e+01    0.2682875    0.1295187  40.93   0.00100848    1.778    0.438
       146 -12.2988     46.7315     20.2393   5.8303374510e+01   6.5849365364e+01    0.3644778    0.2208784  22.57   0.00204694    1.486    0.327
       147 -11.7112     72.3747    206.9272   9.6714580552e+01   2.0893571897e+01    0.3188784    0.2965254  87.40  0.001860734    1.049    0.047
       148 -12.2440     41.2277    206.1259   1.0447135581e+02   2.4955373928e+01     0.267174    0.1743181  80.41  0.001352903    1.611    0.379
       149 -12.2173     57.5286    203.0331   1.0001812790e+02   2.3790932746e+01    0.5943052    0.2935615 -85.61  0.002282761    2.763    0.638
       150 -13.1466     16.1152    197.3414   1.0979386790e+02   2.9651524042e+01    0.8429188    0.2081942 -60.41   0.00307978    3.257    0.693
       151 -13.2130     40.2680    194.5362   1.0346179093e+02   2.7949618536e+01    0.5100629    0.2835671  84.97  0.002241114    2.137    0.532
       152 -12.4698     21.9901    166.1011   1.0513969274e+02   3.7064737485e+01    0.4316676    0.2840889  -2.00  0.001125941    2.025    0.506
       153 -13.4755     30.2359    169.2182   1.0319235750e+02   3.5500656601e+01     1.112868    0.5665331 -33.86  0.004552799    2.680    0.627
       154 -13.7656     22.1149    181.0886   1.0674712765e+02   3.3191603405e+01    0.9169493     0.400652 -59.43  0.004061809    1.999    0.500
       155 -15.2827      7.7679    183.6958   1.1068586825e+02   3.3741583875e+01     1.459738      1.11245 -75.01  0.008840903    1.131    0.116
       156 -12.3581    109.9824     41.8895   4.6163247937e+01   5.1019415748e+01    0.4730685    0.1688503  52.39  0.001245079    2.417    0.586
       157 -15.2452     15.6047    174.7656   1.0782627941e+02   3.5371370394e+01     2.167019     1.155347  63.28   0.01000567    2.143    0.533
       158 -11.8988    248.4343    195.2293   5.5003054983e+01  -3.4155862128e+00    0.3189796     0.101939 -43.40  0.001309164    2.673    0.626
       159 -11.3187    201.0697    191.8751   6.3049312667e+01   3.8115223642e+00    0.2040272     0.191761 -40.82 0.0007846592    1.254    0.202
       160 -11.7927     49.0937    181.5590   9.9522483124e+01   3.0275210087e+01    0.3805229    0.1995669 -62.85  0.001680919    1.739    0.425
       161 -12.0760    198.4655    181.2692   6.1483521261e+01   6.3134731765e+00    0.2618752    0.2459078  50.75  0.001544926    1.331    0.249
       162 -12.4242    124.2552    166.3806   7.5859616325e+01   2.2771524072e+01    0.6228924    0.4187381 -71.32  0.002570003    1.985    0.496
       163 -11.9543     24.3098    159.3679   1.0366355040e+02   3.8615750492e+01    0.3115049    0.1575727 -49.45  0.001401923    1.872    0.466
