#   1 NUMBER                 Running object number                                     
#   2 MAG_AUTO               Kron-like elliptical aperture magnitude                    [mag]
#   3 X_IMAGE                Object position along x                                    [pixel]
#   4 Y_IMAGE                Object position along y                                    [pixel]
#   5 X_WORLD                Barycenter position along world x axis                     [deg]
#   6 Y_WORLD                Barycenter position along world y axis                     [deg]
#   7 A_WORLD                Profile RMS along major axis (world units)                 [deg]
#   8 B_WORLD                Profile RMS along minor axis (world units)                 [deg]
#   9 THETA_WORLD            Position angle (CCW/world-x)                               [deg]
#  10 FWHM_WORLD             FWHM assuming a gaussian core                              [deg]
#  11 ELONGATION             A_IMAGE/B_IMAGE                                           
#  12 ELLIPTICITY            1 - B_IMAGE/A_IMAGE                                       
         1 -14.0570    224.8234     36.3659   3.2778199375e+01   2.5727858204e+01     1.699763     1.120166  36.64  0.009196592    2.523    0.604
         2 -11.5556      2.2552     24.1992   9.0962262393e+01   7.2363972167e+01    0.5586097    0.1609428 -58.25  0.002119426    4.070    0.754
         3 -12.5583      3.3866      4.3775   8.0384187559e+01   7.5570906865e+01    0.7001534    0.4730519  -5.36  0.004717872    1.234    0.190
         4 -12.8373    248.9638     15.1430   2.6695172806e+01   2.3527164388e+01    0.6228446    0.2764076 -37.84   0.00293525    1.889    0.471
         5  -9.9668    189.6769     15.2900   3.1088935309e+01   3.5727750397e+01    0.2211364    0.1611433 -66.72 0.0006894847    1.220    0.180
         6 -13.0370      9.5491    229.3791   1.1811491125e+02   2.3554846163e+01     1.433878     0.776746  84.44  0.004807986    1.693    0.409
         7 -11.3757     83.0131    216.1332   1.0058772905e+02   1.7933909860e+01    0.4988932    0.3176283 -89.88  0.002472402    2.019    0.505
         8 -14.8907    102.4581    228.7197   9.7594284559e+01   1.2612014913e+01     7.333801     1.468449  37.01   0.02389085    3.762    0.734
         9 -11.2505     57.8541    224.1668   1.0726624560e+02   1.9476668385e+01    0.5016584    0.2255762  61.62  0.002136762    2.705    0.630
        10  -9.2731     68.9221    208.3125   1.0306642258e+02   2.1552299690e+01    0.1793529    0.1575971  46.31 0.0004212296    1.063    0.059
        11  -9.3051     73.8039    207.0048   1.0172962171e+02   2.1198550424e+01    0.2119271    0.1625606  68.25 0.0006584169    1.327    0.246
        12 -10.0663    193.4821    195.4585   7.2339357252e+01   5.0628038324e+00    0.6378725    0.3306552 -61.48   0.00189185    6.472    0.845
        13  -9.3959    100.1297    179.7665   9.1184523172e+01   2.3660630765e+01    0.3622197    0.1745113 -45.18  0.001167848    2.271    0.560
        14 -13.0915     53.0561    116.9721   9.3775453376e+01   4.6513808109e+01     2.166976    0.6835209 -69.60  0.005293676    5.831    0.828
        15 -13.3020     75.1702    155.1415   9.3936421450e+01   3.3595018315e+01     1.840622     1.022837  67.70  0.001284976    2.886    0.653
        16 -13.7998     68.0167    144.1754   9.4142663990e+01   3.7449709552e+01     3.258174     1.430076  61.53  0.003708873    5.985    0.833
        17 -11.2021     67.0104    161.6892   9.7398968442e+01   3.3085063786e+01    0.2908033    0.2731611 -47.54  0.000424804    1.120    0.107
        18 -13.2380      9.1866    249.4669   1.1910043012e+02   1.9577733071e+01      2.34866    0.8542585  22.91   0.01067472    3.566    0.720
        19 -13.2142     53.0081    157.0664   1.0079298401e+02   3.6096821306e+01    0.6172778     0.490127 -57.05  0.001408802    1.227    0.185
        20 -12.5703     48.2622    176.7905   1.0473229203e+02   3.1650525040e+01     1.032223    0.5913098 -26.52  0.001266639    2.993    0.666
        21  -8.8668    133.6062    142.7885   7.5025516786e+01   2.6412970068e+01    0.2235667    0.1468273 -58.19 0.0009513462    1.694    0.410
        22 -10.7306     91.9714    142.0579   8.6448768637e+01   3.4258859833e+01    0.3530554    0.3227049 -59.07 0.0009131448    1.076    0.071
        23  -9.7798     95.4636    139.0162   8.4765851930e+01   3.4421603551e+01    0.3864396    0.2514727 -26.75  0.001163288    2.047    0.512
        24 -12.0444     33.2207    156.8196   1.0658276053e+02   3.8371750790e+01    0.4244261    0.3537115 -79.43   0.00210543    1.083    0.076
        25 -12.1021     79.2686    140.1380   8.9900148004e+01   3.6810302171e+01    0.3413843    0.2988358 -45.55   0.00060801    1.136    0.120
        26 -11.2472     67.8593    131.8284   9.1831892959e+01   4.0663668129e+01    0.7899102    0.1760711 -57.92  0.002195484    3.956    0.747
        27  -9.0823    111.0021    167.9598   8.6220883174e+01   2.4665757290e+01    0.2295655    0.1783883  70.86 0.0004218337    1.583    0.368
        28 -10.7096     91.9838    127.1749   8.3168810036e+01   3.7971728721e+01    0.3159214    0.2665341 -27.98 0.0005093383    1.268    0.212
        29  -9.5196    114.3278    124.4801   7.5888308859e+01   3.4454414157e+01    0.3863903    0.2330538   6.98   0.00122545    3.591    0.722
        30  -9.0439    137.2524    134.1082   7.2070746206e+01   2.7656102805e+01    0.2181542    0.1923106 -44.76 0.0003708658    1.113    0.102
        31 -11.3881     45.7066    223.0793   1.0991663994e+02   2.1148502261e+01    0.5230824    0.2334406  80.16  0.002152978    3.165    0.684
        32 -10.8083     27.6946    121.4799   1.0348541851e+02   4.8098886823e+01    0.2658733    0.2162791  67.32 0.0009543779    1.336    0.252
        33  -9.8259    103.9450    119.2215   7.7601655704e+01   3.7713009312e+01    0.2411666    0.2174027 -47.49 0.0003226317    1.087    0.080
        34 -11.8337     55.0909    171.0775   1.0213930566e+02   3.2259521514e+01    0.3487281    0.2811303 -38.50 0.0004956117    1.425    0.298
        35 -11.2027     13.9570    114.4839   1.0725325346e+02   5.1006144930e+01     0.323478    0.2116408 -19.01  0.001670829    1.850    0.459
        36 -10.7974    105.6957    130.9257   7.9928330385e+01   3.4569029194e+01    0.4219827     0.358144   5.85   0.00115856    1.342    0.255
        37  -9.7292    204.9716    110.6592   5.2267890770e+01   1.8479299353e+01    0.3531791    0.2360067  34.10  0.001465394    1.878    0.468
        38  -8.6185     65.6503    104.3230   8.6393081820e+01   4.7950368223e+01    0.1537486    0.1167691  71.60 -2.664081e-05    1.748    0.428
        39 -11.3305     53.1230     92.1977   8.7938161452e+01   5.2687023699e+01    0.6500016    0.3093666 -55.45  0.002170801    1.967    0.492
        40 -10.1959     41.8443     92.2655   9.2393557390e+01   5.4081996853e+01    0.2655683    0.1882857 -49.56 0.0005529867    1.264    0.209
        41 -10.5380    163.2143     85.0954   5.3383371519e+01   3.2025713070e+01    0.3745824    0.2234125  33.14   0.00152756    2.317    0.568
        42  -9.0666     76.6696     82.9848   7.6431651451e+01   5.1126781798e+01    0.2084683    0.1841758 -43.73 0.0004678615    1.123    0.109
        43  -8.8521    184.5007     77.4521   4.7535445220e+01   2.8510461833e+01    0.1386411    0.1323092 -53.07 3.010568e-05    1.066    0.062
        44 -11.1050     13.2648     60.5686   9.6887429195e+01   6.4180329936e+01    0.4058318    0.1852617 -49.49  0.001238576    1.757    0.431
        45 -12.1090    205.6691     51.1122   3.8072009250e+01   2.7813316980e+01    0.8496618    0.3793192 -48.11  0.003881331    2.031    0.508
        46 -14.5546     35.7187    248.5174   1.1384392926e+02   1.7069068663e+01     5.630367     1.678254  21.62   0.01526447    8.706    0.885
        47 -12.3801      3.1441     49.4910   9.9064178721e+01   6.7252525442e+01    0.7771809    0.3814702 -73.54  0.003605669    2.583    0.613
        48 -11.8952      9.0592     41.8773   9.3443163873e+01   6.8464995064e+01     0.981267    0.3433466  40.25  0.003593317    4.796    0.791
        49  -8.5919     94.7005     46.3523   5.7642245666e+01   5.4384614702e+01    0.1400367    0.1123025 -73.80 0.0007037015    1.695    0.410
        50  -8.8847    121.5536     29.7046   4.4859633444e+01   5.0388566383e+01     0.180739    0.1240789 -45.02 0.0009296489    1.588    0.370
        51 -10.5673      8.7835     27.4061   8.8142044986e+01   7.1278274884e+01    0.1691892    0.1007708   0.74 0.0009555456    1.683    0.406
        52 -11.3058     41.0860    214.3281   1.1025247236e+02   2.3586085574e+01    0.3190906    0.1926167  65.68  0.001420151    1.611    0.379
        53 -14.3056     12.7939    205.0548   1.1608106179e+02   2.8541862217e+01     1.131495    0.9112698  -4.30  0.006648783    1.753    0.430
        54 -15.9284     24.7125    195.4586   1.1261113871e+02   2.9638311690e+01     9.088526     2.949064 -88.67   0.02946124    4.434    0.774
