#   1 NUMBER                 Running object number                                     
#   2 MAG_AUTO               Kron-like elliptical aperture magnitude                    [mag]
#   3 X_IMAGE                Object position along x                                    [pixel]
#   4 Y_IMAGE                Object position along y                                    [pixel]
#   5 X_WORLD                Barycenter position along world x axis                     [deg]
#   6 Y_WORLD                Barycenter position along world y axis                     [deg]
#   7 A_WORLD                Profile RMS along major axis (world units)                 [deg]
#   8 B_WORLD                Profile RMS along minor axis (world units)                 [deg]
#   9 THETA_WORLD            Position angle (CCW/world-x)                               [deg]
#  10 FWHM_WORLD             FWHM assuming a gaussian core                              [deg]
#  11 ELONGATION             A_IMAGE/B_IMAGE                                           
#  12 ELLIPTICITY            1 - B_IMAGE/A_IMAGE                                       
         1 -11.6825      7.9959      5.5206   6.0782186923e+01   8.0075643705e+01     1.324972    0.7877903  17.23  0.006956235    1.782    0.439
         2  -8.3522     97.9108      2.4047   1.5726875262e+01   6.0130862631e+01    0.2155342    0.1699056 -53.88 0.0004691534    1.251    0.201
         3  -8.4433     24.1720    244.0577   9.3103939193e+01   1.8807819191e+01    0.1614811    0.1474222  20.86 0.0004451635    1.271    0.213
         4 -14.2285    225.0028    240.1138   5.1906384140e+01  -1.0156874952e+00     4.169546     1.450403  21.59   0.02312568    2.872    0.652
         5  -8.9478     99.3214    250.3416   7.6588810644e+01   1.0122900247e+01    0.2074738    0.1259234  23.24  0.001081073    1.315    0.239
         6 -10.1501     42.2951    241.4936   8.8807671005e+01   1.7608192257e+01    0.2983652    0.2428586   9.71  0.002014859    1.342    0.255
         7 -11.0501     36.8147    200.9167   8.7768794594e+01   2.6712137069e+01    0.3951963    0.3574856 -32.69  0.002468815    1.359    0.264
         8  -9.3445    114.9824    200.3707   6.7397215428e+01   1.7325024453e+01    0.2144817    0.1866665 -39.48 0.0001912873    1.237    0.192
         9  -7.5293    121.2840    198.2975   6.5619670016e+01   1.6888579013e+01     0.130046   0.09542724 -11.71 0.0001918581    1.546    0.353
        10 -10.3896     43.1246    197.1476   8.5770656102e+01   2.6933252832e+01    0.2582836    0.1970381  67.30  0.001466371    1.274    0.215
        11  -7.9613     58.4759    183.7743   8.0238460532e+01   2.8376436228e+01    0.1797948    0.1292671 -54.22 0.0003897306    1.546    0.353
        12  -7.4668    203.7323    180.9864   4.6318552143e+01   9.0067782303e+00    0.1406788   0.08687512 -34.47 0.0003752972    1.392    0.282
        13 -11.2321     68.3421    168.3013   7.5520171691e+01   3.0933330853e+01    0.5355099    0.3918033 -34.08  0.002620549    1.669    0.401
        14 -10.2459    131.8055    248.4494   6.9575108253e+01   6.9513639876e+00    0.3880682    0.2147075  37.33  0.002313464    1.720    0.419
        15  -8.9373    130.5569    156.5675   5.6496985944e+01   2.4099430902e+01    0.3067636    0.2292034 -23.70  0.001248994    1.524    0.344
        16  -8.7257     14.0000    149.0013   9.1276037014e+01   4.2073009114e+01    0.2363262   0.07726293 -80.73 0.0008020294    2.940    0.660
        17 -10.7769     14.9134    139.0360   9.0241940715e+01   4.4760098775e+01     0.609364    0.2690588 -17.11  0.001924208    4.285    0.767
        18 -11.2231     26.6791    135.7359   8.5577210629e+01   4.4651523155e+01    0.7053964     0.339036  74.91  0.002650365    2.405    0.584
        19 -11.5575     50.8824    129.6264   7.5710016239e+01   4.3582652726e+01     1.121596    0.5216087  61.94  0.003707919    3.000    0.667
        20 -12.1236     45.4615    131.8981   7.8071441477e+01   4.3649853090e+01    0.9727765    0.4526059  34.32  0.003797733    1.987    0.497
        21 -10.9124     56.2387    127.2105   7.3326295882e+01   4.3514270436e+01    0.7642948    0.2489314  47.78  0.002244451    3.496    0.714
        22 -11.2011     38.9152    126.4040   7.9755577729e+01   4.5984174013e+01    0.5282615    0.3481819 -69.08 0.0003536649    1.469    0.319
        23  -8.3824      2.0043    133.5096   9.4685095607e+01   4.7203971389e+01    0.1948134    0.1061131 -28.27 0.0005633549    2.421    0.587
        24 -11.1198     52.1789    120.8038   7.3718409793e+01   4.5859735783e+01    0.4360726     0.327834  68.38  0.002045769    1.391    0.281
        25  -8.9188      8.3173    126.3294   9.1811248287e+01   4.8822128918e+01    0.1517332    0.1004419 -45.48 0.0004914522    1.683    0.406
        26 -11.6174     60.5736    114.0567   6.9183349738e+01   4.6486132071e+01    0.5891324    0.4116964  -5.96  0.002441965    2.112    0.526
        27  -8.3967     90.9900    118.9991   5.9595698756e+01   3.9954505713e+01    0.1869394    0.1794704  73.59 0.0003199559    1.013    0.013
        28 -11.6326     74.4186    112.1297   6.3618663466e+01   4.4716434733e+01    0.6178867    0.3696244 -56.85  0.002577466    1.647    0.393
        29  -8.7401     47.6518    111.3130   7.3754435505e+01   4.9131408520e+01    0.1706184    0.1098598  61.61            0    1.718    0.418
        30  -7.8518    186.1276    102.8980   3.3626135524e+01   2.4561784534e+01     0.166806      0.14514 -20.34   0.00100803    1.245    0.197
        31  -9.8828     91.8417    106.4487   5.6261447897e+01   4.2926836309e+01    0.2669417    0.1858295 -49.98 0.0006410957    1.437    0.304
        32  -9.1890    113.0285     95.7861   4.7007955452e+01   4.1038964749e+01    0.2087328    0.2021887  89.15 0.0002934854    1.044    0.042
        33  -9.4179     75.4927     94.4896   5.8762984523e+01   4.9087693925e+01    0.1587018    0.1511237  84.66 -9.311664e-05    1.004    0.004
        34 -10.2954     49.0117     92.5231   6.9111434009e+01   5.4126559202e+01    0.3161778    0.2209537 -87.13  0.001390574    1.638    0.390
        35 -11.4321     83.3123     87.6330   5.3941157081e+01   4.9239333468e+01    0.6766627    0.3717051  64.84  0.002325252    2.776    0.640
        36  -9.7897     68.0446     92.4942   6.1076781418e+01   5.0979731100e+01    0.2471882    0.1553625  37.00  0.001038888    1.609    0.379
        37 -10.1276     56.2707     91.7705   6.5741974236e+01   5.3197388250e+01    0.2862124    0.1975356 -65.88  0.001275866    1.455    0.312
        38 -11.7999     92.8972     83.1905   4.9320503365e+01   4.8257997955e+01     0.805355    0.4165101  63.02  0.002754468    2.769    0.639
        39 -10.7216     82.0618     92.0057   5.5666491954e+01   4.8428383115e+01    0.4235722    0.2728513 -72.14  0.001380617    1.906    0.475
        40 -11.4034     85.7780     80.2904   5.0804377170e+01   5.0456034563e+01    0.5366487     0.367191 -37.30  0.001623577    1.674    0.402
        41 -11.2915     75.1006     71.8525   5.1922499034e+01   5.4654207029e+01    0.6649427     0.406557  78.32  0.002325341    2.948    0.661
        42 -10.3034     66.3680     75.7292   5.6737254109e+01   5.5492781767e+01    0.2879972    0.2029729 -45.44  0.001302443    1.475    0.322
        43  -8.5511    108.3294     70.6591   4.0643643675e+01   4.7442495911e+01    0.1644946    0.1168567 -80.15 0.0007051511    1.742    0.426
        44 -10.0447    101.4800     72.9903   4.3364177785e+01   4.8562670872e+01    0.3420576    0.1936127  68.91  0.001265483    2.399    0.583
        45 -11.0350     84.6084     64.2060   4.5709863472e+01   5.4267506238e+01    0.4217967    0.3062456  54.06  0.001693889    1.355    0.262
        46  -8.8664    135.9852     62.0132   3.1410407299e+01   4.2437553279e+01    0.2198184    0.1995745 -68.26   0.00122011    1.026    0.025
        47  -9.6118    117.3313     61.1623   3.5160423276e+01   4.7101217380e+01    0.2152829    0.1929146  61.73 0.0009382575    1.153    0.133
        48  -8.3713     96.6637     56.3464   3.8919500593e+01   5.3012206683e+01    0.1639496    0.1151206 -78.99  0.000632807    1.775    0.437
        49 -11.3056    244.8194     52.5637   1.6169258486e+01   2.1574652462e+01    0.3609737    0.2878985  -2.05  0.002519539    1.888    0.470
        50  -9.7200    224.1494     51.7031   1.7507416014e+01   2.5197679856e+01    0.1932256    0.1265406 -64.31  0.001209982    1.432    0.302
        51  -7.9935    174.6520     44.1355   2.0318678226e+01   3.6167269393e+01     0.182699    0.1450494 -46.34 0.0003696055    1.131    0.116
        52  -7.6358    212.9933     14.3384   9.7732872285e+00   3.1728793595e+01     0.154578    0.1165056 -58.64  0.000452228    1.050    0.047
        53  -8.8922     84.6871    245.0568   7.9343657024e+01   1.2584489198e+01    0.1999909    0.1151078 -78.77  0.001098005    2.524    0.604
