#   1 NUMBER                 Running object number                                     
#   2 MAG_AUTO               Kron-like elliptical aperture magnitude                    [mag]
#   3 X_IMAGE                Object position along x                                    [pixel]
#   4 Y_IMAGE                Object position along y                                    [pixel]
#   5 X_WORLD                Barycenter position along world x axis                     [deg]
#   6 Y_WORLD                Barycenter position along world y axis                     [deg]
#   7 A_WORLD                Profile RMS along major axis (world units)                 [deg]
#   8 B_WORLD                Profile RMS along minor axis (world units)                 [deg]
#   9 THETA_WORLD            Position angle (CCW/world-x)                               [deg]
#  10 FWHM_WORLD             FWHM assuming a gaussian core                              [deg]
#  11 ELONGATION             A_IMAGE/B_IMAGE                                           
#  12 ELLIPTICITY            1 - B_IMAGE/A_IMAGE                                       
         1 -12.3030    159.3574     31.1506   2.0595113445e+01   4.0522936855e+01    0.2519867    0.2224282  74.64 0.0003028807    1.061    0.057
         2 -13.2398     83.9355     23.9309   3.5178012850e+01   6.0836288340e+01    0.4464411    0.3166869 -56.18 0.0006419301    1.831    0.454
         3 -11.7167    117.0993     10.7474   2.0602205248e+01   5.3909037600e+01    0.2294296    0.2089419   7.81 0.0002502267    1.239    0.193
         4 -11.3926     55.6523     10.6164   3.9888526432e+01   6.8987371471e+01    0.2395085    0.2051664   4.52   0.00081372    1.150    0.130
         5 -12.2619     81.8026      8.8625   2.8550056028e+01   6.3243045407e+01    0.3327064    0.1870661  58.19 0.0008901206    1.582    0.368
         6 -13.2497     90.2316      5.1359   2.4235402404e+01   6.1512852050e+01    0.5123827    0.3442952 -82.65  0.002407766    1.977    0.494
         7 -10.7186     48.5920      7.7828   4.1832663442e+01   7.0798215197e+01    0.1661992    0.1263332 -39.82 0.0002966675    1.510    0.338
         8 -10.9631    114.1015      6.8539   1.9591842529e+01   5.5082817608e+01     0.204445    0.1775293 -89.09 0.0002758517    1.164    0.141
         9 -11.2063    106.6528      4.0826   1.9897636168e+01   5.7320811101e+01     0.188717    0.1761847  43.02 0.0004902288    1.107    0.097
        10 -11.2118      5.1746      3.3681   7.2508649445e+01   7.7539741231e+01    0.2036623    0.1373676 -42.92 0.0004866369    1.298    0.230
        11 -11.3552    100.9314      2.0049   2.0179698693e+01   5.9019104654e+01    0.2238292    0.1910851  64.50 0.0006976794    1.037    0.036
        12 -11.2537     49.8732      1.9773   3.7486437350e+01   7.1310191798e+01    0.1987672    0.1736576  23.52 0.0003789595    1.024    0.023
        13 -11.1628    124.8283    249.2655   7.3861818783e+01   1.1157665868e+01    0.1553678    0.1091097  13.36 0.0006268762    1.355    0.262
        14 -12.6619    246.7301    248.2120   5.1784293212e+01  -3.0328438508e+00    0.2995054    0.1632192  26.26   0.00101478    1.495    0.331
        15 -11.8611    237.1857    249.3302   5.3409283059e+01  -2.1545430407e+00    0.2399089    0.1485015  17.38   0.00111966    1.150    0.131
        16 -11.6959    114.9999    249.7650   7.5911825704e+01   1.2301688342e+01     0.173376    0.1690967   0.94  0.001430884    1.393    0.282
        17 -12.4798    115.1830    244.8536   7.5405395028e+01   1.2973543560e+01    0.2139413    0.1956066   6.96 0.0009083235    1.307    0.235
        18 -14.4420    117.8028    237.1185   7.4083094624e+01   1.3765222090e+01    0.5789775    0.4412017  18.39  0.003278046    1.185    0.156
        19 -13.5931    111.7177    234.7460   7.5135368256e+01   1.4898208780e+01    0.4429148    0.2708775  24.13  0.002276486    1.352    0.260
        20 -11.9895     97.1072    249.5187   7.9575756129e+01   1.4502201274e+01    0.2825368   0.09446084  40.45  0.001108905    2.190    0.543
        21 -10.7548     80.6677    246.3201   8.2756570832e+01   1.6908379956e+01    0.1647028   0.08176038  39.59 0.0006486663    1.457    0.314
        22 -11.9594     85.0257    250.5858   8.2164590311e+01   1.5761018557e+01    0.1913562   0.09837133  34.01 0.0003501652    1.358    0.264
        23 -12.7699     85.3412    246.2448   8.1768601758e+01   1.6378431043e+01    0.3014433    0.1847929  41.29  0.000900528    1.255    0.203
        24 -13.6883     67.2473    246.4071   8.5582007104e+01   1.8405587736e+01    0.4735167    0.3111634 -47.55  0.003191263    2.156    0.536
        25 -12.6840     70.0590    248.6624   8.5141007371e+01   1.7744910132e+01    0.2215558    0.1921023  31.26  0.000567768    1.220    0.180
        26 -12.8068     56.7359    250.5926   8.8018447791e+01   1.8881138176e+01    0.2885746    0.1334244  33.20  0.001042567    1.508    0.337
        27 -13.2136     51.5994    250.3365   8.9060743354e+01   1.9454027188e+01    0.3195465    0.1830115  27.21  0.002094555    1.422    0.297
        28 -14.4608      8.0397    187.5543   9.6058703838e+01   3.4829332018e+01    0.9212618    0.8840063 -27.13  0.007094073    1.345    0.256
        29 -12.4055     21.6974    198.6334   9.3164307426e+01   3.1501304836e+01     0.872094    0.3137115  82.60  0.003838497    3.424    0.708
        30 -15.2246      4.0895    208.3539   9.7620694659e+01   3.1067867818e+01     1.750655    0.6968238 -84.25  0.009486542    2.647    0.622
        31 -13.2442     32.9949    234.6414   9.2203443923e+01   2.3861883801e+01    0.7851163    0.3548368  35.66  0.004692933    1.551    0.355
        32 -13.6855     34.3802    242.3714   9.2242714691e+01   2.2439298329e+01    0.4824361    0.3637512  17.23  0.003579448    1.453    0.312
        33 -14.9522     26.2380    248.0435   9.4126930988e+01   2.2277434825e+01     1.618263    0.4159553  24.25   0.00693564    3.626    0.724
        34 -15.0504     19.8476    213.5166   9.4223631627e+01   2.8818694654e+01     1.416508     0.611002  80.59  0.007536789    2.571    0.611
        35 -13.7714     26.6676    234.7987   9.3553457396e+01   2.4425505290e+01    0.5343348    0.1970024  88.76  0.002712024    3.431    0.709
        36 -16.9615     15.7778    239.2348   9.5969453986e+01   2.4643522751e+01     1.553843     1.013139  30.66   0.01133261    1.277    0.217
        37 -12.0428     90.2664    238.9880   8.0135949198e+01   1.6912762114e+01    0.3894019    0.2208738 -45.85  0.002289164    2.421    0.587
        38 -10.4208     72.5325    240.4908   8.4060046615e+01   1.8751156271e+01    0.1158713   0.08636924  34.28 6.569875e-05    1.048    0.046
        39 -11.0976    147.8339    239.1996   6.8118955435e+01   9.5953839759e+00    0.1614697    0.1067941  16.11  0.000448648    1.301    0.232
        40  -9.7598     52.5491    237.7593   8.8173700530e+01   2.1381120445e+01    0.1752505    0.0999671 -61.43 0.0008702211    2.268    0.559
        41 -10.2813    190.4329    237.4191   5.9720705698e+01   4.3960091072e+00    0.1134567   0.07991143  17.05 0.0001243244    1.010    0.010
        42 -12.9702    103.0331    235.0855   7.7035888211e+01   1.5947297812e+01    0.3917099    0.2765713  62.15  0.001884643    1.771    0.435
        43 -11.7841     97.6074    235.4372   7.8240985697e+01   1.6569801021e+01    0.2541513    0.1779392 -42.74   0.00167559    1.905    0.475
        44 -10.9663     55.5025    228.4864   8.6967667610e+01   2.2633719184e+01    0.2025994   0.08807264  30.80  0.000955646    1.736    0.424
        45 -12.1932     62.1757    231.8231   8.5709571223e+01   2.1335855340e+01    0.4740049    0.4185135  22.10   0.00359644    1.259    0.206
        46 -11.6383     59.0149    230.2292   8.6301338361e+01   2.1953682013e+01    0.2777264     0.202459 -11.23  0.001384432    2.002    0.500
        47 -12.5145     71.7595    234.2917   8.3779153378e+01   1.9844703204e+01    0.3415513    0.1584893  32.21  0.001900403    1.580    0.367
        48 -10.8058     68.3803    231.2527   8.4300377283e+01   2.0735504136e+01    0.1113459   0.07998344   8.08 0.0006960083    1.657    0.396
        49 -11.0943     67.8625    224.8926   8.3945830394e+01   2.1877126500e+01    0.2341466     0.100209  46.77 0.0007410849    1.956    0.489
        50 -10.5943     64.3748    225.3057   8.4763977749e+01   2.2203254752e+01    0.1216649   0.09438682  35.26 0.0006876424    1.059    0.056
        51 -11.8151     73.7457    229.3824   8.2969773086e+01   2.0431081687e+01    0.2819196    0.2093246  -4.07   0.00180822    1.798    0.444
        52 -10.8652     70.0211    228.2233   8.3711763180e+01   2.1058607255e+01    0.1880167    0.1038792  48.92 0.0003511375    1.569    0.363
        53 -10.9397    214.0737    233.3385   5.4989723702e+01   1.9822981889e+00    0.1524524    0.1028967  17.00 0.0004389509    1.078    0.072
        54 -13.2671    219.9877    230.2279   5.3548849218e+01   1.6130414008e+00    0.2697287    0.1820428  20.64 0.0009748113    1.175    0.149
        55 -13.0591    130.6767    231.3657   7.0738791511e+01   1.2931169005e+01    0.4019713    0.1597173  30.40  0.001973223    1.925    0.481
        56 -13.8818    109.8615    214.7515   7.3401839469e+01   1.8317154689e+01    0.4495283    0.2830725 -30.50  0.002492475    2.198    0.545
        57 -14.0632    119.9530    227.7112   7.2617185001e+01   1.4896221671e+01    0.4108271    0.2643044 -59.61  0.002520896    2.186    0.543
        58 -13.8156    113.7976    218.9532   7.2990346456e+01   1.7095623463e+01    0.3278775    0.2996155 -61.04 0.0006149295    1.452    0.311
        59 -13.7934    114.4917    226.9105   7.3716675091e+01   1.5741011465e+01    0.4450846    0.2904566   7.58 0.0008691324    1.794    0.443
        60 -13.3612    106.0104    227.1403   7.5601865092e+01   1.6812650241e+01    0.3853222    0.2081179  34.67 0.0004903332    1.380    0.275
        61 -12.0105    100.4962    227.4465   7.6850557596e+01   1.7472874865e+01     0.235691    0.1440389  42.04 0.0006638499    1.355    0.262
        62 -11.2877    194.2662    229.8146   5.7985423618e+01   4.7940595563e+00    0.1748993    0.1311385 -22.64  0.001270248    1.500    0.333
        63 -12.0117    149.6820    229.5668   6.6577063658e+01   1.0655354418e+01    0.2116773    0.1394358  31.26 0.0008432668    1.177    0.150
        64 -11.2218    178.0124    228.4579   6.0828483267e+01   7.0450019716e+00    0.1631094    0.1245265  12.03  0.000267336    1.085    0.078
        65 -10.9743     83.9274    229.5162   8.0716634354e+01   1.9198136530e+01    0.1855864   0.09095631  31.55 0.0006215316    1.531    0.347
        66 -12.1148    231.8307    226.8874   5.1119130214e+01   5.8457833672e-01    0.2463094     0.160594   0.76  0.001811399    1.196    0.164
        67 -12.3059    248.5240    226.3477   4.8428659027e+01  -1.2160541174e+00    0.2018024    0.1243706 -29.44 0.0007819051    1.849    0.459
        68 -12.0712     95.9254    225.3894   7.7666865346e+01   1.8389199075e+01     0.228945    0.1529492  50.55 0.0009281669    1.470    0.320
        69 -11.5366     91.6380    225.7384   7.8659546877e+01   1.8872442744e+01    0.1784188    0.1473934  70.74 0.0005198021    1.465    0.317
        70 -12.7422     27.5667    224.7013   9.2953104775e+01   2.6096327979e+01    0.3284467    0.1662527  40.34  0.001682437    1.420    0.296
        71 -10.8698    222.2563    225.4097   5.2472953565e+01   1.8524537955e+00    0.1366955   0.08334254  30.95 0.0003241908    1.502    0.334
        72 -11.2283    212.4154    223.8361   5.3912644432e+01   3.2110797809e+00    0.1974303    0.1213654  -0.14  0.001078034    1.482    0.325
        73 -13.2050     57.5847    213.3680   8.5460861744e+01   2.5095705973e+01     1.108138    0.2752331  32.75  0.004588548    2.706    0.630
        74 -14.7745     59.5133    165.2765   8.0645098944e+01   3.4581958083e+01     1.283697    0.6271173 -79.33   0.00568728    2.583    0.613
        75 -14.3897     64.8841    155.0667   7.7869032501e+01   3.6175729937e+01    0.6218877    0.5094478 -31.94  0.002890577    1.468    0.319
        76 -15.5453     74.6891    167.5281   7.6617497827e+01   3.2148152568e+01      1.64488    0.7355382 -69.61  0.004459628    2.781    0.640
        77 -13.2867     61.8548    204.0439   8.3714800391e+01   2.6353568236e+01    0.4476109    0.3445171  63.17  0.001433987    1.304    0.233
        78 -13.8784     81.3610    195.3681   7.8067892188e+01   2.5610751772e+01     1.400013    0.6499603  70.02  0.004639798    5.418    0.815
        79 -13.0362     56.2405    176.2163   8.2686329568e+01   3.2610020490e+01    0.4982122     0.279087  54.07  0.001665255    1.736    0.424
        80 -16.0102     92.4790    183.4805   7.3855760617e+01   2.6406440899e+01     1.425756     1.132194  53.41  0.005172112    1.261    0.207
        81 -13.4142    100.2311    184.6385   7.2023706437e+01   2.5067925237e+01    0.3620436    0.2874661  16.61  0.001444968    1.256    0.204
        82 -13.3211     52.8151    188.2701   8.4680526251e+01   3.0492705942e+01    0.9693577    0.5414972 -40.18  0.003998107    2.598    0.615
        83 -13.3426     87.8242    214.2142   7.8430391963e+01   2.1317153746e+01    0.5649886    0.3925747  44.24  0.001890881    1.230    0.187
        84 -13.7601     77.4665    219.0505   8.1279663885e+01   2.1758750340e+01    0.4698143    0.2790703  58.28  0.001273931    1.817    0.450
        85 -14.0633     78.8790    212.3608   8.0353551859e+01   2.2770936109e+01     1.092929     0.271064  28.73  0.003939903    3.442    0.710
        86 -13.6302     69.3667    207.2733   8.2166543786e+01   2.4860593293e+01    0.5066177    0.3536066   4.06   0.00214041    1.820    0.451
        87 -13.8596     77.2130    202.3301   7.9804465994e+01   2.4821011610e+01    0.4958243    0.4800429  69.91  0.003533666    1.225    0.184
        88 -13.5523     90.1504    201.9823   7.6613610930e+01   2.3209852980e+01    0.5338215    0.3153386 -44.24  0.002802705    2.167    0.539
        89 -14.9105     96.5663    194.8707   7.4230065826e+01   2.3653157089e+01     1.170167    0.4718186  40.65  0.005219954    2.033    0.508
        90 -14.5775     68.8507    186.8132   8.0372954199e+01   2.8892538169e+01    0.8146213    0.6916448   7.85  0.004116173    1.324    0.245
        91 -14.3894     65.2569    180.9579   8.0723802695e+01   3.0534833409e+01    0.8331427    0.5068973 -41.58  0.003710867    2.165    0.538
        92 -12.4429    159.7406    222.1996   6.3575000139e+01   1.0307927570e+01    0.3001445    0.1636217  30.24 0.0006865012    1.407    0.289
        93 -13.6315    125.3044    221.5040   7.0743404491e+01   1.5131529195e+01    0.3630515     0.226743  32.33 0.0007677311    1.220    0.180
        94 -11.7582    237.8698    221.1033   4.9302080670e+01   4.7981613498e-01    0.1562259    0.1199421   9.90   0.00115008    1.241    0.194
        95 -11.6592    223.2184    220.3954   5.1572483179e+01   2.2717057338e+00    0.1854465    0.1374772   0.88 0.0005186642    1.123    0.110
        96 -11.2445    194.7252    220.0726   5.6512962481e+01   5.8884211782e+00    0.1617778    0.1211061  10.20 0.0004960401    1.054    0.052
        97 -11.5554    189.8069    220.1810   5.7438720994e+01   6.5204559371e+00    0.1643683    0.1061655  10.81 0.0003421407    1.333    0.250
        98 -12.0829    173.0994    219.1107   6.0483875053e+01   8.8989574523e+00    0.2092322    0.1710831 -29.75  0.001061514    1.509    0.337
        99 -11.1584    231.3523    218.6635   4.9977855637e+01   1.4864030493e+00    0.1373077    0.1185164  21.32 0.0005435036    1.632    0.387
       100 -11.9201    130.0758    218.1963   6.9302194126e+01   1.4987674109e+01    0.2036909     0.181389  82.25  0.001263046    1.621    0.383
       101 -12.0709    145.7647    215.7565   6.5609727548e+01   1.3165554185e+01     0.327217    0.2573269 -21.68  0.001760248    1.457    0.314
       102 -13.3625    141.2336    210.5035   6.5876309091e+01   1.4601539080e+01    0.4054983    0.3018005 -76.28  0.001241383    2.412    0.585
       103 -10.8552    225.5547    216.4820   5.0596494209e+01   2.4106574620e+00    0.1126559   0.07939191   7.87 7.656303e-05    1.026    0.025
       104 -12.0783    155.9681    214.2713   6.3265130672e+01   1.1944062256e+01     0.197955    0.1647672  -0.55 0.0005760922    1.214    0.176
       105 -13.4811    125.6681    213.2103   6.9654753511e+01   1.6385552669e+01    0.3863284     0.206168  32.48  0.000755935    1.453    0.312
       106 -12.8110    247.7963    212.5491   4.6468769183e+01   2.1143741160e-01    0.2431398    0.1505049  19.91  0.001077149    1.296    0.228
       107 -12.8185     97.6343    212.3170   7.5949103644e+01   2.0371627493e+01    0.5092275     0.313096  81.24  0.002570496    2.816    0.645
       108 -13.6754    101.0603    207.6257   7.4631582149e+01   2.0729283876e+01    0.9341675     0.326843  23.58  0.003324036    3.597    0.722
       109 -10.7894    210.3055    211.6826   5.2459436660e+01   4.8586184298e+00   0.09753196   0.08562165  31.75 0.0004552206    1.628    0.386
       110 -11.7821     49.6095    211.1675   8.7188398319e+01   2.6373347808e+01    0.1958586    0.1521531  17.86 0.0006038555    1.356    0.262
       111 -11.6300     47.0000    210.0284   8.7731108515e+01   2.6862921654e+01    0.1944864    0.1541505  73.40 0.0003308971    1.315    0.239
       112 -12.8934    119.4781    210.0893   7.0660059919e+01   1.7761595089e+01    0.2924194    0.1555387  20.16 0.0006815435    1.943    0.485
       113 -13.0464    123.7630    205.7012   6.9128124222e+01   1.7879528038e+01    0.3223065    0.1864545 -40.01 0.0006106298    2.143    0.533
       114 -12.0983    229.9643    208.3745   4.8624659033e+01   2.7517840957e+00    0.2169332    0.1485298 -36.96  0.001472394    1.981    0.495
       115 -10.8312     37.9417    209.4147   8.9836716617e+01   2.7903855523e+01    0.1702982   0.09273855  31.05 0.0003987846    1.479    0.324
       116 -11.6066     26.7798    208.5519   9.2414333228e+01   2.9131129532e+01    0.2891671    0.1459498  40.79  0.001122506    1.481    0.325
       117 -11.2089    181.9538    207.2512   5.7013127555e+01   9.2455616487e+00    0.2698413     0.141596  -8.91  0.001239234    2.952    0.661
       118 -11.2446    160.2181    206.4960   6.1271805663e+01   1.2460749279e+01    0.2003977    0.1718105 -73.70  0.001282284    1.971    0.493
       119 -11.4494     82.7486    205.8241   7.8804637598e+01   2.3470270212e+01    0.4081774    0.1896662  44.04  0.002026362    1.817    0.450
       120 -12.7984     42.8353    205.8728   8.8458716318e+01   2.8083144159e+01    0.2659884    0.1850957  43.04 0.0006797829    1.126    0.112
       121 -11.3318     37.2445    203.0531   8.9634207639e+01   2.9189442743e+01    0.3077934    0.1287988  40.28  0.001593518    1.777    0.437
       122 -11.5171     32.6523    206.2853   9.0916771675e+01   2.9013607966e+01    0.2158846    0.1193942  47.87 0.0006163255    1.438    0.305
       123 -12.2024     31.2118    202.8806   9.1079725755e+01   2.9806209928e+01    0.2897347    0.1276386  51.47 0.0006321561    1.902    0.474
       124 -11.2203    205.1162    206.1422   5.2519024497e+01   6.2016015452e+00    0.1721102    0.1198615   9.18 0.0002629587    1.162    0.139
       125 -12.0437    145.7857    202.0957   6.3708357978e+01   1.5241981030e+01    0.3166608    0.2150416 -47.88  0.001853516    1.869    0.465
       126 -12.1579    115.6010    203.2372   7.0695095108e+01   1.9464632812e+01    0.1562697    0.1190771 -33.86 0.0004498004    1.601    0.376
       127 -11.1434     48.9219    202.9519   8.6789064495e+01   2.8005674871e+01    0.1807321    0.1476952  44.28 0.0005317311    1.030    0.029
       128 -10.4906    189.3986    202.4398   5.4837686413e+01   8.8331498629e+00     0.120119   0.09400158  14.44 1.404684e-05    1.042    0.040
       129 -11.2678    180.4843    201.8750   5.6471190302e+01   1.0180190856e+01    0.1867175    0.1339214   9.48 0.0004108001    1.221    0.181
       130 -13.9799     40.0760    223.8543   9.0138682439e+01   2.5046690640e+01     1.549526    0.8575394  17.88  0.008929355    1.912    0.477
       131 -11.2569    212.1456    199.8895   5.0280955920e+01   6.0156350564e+00    0.1660553    0.1416088  13.65 0.0008414228    1.301    0.231
       132 -14.3068    122.8853    197.1436   6.8190675809e+01   1.9453982318e+01    0.4867083    0.3660581  14.70  0.002900825    1.293    0.227
       133 -11.8066    225.4710    198.9715   4.7865558210e+01   4.3676271961e+00    0.1606775    0.0969346 -24.17 0.0008116555    1.579    0.367
       134 -13.8155    140.0477    196.9382   6.4228561541e+01   1.6922068410e+01      0.43147    0.3141486  33.23  0.002591013    1.146    0.127
       135 -11.4666     35.7137    199.0049   8.9767118676e+01   3.0130440145e+01     0.189426    0.1369125  39.32 0.0004412628    1.113    0.101
       136 -13.3571     49.5347    183.4427   8.5136988290e+01   3.1849763771e+01    0.5514588    0.4292457 -12.80   0.00330927    1.692    0.409
       137 -12.5287    113.9088    197.1210   7.0306131269e+01   2.0774026668e+01    0.1966755    0.1526333  44.23 0.0004489174    1.228    0.186
       138 -10.8745     61.4403    197.0917   8.3231128301e+01   2.7742974593e+01     0.156513      0.12104 -87.72 0.0006129149    1.488    0.328
       139 -10.7439     30.2132    197.5656   9.1035773254e+01   3.0941316165e+01    0.1480905    0.1040624  17.83 0.0004066236    1.489    0.329
       140 -12.3360    167.9940    195.5842   5.7997069807e+01   1.2910206663e+01    0.2413525    0.1759567  25.48 0.0003504494    1.108    0.098
       141 -11.4949    152.8491    195.8236   6.1238581908e+01   1.5162415431e+01    0.1716323    0.1370296  40.63 0.0005044129    1.317    0.241
       142 -11.7694    193.2149    194.1708   5.2786673307e+01   9.3816376436e+00    0.2788232    0.1710182   3.03  0.001555523    1.760    0.432
       143 -12.2955    189.1912    193.3561   5.3417769268e+01   1.0076288074e+01     0.303082    0.2499124   6.29  0.001248643    1.098    0.089
       144 -11.6573    217.5255    193.5703   4.8317934945e+01   6.0513155155e+00    0.1997646    0.1623035  10.14  0.001436137    1.159    0.137
       145 -12.3586    243.2162    192.3032   4.3946926624e+01   2.8662574133e+00    0.3249566    0.1530745  22.17  0.001170923    2.067    0.516
       146 -11.7977    245.5691    188.5051   4.2960288878e+01   2.9871117388e+00    0.1830508    0.1331645 -11.39 6.221035e-05    1.162    0.140
       147 -12.1957    248.5159    185.5337   4.2022462647e+01   2.9436885613e+00    0.2405976    0.1645136   4.24 0.0008645006    1.164    0.141
       148 -12.2518    145.8388    194.0761   6.2510008953e+01   1.6506437964e+01    0.1939875    0.1616894  39.82   0.00061863    1.260    0.206
       149 -11.5251    162.3190    193.1396   5.8794809273e+01   1.4134251151e+01    0.3309023   0.07119419  37.74  0.001089084    3.849    0.740
       150 -13.4715    135.3127    186.6282   6.3764749550e+01   1.9372218344e+01    0.5144544    0.2181993 -38.53   0.00202218    2.990    0.666
       151 -11.5384    234.0291    190.9830   4.5163288158e+01   4.1727286484e+00    0.1922922    0.1100836   4.99  0.001141952    1.745    0.427
       152 -13.1942    110.9269    188.7094   6.9902482944e+01   2.2729140038e+01     0.311658    0.1925646 -52.80  0.001657486    1.944    0.486
       153 -12.5629     30.0378    180.5413   9.0084564664e+01   3.4434494904e+01    0.5867997    0.2605472 -46.70  0.002625616    3.218    0.689
       154 -12.4083     23.9911    181.3225   9.1719338857e+01   3.4816466022e+01    0.5405108    0.1295172  46.39  0.002140669    3.108    0.678
       155 -12.9864     31.4318    187.7912   9.0168315179e+01   3.2796901221e+01    0.4393755    0.2457966  74.71  0.001480378    1.883    0.469
       156 -11.2692     35.5281    188.4711   8.9160317166e+01   3.2263893952e+01    0.2639285    0.1974124 -76.74 0.0009228836    1.481    0.325
       157 -12.8967     26.4306    192.6254   9.1706816351e+01   3.2276302624e+01    0.4323856    0.2000952 -83.85  0.001484613    2.366    0.577
       158 -14.3931    119.0833    180.6266   6.6737496428e+01   2.2978908625e+01    0.6096025    0.3963001  56.50  0.002918883    1.906    0.475
       159 -13.7966    121.5401    187.1629   6.7103925863e+01   2.1409937913e+01    0.5191476    0.2854339  20.94  0.001923114    1.939    0.484
       160 -11.5351     36.1021    183.7687   8.8699895373e+01   3.3178831005e+01    0.2337738    0.1656234 -61.23  0.001426767    1.636    0.389
       161 -12.9776    151.6622    182.2108   5.9338715011e+01   1.7523985035e+01    0.4410138    0.2507265 -20.24  0.001347217    2.522    0.603
       162 -11.6260    166.8052    181.8139   5.5990355228e+01   1.5169478007e+01    0.2098099    0.1619766 -14.61 0.0003762885    1.338    0.253
       163 -11.9268    167.0306    178.0326   5.5294933696e+01   1.5720182024e+01    0.1967304    0.1616459  17.41  0.000300451    1.008    0.007
       164 -11.8248      4.1283    181.8127   9.6841742750e+01   3.6289643693e+01    0.2901643    0.1724741   3.40  0.001452482    2.156    0.536
       165 -12.2318    198.7312    179.8527   4.9327392731e+01   1.0491019852e+01    0.2094209     0.178649   5.25 0.0003325716    1.131    0.116
       166 -10.7442    221.5226    180.5000   4.5423678129e+01   7.0892736511e+00    0.1199965   0.09235626   5.17 0.0002098509    1.013    0.013
       167 -12.2366    192.5648    178.7340   5.0288951689e+01   1.1583854384e+01      0.29542    0.2106212 -56.69  0.001205504    2.480    0.597
       168 -13.1160    106.5175    176.0161   6.9218328879e+01   2.5796367914e+01    0.2606798    0.2401701  34.62 0.0005630989    1.097    0.089
       169 -11.1335     17.2711    179.0016   9.3355285250e+01   3.5872660480e+01    0.1621169    0.1370879  59.57 0.0004277304    1.056    0.053
       170 -12.2141    137.0816    176.4211   6.1728116820e+01   2.0865477675e+01    0.2168528    0.1841367  67.32  0.001262449    1.568    0.362
       171 -10.9289    250.6736    176.2112   4.0122724059e+01   3.6899046693e+00    0.1476798   0.08206181 -17.88 0.0002947745    1.578    0.366
       172 -10.8066      6.0361    176.4666   9.6171902287e+01   3.7265507817e+01    0.1626931    0.1002368  28.94 0.0003923007    1.461    0.316
       173 -12.6029    126.8465    173.7770   6.3759600633e+01   2.3007221763e+01     0.271861    0.2053898 -56.34  0.001512313    1.645    0.392
       174 -11.6841     40.7568    174.4285   8.6766311704e+01   3.4688728826e+01     0.287307    0.2532676  -6.85  0.001417034    1.375    0.273
       175 -11.4981     12.8827    174.4274   9.4296104760e+01   3.7188456262e+01    0.2867347    0.1503738 -50.94  0.001501487    2.409    0.585
       176 -13.0650    101.1539    171.9932   7.0027093003e+01   2.7408303592e+01    0.2948073    0.1830455 -46.74  0.001374709    1.874    0.466
       177 -12.1405     34.1340    171.8634   8.8391816497e+01   3.5901290989e+01     0.440136    0.2503154  14.74  0.002263352    1.957    0.489
       178 -11.1350     27.2245    172.7685   9.0348842169e+01   3.6348584142e+01    0.1471451    0.1367094 -37.98 0.0003723358    1.321    0.243
       179 -11.0872      2.6983    172.1473   9.6891280076e+01   3.8409029149e+01    0.1916756     0.122662  77.78 0.0005675034    1.443    0.307
       180 -11.9352    244.0280    171.9963   4.0371226013e+01   5.0235965307e+00    0.1701103    0.1311335  -0.65  0.001230267    1.024    0.023
       181 -10.8736    234.9643    171.5504   4.1676796499e+01   6.3000179877e+00    0.1669268   0.08044089  18.63 0.0008080877    2.536    0.606
       182 -13.5676    131.5659    169.5928   6.1912948763e+01   2.3000531167e+01    0.4864811    0.2605096  45.53  0.002234458    1.843    0.457
       183 -13.7806    124.7509    167.5537   6.3253527762e+01   2.4510890073e+01    0.6173729     0.273841  36.74  0.002629656    1.923    0.480
       184 -11.2141    196.6945    170.6713   4.8067468095e+01   1.2069334714e+01    0.1316756   0.08521549   4.72 0.0007036589    1.654    0.395
       185 -13.2022    152.3514    167.3826   5.6631714970e+01   1.9890098261e+01    0.4367583    0.2188121 -39.67  0.001443212    2.228    0.551
       186 -12.8971    104.5827    168.2584   6.8563598648e+01   2.7626705238e+01    0.3453168    0.2446318  80.06  0.001703667    2.095    0.523
       187 -12.5064     40.6189    167.1635   8.6210214936e+01   3.6283371134e+01    0.3544565    0.1975731  80.55  0.001457927    2.065    0.516
       188 -11.6751     24.1840    169.2516   9.0962855596e+01   3.7379691478e+01    0.2212037    0.1445623  21.66  0.001277818    1.515    0.340
       189 -10.6625     54.3513    167.2776   8.2326620530e+01   3.4756489000e+01    0.1266031   0.09904827 -14.18 0.0005910406    1.644    0.392
       190 -11.4604     10.8462    166.7746   9.4497342815e+01   3.8987854439e+01    0.2414849    0.2091617  -4.89   0.00130886    1.408    0.290
       191 -12.6215    110.8224    164.2556   6.6285819896e+01   2.7433805748e+01    0.2585512    0.2358473   4.00 0.0003212496    1.155    0.134
       192 -11.1841    205.9775    164.2958   4.5196608575e+01   1.1492764334e+01    0.1788444    0.1384666  18.44 0.0005071647    1.116    0.104
       193 -12.9194     87.7628    163.6699   7.2448549869e+01   3.1126321892e+01    0.2742523    0.2256065  57.24  0.001068375    1.241    0.194
       194 -14.0751     91.9835    161.0195   7.0884168983e+01   3.1055803094e+01    0.5130445    0.3711444  58.71  0.002692215    1.515    0.340
       195 -11.7939     46.8129    163.6563   8.4125388077e+01   3.6403717347e+01    0.2594253    0.2191057 -26.98  0.001190368    1.458    0.314
       196 -10.8551     28.5095    163.9668   8.9400917528e+01   3.8159141140e+01    0.1659859    0.1183856 -82.46 -0.0001561471    1.443    0.307
       197 -13.6954      6.7606    118.8834   9.3137193432e+01   5.0283346880e+01     1.035972    0.5154614  -2.14  0.004836902    2.566    0.610
       198 -13.8770     12.3858    106.2177   9.0089051133e+01   5.3036057644e+01    0.9099087     0.560457  62.84  0.004789175    1.666    0.400
       199 -13.0649     20.0047    160.8055   9.1619100544e+01   3.9593097803e+01    0.6004693    0.3070006  34.83   0.00253038    1.662    0.398
       200 -11.4267     14.1472    156.5416   9.3056133345e+01   4.1004315491e+01    0.2133447    0.1607945 -77.37 0.0006410254    1.354    0.262
       201 -13.3766      9.2337    146.8816   9.3985243572e+01   4.3543617461e+01    0.5693977    0.3824454 -16.78  0.003223009    1.949    0.487
       202 -14.1924     32.1611    139.0309   8.6232189202e+01   4.3551724802e+01    0.8344544    0.3656939   5.43  0.003091802    3.617    0.724
       203 -14.3883     34.6608    130.4158   8.4517468278e+01   4.5373480081e+01    0.7689659    0.4638358  52.12  0.001654793    1.625    0.385
       204 -14.7216     16.9233    125.0666   9.0066654399e+01   4.8145073358e+01     1.288487    0.5983491  26.57  0.006145032    2.022    0.505
       205 -14.6749     26.6996    152.1245   8.9061456664e+01   4.0991279468e+01    0.8797303    0.5820742  78.93  0.004953611    1.519    0.342
       206 -14.3424     18.9717    150.6860   9.1282526211e+01   4.1962165630e+01      0.67975    0.6105213  64.87  0.004166532    1.038    0.037
       207 -14.6190     13.4088    136.8627   9.2098544092e+01   4.5583198276e+01    0.8399505    0.5471013  87.48  0.004763984    1.484    0.326
       208 -14.1892      5.3152    130.3943   9.4322686296e+01   4.7622882268e+01    0.7440996     0.477009 -59.73  0.004250624    1.605    0.377
       209 -12.8764     22.9982    116.5618   8.7132224745e+01   4.9757937237e+01    0.5169587     0.338395 -43.59  0.001832409    1.680    0.405
       210 -12.7542     19.2731    113.5646   8.8195402717e+01   5.0773264771e+01    0.3188719    0.2722313 -11.82  0.001153802    1.319    0.242
       211 -12.0745      4.3257    163.2312   9.6134839888e+01   4.0217011160e+01     0.399366    0.1565241  46.57  0.001975867    2.064    0.515
       212 -11.3304      6.9959    160.2908   9.5274824864e+01   4.0681394473e+01    0.2206042    0.1689885 -47.35 0.0005456855    1.576    0.365
       213 -11.2988    242.8157    162.2184   3.8810872356e+01   6.3161894226e+00    0.1592972    0.1339305  -9.11 0.0004830865    1.195    0.164
       214 -12.0086     33.0050    162.0618   8.7971290750e+01   3.8166994476e+01    0.1890576    0.1652149  52.54  0.000344733    1.011    0.011
       215 -12.7825    169.9756    159.9988   5.1395065370e+01   1.8089449435e+01    0.2968956    0.2312908 -30.99   0.00172342    1.366    0.268
       216 -11.9190    158.9986    160.3189   5.3837781303e+01   1.9943274615e+01      0.19704    0.1531771  29.08 0.0003069318    1.122    0.109
       217 -13.4369     81.7950    156.7140   7.3135674163e+01   3.3490209267e+01    0.3750824    0.2777107 -60.38  0.001733565    1.512    0.339
       218 -13.6777     42.8246    159.6221   8.4904294561e+01   3.7732700105e+01     0.698013    0.2191911  28.63  0.002755092    2.659    0.624
       219 -10.4816    196.2819    159.6718   4.6095264009e+01   1.3695239725e+01     0.110431    0.1049448 -77.89 0.0004495941    1.603    0.376
       220 -11.1829    105.0278    158.4823   6.6891161250e+01   2.9538926036e+01    0.2235709    0.1235896  35.99 0.0005156067    1.565    0.361
       221 -12.4113    121.9167    155.9920   6.1970039725e+01   2.7214270208e+01    0.2126598    0.1868164  32.51 0.0002795504    1.032    0.031
       222 -11.9796    112.2565    156.3965   6.4587986730e+01   2.8773964895e+01     0.210977    0.1167611  42.73 0.0009480623    1.645    0.392
       223 -11.8737      1.7495    152.6384   9.6449349630e+01   4.2721226478e+01    0.3445963     0.148047  62.79  0.001217092    2.154    0.536
       224 -11.6882    141.5388    154.2915   5.6738981002e+01   2.4088652920e+01    0.2506279    0.1420178 -50.83  0.001141027    2.129    0.530
       225 -12.4788     55.0435    206.4850   8.5559350039e+01   2.6662299983e+01    0.2729207    0.1955446 -63.07  0.001101868    1.691    0.408
       226 -13.8285     49.2681    151.6702   8.2169101359e+01   3.8838186014e+01    0.5459718    0.2911812  30.50 0.0009155085    1.675    0.403
       227 -13.6266     37.0747    143.6866   8.5117126105e+01   4.1983624382e+01    0.4533951     0.293194   9.03  0.001413191    1.803    0.445
       228 -14.4242     39.5979    150.4743   8.4999859386e+01   4.0151389474e+01     0.724519    0.4177323 -51.66  0.003643823    1.952    0.488
       229 -12.8090     33.8645    148.1665   8.6546681931e+01   4.1250300360e+01    0.3612367    0.1618839  32.10  0.001006308    1.929    0.482
       230 -10.7312    249.4982    151.5406   3.5898223591e+01   6.6336551052e+00    0.1157774   0.08906688  -3.53 0.0001707946    1.044    0.043
       231 -12.5930    170.3519    150.1631   4.9396269902e+01   1.9619650995e+01    0.3079278    0.2392059  64.85  0.001625763    1.883    0.469
       232 -12.3625    147.5686    149.5066   5.4369782988e+01   2.3869767420e+01    0.2942461    0.2500864 -56.50 0.0006587689    1.471    0.320
       233 -12.6418    130.3167    150.7937   5.8850618477e+01   2.6750567198e+01    0.2911566      0.20326  29.44  0.000221346    1.312    0.238
       234 -13.9405     84.8054    147.9781   7.0923452735e+01   3.4961344368e+01     0.557204    0.3238802 -58.98   0.00183806    1.905    0.475
       235 -12.8364     80.1002    147.1031   7.2188270533e+01   3.5858998920e+01    0.3044415    0.2193869 -37.15 0.0008081204    1.662    0.398
       236 -12.8404    108.5468    148.7434   6.4246008094e+01   3.0967347094e+01    0.3435928     0.282837 -59.12  0.000900284    1.404    0.288
       237 -12.6814     97.1614    147.7585   6.7281336090e+01   3.3068413461e+01    0.3381065    0.1985935 -39.84  0.001184442    2.059    0.514
       238 -11.1878    223.5389    147.5179   3.9025204988e+01   1.0967606003e+01    0.2086471    0.1013842 -41.17 0.0008842651    2.324    0.570
       239 -11.6337    180.9942    147.9866   4.6763307964e+01   1.8063834056e+01    0.1676471    0.1442277  15.14  0.000619079    1.015    0.015
       240 -11.4140    206.8941    146.7419   4.1655997361e+01   1.3769685324e+01     0.198257    0.1492319  13.24  0.001190489    1.243    0.195
       241 -11.8770    121.1719    146.7877   6.0460841092e+01   2.9168053420e+01    0.1986747    0.1616788   8.48 0.0004640515    1.320    0.243
       242 -12.9459      3.7662    142.9434   9.5443849959e+01   4.4794695103e+01    0.5001649    0.2303281 -64.79  0.002449473    2.171    0.539
       243 -13.4825    101.6138    142.5495   6.5074773640e+01   3.3448817126e+01    0.5762734     0.386026  73.03  0.002531636    2.275    0.560
       244 -12.1841     59.9542    145.2119   7.8089337575e+01   3.9050303865e+01    0.2247318    0.1677588  53.26 0.0008540947    1.289    0.224
       245 -11.5603    232.2403    151.9328   3.8506245945e+01   9.0742235527e+00    0.1834878    0.1476656  14.62 0.0003604005    1.130    0.115
       246 -13.4724     56.0094    141.5092   7.8843306903e+01   4.0400868635e+01    0.3660562    0.2801128 -23.68  0.001954345    1.636    0.389
       247 -11.5853    139.8816    140.8771   5.4484418328e+01   2.6884399674e+01    0.2146287    0.1850486   6.23 0.0005202381    1.172    0.147
       248 -12.3518     94.9257    140.2737   6.6611741153e+01   3.5057500423e+01    0.2668054    0.2106061 -42.23  0.000995465    1.414    0.293
       249 -12.2271    223.0887    139.7031   3.7562037250e+01   1.2059384709e+01    0.2163242    0.1703448 -18.01 0.0002948348    1.139    0.122
       250 -10.9415    189.6734    140.3183   4.3495553350e+01   1.7693483617e+01     0.186344    0.1624832 -77.35 0.0009255316    1.752    0.429
       251 -11.3430    230.1835    139.2217   3.6369100020e+01   1.0989770117e+01    0.1747514    0.1389862   1.27 0.0003811501    1.102    0.093
       252 -13.2798     25.9209    134.7608   8.7871028205e+01   4.5119243913e+01    0.4500992    0.2975319 -53.97  0.001722493    1.618    0.382
       253 -12.1269    179.8401    135.2101   4.4343233647e+01   2.0294193777e+01    0.2258046    0.1969741  -1.98 0.0002583755    1.079    0.073
       254 -12.7427    103.3601    134.3085   6.3000432922e+01   3.4920017435e+01    0.3312449    0.2662463 -27.51  0.001047549    1.438    0.305
       255 -12.5075    104.8178    130.8179   6.1873765593e+01   3.5414068500e+01    0.3023974    0.2155529  33.48 0.0006259373    1.293    0.226
       256 -10.9473    170.6726    135.6812   4.6329886381e+01   2.1948394004e+01    0.1456059    0.1019546   8.46 0.0007046674    1.681    0.405
       257 -12.3991    117.8206    134.8565   5.9002330735e+01   3.2197399091e+01    0.2861617    0.2275993  34.62 0.0006545536    1.137    0.120
       258 -13.6219     63.6101    134.8240   7.5449512864e+01   4.0996993414e+01    0.3404984    0.3108568  85.93  0.002000434    1.142    0.124
       259 -13.2181     45.8100    134.9180   8.1310763194e+01   4.3144844732e+01    0.5029663    0.1662881  33.16  0.001443825    2.523    0.604
       260 -11.3841    211.7944    133.3666   3.8108608916e+01   1.4799676536e+01    0.1764102    0.1077641  32.66 0.0003376697    1.636    0.389
       261 -12.1234    126.8558    132.1691   5.5992793761e+01   3.1044151365e+01    0.3396874    0.2249032  60.94 0.0008647004    1.999    0.500
       262 -11.2744    236.8906    130.9522   3.3747374174e+01   1.0975887905e+01    0.1752895    0.1469712  -7.89 0.0003455879    1.018    0.017
       263 -11.1815    201.8201    130.8620   3.9289165327e+01   1.6911006335e+01    0.1616208    0.1539027 -37.00 0.0003512893    1.277    0.217
       264 -14.0948     83.0917    128.7485   6.8127266397e+01   3.9557713545e+01    0.5250098    0.4368149 -43.81  0.002827647    1.315    0.240
       265 -13.6296     48.1180    129.7679   7.9872406969e+01   4.4117934023e+01    0.5227643    0.1983611  33.71  0.002099778    2.281    0.562
       266 -10.4741    224.6034    128.5144   3.5069351168e+01   1.3279740786e+01    0.1230741    0.1044152  -9.07 0.0006210855    1.025    0.024
       267 -10.9130    130.4884    128.4820   5.4234264482e+01   3.1074263063e+01    0.1492016     0.135292  29.08 0.0001150818    1.002    0.002
       268 -11.1516    121.9700    128.2984   5.6475287984e+01   3.2758863529e+01    0.2142221    0.1803426  35.10 0.0006498183    1.081    0.075
       269 -14.2286     60.3888    125.5009   7.5063561368e+01   4.3632219023e+01    0.5579744    0.3870925  73.16  0.002729326    1.721    0.419
       270 -10.9976    162.4334    127.5199   4.6319610614e+01   2.4929174624e+01    0.1426427    0.1291415  16.10 8.316679e-05    1.014    0.014
       271 -13.6096    103.8837    121.2462   6.0130807333e+01   3.7653951669e+01    0.5397393    0.4142864  18.36  0.002664043    1.412    0.292
       272 -12.2888     99.2178    118.3589   6.0923123260e+01   3.9140828119e+01    0.2730803    0.2412245  60.73 0.0005556366    1.203    0.169
       273 -14.2577     44.9211    120.2850   7.9669293468e+01   4.6771700728e+01    0.8379762    0.5391887  -3.46  0.002098457    2.074    0.518
       274 -11.3482    188.9254    121.6508   3.9621616505e+01   2.0688239353e+01     0.217786    0.1743343 -12.43 0.0002783492    1.241    0.194
       275 -10.7012    165.6620    122.3039   4.4436414041e+01   2.5178720876e+01    0.1368501    0.1153722  85.38 0.0003441121    1.671    0.402
       276 -12.5692     67.9060    122.1630   7.1932151406e+01   4.3392690293e+01    0.2338925    0.1902152  55.45  0.001245974    1.239    0.193
       277 -11.9898    199.2092    121.1272   3.7648792341e+01   1.8809947410e+01     0.303687    0.1485527  46.12  0.001398781    2.050    0.512
       278 -12.5646    206.6672    129.2886   3.8119571993e+01   1.6269311199e+01    0.2270767    0.2088417  -4.64  0.000380234    1.106    0.096
       279 -12.7924     72.8726    119.9030   6.9826010377e+01   4.3196112357e+01    0.2244616    0.1990692  -1.91 0.0007816544    1.243    0.196
       280 -11.5011     94.0943    117.3046   6.2300247266e+01   4.0297145029e+01    0.2620065    0.2029352 -40.16  0.001309106    1.414    0.293
       281 -12.5987    124.4851    114.4688   5.2627064748e+01   3.5065906091e+01    0.2682891    0.2516618  36.98  0.001473923    1.040    0.039
       282 -12.6646     82.6428    112.9631   6.5110505218e+01   4.3260688577e+01    0.5052544    0.2596517 -73.01  0.001765613    3.265    0.694
       283 -12.9515     63.7332    113.5703   7.1816699215e+01   4.6034247814e+01    0.3356363    0.2717329   8.72    0.0010512    1.363    0.267
       284 -12.8289     61.5908    110.2501   7.1962310519e+01   4.7131414862e+01    0.3868765    0.2423209 -44.72  0.001540826    1.738    0.425
       285 -10.9634    171.6386    113.2147   4.1064254387e+01   2.5483989797e+01    0.1938059    0.1307048 -24.91  0.000939236    1.591    0.371
       286 -11.7397    109.3269    111.7319   5.6317293531e+01   3.8664078381e+01    0.3495559    0.2377528 -26.84  0.001552227    1.861    0.463
       287 -12.4615     53.1283    110.6891   7.5158439707e+01   4.8143126908e+01    0.3742248    0.2666763  46.40 0.0006120689    1.383    0.277
       288 -12.0003     36.1712    119.7143   8.2726647740e+01   4.7824605091e+01    0.3127329    0.2215889  32.54  0.001305249    1.349    0.259
       289 -12.3160    219.4878    109.6698   3.1865728900e+01   1.6671702235e+01    0.2912681    0.2183307  29.44 0.0009001243    1.380    0.275
       290 -11.6040    210.4566    107.9841   3.2872789803e+01   1.8569615990e+01    0.2256266    0.1896201  78.29  0.001200861    1.604    0.377
       291 -10.9530     92.1594    107.8144   6.0778062940e+01   4.2770660680e+01    0.2064256    0.1757926  -8.86 0.0004272508    1.348    0.258
       292 -12.0739    170.4646    106.8692   3.9782875996e+01   2.6774608200e+01    0.2334635    0.1870998  20.91 0.0008655781    1.300    0.230
       293 -12.0978    120.9276    106.9985   5.1784660098e+01   3.7306294320e+01    0.2483964    0.2069851  40.12 0.0003656222    1.116    0.104
       294 -10.6161    153.6660    106.3347   4.3281525028e+01   3.0454520277e+01    0.1468451    0.1187523 -87.35 0.0007052186    1.737    0.424
       295 -10.1767    116.3061    104.3062   5.2425607714e+01   3.8812475378e+01     0.152786    0.1184428   4.69 0.0007016208    1.606    0.377
       296 -11.0526     64.5191    104.0834   6.9651922375e+01   4.8195820526e+01    0.2046978     0.144104 -61.35 0.0003624775    1.484    0.326
       297 -11.1292    230.0917    103.1152   2.8946859776e+01   1.5631522298e+01    0.1796183    0.1479768   0.30 0.0002837044    1.192    0.161
       298 -12.1085     78.9162    101.3565   6.3793822504e+01   4.6569292626e+01    0.3292567    0.2261905  57.34 0.0007467901    1.676    0.403
       299 -12.3181     75.0617     97.5228   6.4278707471e+01   4.8103493706e+01    0.2525088    0.2127303 -53.21 0.0003456497    1.242    0.195
       300 -12.4161     59.0465     96.7213   7.0177830449e+01   5.0746769287e+01    0.4185202    0.2618631 -41.23  0.001881014    1.761    0.432
       301 -11.7083    208.1299     99.6736   3.1357459283e+01   2.0168642328e+01    0.2106038    0.1672557 -37.38 0.0003313958    1.242    0.195
       302 -11.8331     31.6487     99.1984   8.1626422573e+01   5.3314089922e+01    0.4269671    0.2223319 -40.88  0.001885676    2.175    0.540
       303 -12.0314     23.9105     97.7111   8.4571712648e+01   5.4340610256e+01    0.6142128    0.1529682  36.22  0.002143748    3.433    0.709
       304 -12.1993    161.8991     99.1417   3.9647217867e+01   2.9906619414e+01     0.221555    0.2048549 -80.54  0.001232343    1.271    0.213
       305 -11.6643    105.6422     98.9416   5.4246991056e+01   4.2114726713e+01    0.2806591    0.1830721 -30.57  0.001210476    1.872    0.466
       306 -11.4835     94.2451     99.4120   5.8035398793e+01   4.4251651985e+01    0.2818229    0.1834259  46.37  0.001086002    1.497    0.332
       307 -11.4394    178.8267     98.1212   3.5993626913e+01   2.6400614889e+01    0.2016205    0.1910655 -55.34 0.0003918284    1.171    0.146
       308 -11.6864     89.4675     97.5944   5.9183885922e+01   4.5552646566e+01    0.2971088    0.2115937  82.91  0.001111921    2.148    0.534
       309 -13.2972      3.0886    105.0795   9.3541964093e+01   5.3815302849e+01    0.5229741    0.2335666 -53.72    0.0023416    2.197    0.545
       310 -12.2821      7.6934     95.3224   9.0951774727e+01   5.5978837786e+01    0.2121181    0.1149024 -86.43 0.0003680839    1.800    0.444
       311 -10.8953    188.5378     97.5560   3.4087217982e+01   2.4433527001e+01    0.1348352     0.128279   2.26 9.698483e-05    1.010    0.010
       312 -11.8378     82.2366     96.1581   6.1347064660e+01   4.7188011919e+01    0.4586841     0.192244 -40.33  0.001563827    3.016    0.668
       313 -11.5363     98.6761     93.7735   5.5099601646e+01   4.4616844310e+01    0.3997445    0.1453843 -51.31  0.001311374    3.098    0.677
       314 -12.1355     68.5904     95.1827   6.6142466893e+01   4.9695341125e+01    0.2514995    0.1691315  26.97  0.001175881    1.493    0.330
       315 -10.4918    244.9927     91.2689   2.4565180804e+01   1.4505627959e+01    0.1261357    0.1039812  51.02 0.0002797832    1.398    0.284
       316 -12.0951    170.7374     90.5451   3.5632067429e+01   2.9360722698e+01    0.3687792     0.129542 -29.93  0.001205149    3.435    0.709
       317 -12.4051     25.5299     89.9723   8.2793403533e+01   5.6133131851e+01    0.5306216    0.2269691  29.50  0.001355243    2.219    0.549
       318 -12.6265    230.5099     89.5299   2.5944464869e+01   1.7273409745e+01    0.2500386    0.2155823  41.62 0.0005743668    1.260    0.206
       319 -12.0617      4.2624     88.0465   9.1724060510e+01   5.7931476086e+01    0.3486696      0.18054 -52.74  0.001739632    1.826    0.452
       320 -10.6433    220.4583     89.5499   2.7265341687e+01   1.9148604377e+01    0.1247722     0.113632 -22.77 0.0001472185    1.020    0.020
       321 -12.4003    149.4392     86.6237   3.9075072724e+01   3.4843497385e+01    0.4793789    0.1948953 -28.84  0.001573851    3.320    0.699
       322 -10.8746    138.5160     88.1187   4.2082354521e+01   3.7089291782e+01    0.2095719    0.1506331 -38.20 0.0003149234    1.464    0.317
       323 -12.2530     54.0609     85.9135   6.9766964861e+01   5.4034837876e+01     0.452744    0.3852513 -23.44  0.002471016    1.263    0.208
       324 -11.9368     11.4492     87.2661   8.8543458938e+01   5.7767040083e+01     0.311532    0.2208282  40.51  0.001763154    1.449    0.310
       325 -12.2027    178.5665     86.8701   3.3208370345e+01   2.8195138968e+01    0.2438655    0.2275325  44.89 0.0002637031    1.070    0.066
       326 -13.1644     64.0657     82.3264   6.4725839376e+01   5.3418698260e+01    0.4885931    0.3420248  44.03  0.002259974    1.432    0.302
       327 -11.7050    162.4842     86.5092   3.6224386748e+01   3.1869374247e+01    0.1432431      0.13953  37.07 -9.569566e-05    1.027    0.027
       328 -10.7348     35.2167     86.1914   7.7934992640e+01   5.6193266713e+01    0.1841632    0.1522224  54.79 0.0004632108    1.273    0.215
       329 -12.0375    171.0361     83.5383   3.3741808997e+01   3.0395360359e+01    0.2137472    0.1906618 -28.90  0.000371807    1.132    0.117
       330 -10.8285    110.0819     83.5102   4.8592631032e+01   4.4364136254e+01    0.2311845    0.1447049  44.81 0.0003612619    1.500    0.333
       331 -11.6412     77.5069     81.6586   5.9228226846e+01   5.1307045451e+01    0.3206664     0.214542  57.88 0.0009371326    1.809    0.447
       332 -12.1335    182.1855     80.9092   3.1032138859e+01   2.8284523240e+01    0.2079144    0.1869309 -62.15 0.0004776853    1.215    0.177
       333 -11.7591    153.4692     79.9351   3.6321903681e+01   3.5032385957e+01    0.2188272    0.1956664  47.78 0.0004156455    1.074    0.069
       334 -11.5883     88.3860     79.2251   5.4498481315e+01   4.9783230826e+01    0.2927179    0.2411159  57.44 0.0009099012    1.300    0.231
       335 -11.8027     51.2539     78.7897   6.9251201451e+01   5.6117565357e+01    0.4263301    0.2405104  53.38  0.001793992    2.218    0.549
       336 -12.2580     29.6326     79.8083   7.9247605286e+01   5.8296986888e+01    0.3064226    0.1763366  23.98  0.001347165    1.742    0.426
       337 -12.1032     22.6731     78.8409   8.2301177256e+01   5.9114972418e+01    0.4187908    0.2373722  85.76  0.001908829    2.170    0.539
       338 -13.4510    214.9841     75.9725   2.4865036536e+01   2.1977944166e+01    0.4032353    0.2650075 -20.61  0.001524956    1.554    0.357
       339 -12.0430    188.0670     78.1283   2.9331421577e+01   2.7382885223e+01    0.2154399    0.1795277  18.15 0.0006661844    1.325    0.245
       340 -11.8016    112.1203     76.2964   4.5805418644e+01   4.5327309796e+01    0.3381279    0.2670609 -43.74  0.001665381    1.353    0.261
       341 -11.3405    116.4878     74.8532   4.4074772233e+01   4.4607053299e+01    0.3172076    0.2346294  72.53  0.001434727    1.715    0.417
       342 -11.2296    206.7218     80.4490   2.7059711365e+01   2.3076655602e+01     0.175045    0.1188988  42.84  0.000934348    1.561    0.359
       343 -11.9655    161.4524     76.0594   3.3579620286e+01   3.3779768645e+01    0.2739842    0.2079419  75.16  0.000722791    1.543    0.352
       344 -11.9718     75.0406     75.4963   5.8392862863e+01   5.3120533325e+01    0.2743676    0.2240537 -50.77  0.000438107    1.287    0.223
       345 -11.4389     86.0820     75.1638   5.4100558463e+01   5.1103339586e+01    0.3050276    0.2102288 -35.21 0.0005030227    1.607    0.378
       346 -11.2508    169.0134     73.9926   3.1551625438e+01   3.2325008272e+01    0.1755096     0.165569 -28.18 0.0006763956    1.076    0.071
       347 -12.4827     51.1419     72.7544   6.7741230161e+01   5.7560295192e+01    0.3305648    0.2502214 -86.24  0.001192307    1.670    0.401
       348 -10.7616    105.8072     72.4293   4.6533291189e+01   4.7491532194e+01    0.2213924    0.1379919  35.88 0.0009394526    1.640    0.390
       349 -11.3992     11.2855     70.1515   8.6409557421e+01   6.1996047467e+01    0.3983244    0.1462479 -84.93 0.0009157895    3.292    0.696
       350 -12.4398      1.9042     68.9590   9.0899687699e+01   6.2703949772e+01    0.3130239    0.1894926 -88.51 0.0008417011    1.633    0.388
       351 -10.8656     60.2504     67.4011   6.2120099513e+01   5.7441953752e+01    0.1947264    0.1313291  41.74 0.0002968981    1.480    0.324
       352 -11.3239     47.4615     67.3411   6.7965546735e+01   5.9323982222e+01    0.2516518    0.1291094  28.45  0.000815615    1.925    0.481
       353 -10.6185    203.4828     66.4454   2.4093829713e+01   2.5603939247e+01    0.1280764    0.1235964 -25.77 0.0001526696    1.027    0.026
       354 -12.5372      7.7546     66.0095   8.7590788951e+01   6.3186197156e+01    0.2751703    0.1449782 -49.90 0.0009287114    1.725    0.420
       355 -11.9642      8.4770     60.6698   8.6415103733e+01   6.4451778940e+01    0.5360627    0.2353804  50.30  0.002263088    2.847    0.649
       356 -12.0886    178.5734     64.1470   2.7191635421e+01   3.1516984055e+01    0.2407883    0.2293475  59.37 0.0002893755    1.045    0.043
       357 -11.7916    110.0549     64.0421   4.2491865154e+01   4.8098122693e+01    0.2258661    0.2123855  41.44 0.0003147871    1.007    0.007
       358 -13.4582    107.0943     58.3055   4.1430097546e+01   4.9822936353e+01    0.5739352    0.3651248 -62.14  0.002343174    2.284    0.562
       359 -12.7751     43.5372     61.5685   6.8227406385e+01   6.1175337154e+01    0.5399332    0.2601467  46.64  0.002174898    2.491    0.598
       360 -11.1392     43.4688     57.4568   6.7032924313e+01   6.2128035477e+01    0.2162497    0.1998355 -22.73 0.0006276472    1.042    0.040
       361 -10.6140     63.3260     61.6707   5.8936107827e+01   5.8203561504e+01    0.1474898    0.1151679  70.88 0.0007050576    1.703    0.413
       362 -11.7831    199.2081     65.2334   2.4374967816e+01   2.6689713184e+01    0.1841356     0.148623 -60.01 0.0005484467    1.323    0.244
       363 -10.8971     98.4389     60.5290   4.4957197636e+01   5.1412907715e+01    0.1535263    0.1408824  27.10 0.0008058448    1.068    0.064
       364 -11.4819    233.7551     58.9997   1.8781810941e+01   2.0333741837e+01    0.1769649    0.1704478  85.86 0.0003403828    1.146    0.127
       365 -13.5081     30.4398     49.5886   7.1645832910e+01   6.5451239693e+01    0.4146052    0.3635864 -89.95  0.001920578    1.346    0.257
       366 -11.6469     33.8476     57.8813   7.2158198868e+01   6.3170801864e+01    0.2362966    0.1978866  12.90 0.0007212292    1.197    0.164
       367 -12.6260     28.7105     55.3594   7.4243271161e+01   6.4283925020e+01    0.4682784    0.1978061  42.31  0.001877954    2.723    0.633
       368 -11.5381    193.0235     57.2961   2.3192043246e+01   2.9097648877e+01    0.1896204    0.1752145  74.17  0.001048886    1.100    0.091
       369 -11.4649    160.1750     57.4049   2.8462842005e+01   3.6893664500e+01    0.2000982    0.1370188  73.63 0.0005431426    1.607    0.378
       370 -11.7466     52.7060     56.2184   6.2039234181e+01   6.1103402772e+01    0.3090545     0.211376  43.04 0.0009616798    1.515    0.340
       371 -10.9872    126.5894     53.8019   3.4504318738e+01   4.5829589388e+01    0.2119441    0.1387108 -47.09 0.0009448425    1.690    0.408
       372 -11.0507    115.5978     53.7634   3.7371733417e+01   4.8557573832e+01    0.1991479    0.1433188 -47.46 0.0004275299    1.537    0.349
       373 -12.9132     37.3355     52.1011   6.8590524959e+01   6.4110191455e+01    0.2973798    0.2529688 -50.17 0.0003589992    1.165    0.141
       374 -10.6039    233.4944     52.5380   1.7354241721e+01   2.1116076859e+01    0.1193111    0.1062034 -39.71 8.822144e-05    1.009    0.009
       375 -11.2875     43.5449     52.0180   6.5254583116e+01   6.3342928662e+01    0.2015266    0.1786378  16.86 9.633759e-05    1.098    0.089
       376 -11.7060     18.4923     48.8334   7.8380286617e+01   6.6684645786e+01    0.2279167    0.1809527   7.97 0.0006210544    1.284    0.221
       377 -12.6549      2.5160     41.9705   8.6696974880e+01   6.9167864500e+01    0.3850142      0.17883 -47.09  0.001082696    1.848    0.459
       378 -13.2674     36.5205     39.9608   6.4887250982e+01   6.6894592878e+01      0.35905    0.2899042  15.61 0.0007860275    1.206    0.171
       379 -13.4104    135.5580     39.0296   2.7410578654e+01   4.5703919145e+01    0.4559336    0.3034061  50.33   0.00161399    1.416    0.294
       380 -12.3848     24.2885     38.5635   7.1855813429e+01   6.8555302978e+01    0.3266113    0.1486229 -32.47  0.001334089    2.603    0.616
       381 -11.4256     53.1936     38.3588   5.5058144248e+01   6.4752659245e+01    0.1954793    0.1698481 -13.22 0.0005810359    1.144    0.126
       382 -13.3413    230.4512     34.6220   1.3557760854e+01   2.3659965989e+01    0.2659087    0.2399178 -36.59 0.0005862057    1.088    0.081
       383 -12.2645     43.8039     33.4652   5.8034122533e+01   6.7224530755e+01    0.2881867    0.2402276 -20.68 0.0007584151    1.178    0.151
       384 -13.0593     31.9421     32.2291   6.4648476327e+01   6.9099485830e+01    0.4144255    0.3178365 -46.32  0.002367752    1.283    0.221
       385 -12.8741    106.6484     32.2550   3.1776750266e+01   5.4083095892e+01    0.3047186    0.2731646 -51.79 0.0007026237    1.237    0.192
       386 -12.8984     78.2840     30.9351   4.0459815324e+01   6.1095741053e+01    0.3095509    0.2808866 -80.35  0.001060536    1.352    0.260
       387 -11.1740      8.6910     31.9509   8.0281073537e+01   7.1212417602e+01     0.172087       0.1495 -50.54  0.000412059    1.081    0.075
       388 -13.3163     46.5668     26.5189   5.3266699244e+01   6.8111729900e+01    0.4569412     0.329762  62.93  0.001963311    2.079    0.519
       389 -11.6250    139.6014    248.1953   7.0780069362e+01   9.4567735553e+00     0.203343    0.1606243   6.25 0.0005989835    1.273    0.214
       390 -12.3195    135.7073    246.1064   7.1335372912e+01   1.0222968310e+01    0.3781152    0.1241608  32.08  0.001574792    2.181    0.541
       391 -12.6606     67.8272     24.9624   4.1923870940e+01   6.4319476919e+01    0.2626167    0.2060021 -57.00  0.001364922    1.641    0.391
       392 -11.6884    207.8984     29.1902   1.4249222356e+01   2.9017307523e+01    0.2036516    0.1569077 -63.00 0.0009420396    1.244    0.196
       393 -11.6769    238.0736     22.8008   1.0323987715e+01   2.3332074854e+01    0.1759702    0.1323317 -56.31 0.0003643022    1.181    0.153
       394 -11.9043    134.9879     29.9335   2.4356295796e+01   4.7023118795e+01    0.3713886    0.2096963 -28.32  0.001158461    1.915    0.478
       395 -11.6297     36.5326     20.9800   5.6551812963e+01   7.0708290416e+01    0.1961856    0.1673173  15.64 0.0003425238    1.084    0.077
       396 -11.7479     67.1895     17.2359   3.8290254749e+01   6.5607893743e+01    0.1835978    0.1699071 -87.33 0.0007235114    1.345    0.257
       397 -10.7655     31.1598     15.8540   5.7454660876e+01   7.2421467677e+01    0.1815832    0.1392227  -5.14  0.000410209    1.291    0.225
       398 -11.7340    224.4652     15.0070   9.4858615419e+00   2.6843292829e+01    0.2130694    0.1652878 -89.99 0.0004045436    1.278    0.218
       399 -10.8150    121.2376     12.7543   2.0604814285e+01   5.2602878886e+01    0.2037233     0.148525  45.01 0.0005523884    1.348    0.258
       400 -10.7936     60.5993    242.0290   8.6708901396e+01   1.9825940002e+01    0.4869902    0.2052249  20.90  0.002393957    2.513    0.602
       401 -11.1725     90.5033     11.5284   2.7243942059e+01   6.0777896358e+01    0.1445788    0.1282055  52.04 1.633549e-05    1.013    0.013
       402 -11.2614    162.0983    247.0097   6.6242031386e+01   6.7892933037e+00    0.1765763    0.1238061  19.87 0.0007863969    1.044    0.042
       403 -10.9324     40.7756     10.4280   4.7985083739e+01   7.1844430955e+01    0.1812949    0.1155815  29.09 0.0003504529    1.494    0.331
       404 -10.8921     99.3314    246.3207   7.8841693541e+01   1.4705654091e+01    0.1114171   0.07752551   5.76 0.0007049066    1.695    0.410
       405 -10.5273    180.3783    244.1973   6.2449420348e+01   4.8573176658e+00     0.116905    0.1028937 -18.09 0.0005205999    1.538    0.350
       406 -10.4813    168.2549    243.3452   6.4621377106e+01   6.4646648150e+00    0.1106201    0.0701597   3.97 0.0002976904    1.588    0.370
       407 -11.8439    104.1273    242.1389   7.7462034147e+01   1.4741068467e+01    0.1702573    0.1249488  22.47 0.0002773775    1.181    0.153
       408 -15.3702     13.7374    225.6356   9.5990686116e+01   2.7148602244e+01      1.12477    0.4566692  21.95  0.006033478    2.323    0.570
       409 -10.1748    197.3104    241.7225   5.9055896948e+01   3.0775499881e+00   0.09752043   0.07259357  33.77 0.0002604637    1.559    0.358
       410 -10.9053    158.8019    240.8168   6.6138606889e+01   7.9755380679e+00    0.1495753    0.1119074  34.82 0.0007949926    1.325    0.245
