#   1 NUMBER                 Running object number                                     
#   2 MAG_AUTO               Kron-like elliptical aperture magnitude                    [mag]
#   3 X_IMAGE                Object position along x                                    [pixel]
#   4 Y_IMAGE                Object position along y                                    [pixel]
#   5 X_WORLD                Barycenter position along world x axis                     [deg]
#   6 Y_WORLD                Barycenter position along world y axis                     [deg]
#   7 A_WORLD                Profile RMS along major axis (world units)                 [deg]
#   8 B_WORLD                Profile RMS along minor axis (world units)                 [deg]
#   9 THETA_WORLD            Position angle (CCW/world-x)                               [deg]
#  10 FWHM_WORLD             FWHM assuming a gaussian core                              [deg]
#  11 ELONGATION             A_IMAGE/B_IMAGE                                           
#  12 ELLIPTICITY            1 - B_IMAGE/A_IMAGE                                       
         1 -15.1755    178.5626     82.5327   8.2785650707e+01   2.9135275048e+01     4.035179     2.524366  -5.09    0.0139933    3.504    0.715
         2 -15.6811    185.7812    107.3495   8.7784839589e+01   2.2721228232e+01     7.576719     1.760328 -45.83   0.01955446    4.492    0.777
         3 -17.0800    208.2605    106.1290   8.3216836210e+01   1.7688448196e+01     7.509549     6.172149 -19.08    0.0255042    1.451    0.311
         4 -14.6839    234.7378     77.6264   7.2364085234e+01   1.6703407104e+01     2.188839     1.978505 -56.29   0.01044011    1.100    0.091
         5 -11.8572    189.5968     27.8502   6.6654650306e+01   3.4606974099e+01    0.4893191     0.447975  64.16  0.001245552    1.171    0.146
         6  -8.8474    184.5780     19.7668   6.5283183931e+01   3.6757267083e+01    0.1734767    0.1148498 -49.03 0.0005573708    1.570    0.363
         7  -9.6252    167.9861      6.7355   6.4099510679e+01   4.2075137824e+01    0.1869009    0.1772888 -67.37 0.0004912553    1.189    0.159
         8  -8.6122     66.7059      6.3367   8.5276718075e+01   6.3779713291e+01   0.09976367   0.09252524 -53.66 0.0005763322    1.646    0.393
         9  -9.5319    222.3841      1.3458   5.7038123527e+01   2.9863462855e+01     0.197293   0.09444427  72.18 0.0005335369    1.774    0.436
        10 -11.5981    190.1950    200.6608   1.0771252578e+02   2.9180056662e+00    0.5069646    0.2944587  51.15  0.001621283    1.855    0.461
        11 -11.9522    183.8895    199.8009   1.0885508880e+02   4.2847038376e+00    0.5260726    0.3013125 -48.77  0.001828159    1.901    0.474
        12  -9.8573    205.9222    202.8001   1.0494307474e+02  -4.0699195306e-01    0.2188033    0.1764241   5.57 0.0006498633    1.308    0.236
        13  -9.5131    195.9932    202.9782   1.0696825650e+02   1.3982517647e+00    0.2114229    0.1953123  20.56 0.0004244607    1.005    0.005
        14 -10.4922    213.3458    197.5864   1.0247407692e+02  -8.4384405886e-01    0.4503008    0.3741527 -75.72  0.002449401    1.728    0.421
        15 -10.1852    128.0696    200.0195   1.2099923320e+02   1.4932087200e+01    0.2178117    0.1958239  66.31 0.0003408656    1.023    0.022
        16 -10.4940    197.2223    197.5707   1.0568319934e+02   2.1587005087e+00    0.2738361    0.2304498  29.64  0.000848911    1.134    0.118
        17 -11.6528    200.2656    192.6568   1.0410522461e+02   2.4912037416e+00    0.4967289    0.2863823 -25.37  0.001175152    2.242    0.554
        18 -10.4324    176.1247    197.1010   1.0997728202e+02   6.3091864747e+00    0.2258009    0.1967404   5.70 0.0008353976    1.263    0.208
        19 -11.3042    155.5257    194.9450   1.1402743155e+02   1.0774229122e+01    0.3753316    0.2647222  44.20  0.001121186    1.336    0.252
        20 -11.9591    151.0108    195.1636   1.1506254715e+02   1.1608962010e+01    0.5128009    0.3394636 -35.80  0.002377137    1.825    0.452
        21 -10.6416    226.9956    191.5110   9.8658924582e+01  -2.2463098797e+00    0.3409786      0.25065 -16.02 0.0006195608    1.429    0.300
        22  -9.8959    231.9893    188.4957   9.7126033623e+01  -2.6132109005e+00    0.3173193    0.2454061  40.25 0.0009195121    1.351    0.260
        23 -10.4222    207.8783    191.9137   1.0243248160e+02   1.1851544085e+00    0.3209267    0.2632114  15.87  0.001476398    1.247    0.198
        24 -10.8868    207.6694    188.3244   1.0175655070e+02   1.8828262226e+00    0.2716037    0.2127431  63.77  0.001322912    1.624    0.384
        25 -15.6144    172.8850    156.0892   1.0223682478e+02   1.5481797349e+01      3.87643     2.914663  21.05   0.01079288    1.657    0.397
        26 -14.5042    223.0414    135.4633   8.7425140706e+01   8.8366491163e+00     3.070504     1.493843  44.30   0.01250346    2.245    0.555
        27 -10.2884    215.4297    243.3992   1.1034825604e+02  -8.5319438122e+00    0.2389834    0.1931389  20.52 0.0001613175    1.038    0.037
        28 -14.5659    194.3910     76.1044   7.8203234562e+01   2.6397538130e+01     2.723125     1.339875  55.85            0    1.985    0.496
        29 -13.5551    187.2258    130.4717   9.3188669149e+01   1.7709781111e+01     1.727679    0.8733971  28.58 0.0008588299    3.968    0.748
        30 -14.9264    230.8019    103.0994   7.8732520090e+01   1.3179876081e+01     3.028912     1.693923 -53.34   0.01061294    1.807    0.447
        31  -9.8625     29.8165    228.9511   1.4458438478e+02   2.3547557345e+01     0.177665     0.134813  69.35 0.0002936885    1.109    0.098
        32 -13.7051    212.9605    120.4000   8.5770688594e+01   1.3903847377e+01    0.9992071    0.5434789  54.53  0.001347815    1.959    0.490
        33  -9.8356    204.0872    225.7218   1.0950147015e+02  -3.9644662737e+00    0.3221929    0.1596275  41.61  0.001359154    1.859    0.462
        34 -10.1357    219.6551    167.9671   9.5200415688e+01   3.3595307319e+00    0.5031877    0.3276667 -72.55  0.001995099    2.956    0.662
        35  -8.5714     33.3210    176.7166   1.3912066029e+02   3.4590058955e+01    0.1291482   0.08043053  71.89 0.0002531511    1.591    0.371
        36 -13.0095    129.8044    163.9805   1.1398671133e+02   2.2727397228e+01     1.039597    0.4396018  47.00 0.0006522327    2.375    0.579
        37 -12.7756    128.8554    156.2654   1.1262439274e+02   2.4712587021e+01    0.8309961    0.5293742  65.56  0.002719554    2.006    0.501
        38 -11.9744    133.3797    153.2138   1.1085987345e+02   2.4510191694e+01    0.5927143    0.3765177 -81.61  0.001448159    2.533    0.605
        39 -11.5266    142.2232    192.4755   1.1653310569e+02   1.3885822158e+01    0.4736541     0.275485  45.22   0.00146163    1.623    0.384
        40 -10.8478    215.4144    186.1713   9.9799390974e+01   8.1402229324e-01    0.4287223    0.2487422  35.44 0.0005376152    1.769    0.435
        41 -11.6477    120.0034    159.0891   1.1539733314e+02   2.5784648711e+01     0.457818    0.3293905  88.24  0.002052083    1.772    0.436
        42 -10.0796    231.5886    157.2468   9.0696156908e+01   3.0292581213e+00    0.4150827    0.3729549  31.47  0.002399821    1.176    0.150
        43 -13.0258    141.5444    152.4792   1.0870902636e+02   2.2993643853e+01     1.086573    0.4954725 -50.90  0.003985094    2.215    0.549
        44 -11.4264    141.1423    142.5435   1.0656974905e+02   2.5353865589e+01    0.4649429    0.3440557 -72.80   0.00207955    1.614    0.380
        45  -8.9949    250.5464    153.5403   8.6642746340e+01   1.4339648647e-01    0.1371015    0.1207798 -27.04 0.0001292929    1.029    0.028
        46 -10.9619    115.5646    150.0072   1.1463494780e+02   2.8784133317e+01    0.3576283    0.2489085 -87.89  0.001538568    1.927    0.481
        47 -11.8544    153.7490    184.7659   1.1250777132e+02   1.3278823182e+01    0.4562965    0.2636263  43.10  0.001983403    1.662    0.398
        48  -9.8151    245.5543    146.1359   8.5895232239e+01   2.3754119899e+00    0.4127249    0.3042734 -87.46   0.00202186    2.120    0.528
        49 -11.7967    135.4344    143.1706   1.0812180528e+02   2.6412077922e+01      0.54691    0.2571428 -53.71   0.00168956    2.219    0.549
        50 -11.0205    134.5190    138.4979   1.0727330140e+02   2.7680111130e+01    0.2761877    0.2342891 -44.83 0.0007854566    1.189    0.159
        51 -10.8117    180.4613    223.5129   1.1381484711e+02   5.7845145309e-01    0.4725896    0.2263037  44.73  0.001500176    1.923    0.480
        52 -11.0435    139.4400    133.0095   1.0474694471e+02   2.7889323368e+01     0.369818    0.2956981 -49.15  0.001775555    1.236    0.191
        53 -12.3830    126.4711    130.2938   1.0738102902e+02   3.1239590146e+01     0.566295    0.4231984  34.45  0.001583456    1.458    0.314
        54  -9.8311    108.0160    122.3102   1.1036174267e+02   3.6729529382e+01    0.2031245     0.196016  65.31 0.0003725931    1.067    0.063
        55  -9.9237    129.9726    192.0503   1.1922173863e+02   1.6317737845e+01    0.2362857    0.2037133 -66.89 0.0003247632    1.187    0.158
        56 -10.8672     96.6199    118.6005   1.1263101786e+02   3.9666939018e+01    0.2964893    0.2636077 -78.51  0.001556247    1.192    0.161
        57  -9.5317     89.9291    116.5095   1.1403219726e+02   4.1299916416e+01    0.2142392    0.1459519  38.33  0.000710146    1.566    0.361
        58 -10.8614    102.3592    112.3392   1.0946036566e+02   4.0057263702e+01      0.36206    0.2784833  83.79  0.001712594    1.739    0.425
        59 -11.1503    100.8308    105.8697   1.0822549089e+02   4.1777753486e+01    0.4199507     0.319423 -26.47  0.002054088    1.477    0.323
        60 -10.4351    126.1627    100.8629   9.9891993969e+01   3.7802619710e+01    0.2295628    0.2060442 -80.64 0.0003410099    1.235    0.190
        61 -11.4881    127.2656     95.7091   9.8174041565e+01   3.8629897548e+01    0.4052741    0.2880707 -55.50  0.001088568    1.529    0.346
        62 -11.3048    124.4995     89.7630   9.7218196677e+01   4.0420096467e+01    0.4250069     0.322169 -73.14  0.001977619    1.740    0.425
        63 -10.7216     82.3817     95.3438   1.1089011905e+02   4.7248690078e+01    0.2667589    0.2403847 -24.59  0.000287089    1.081    0.075
        64 -12.3000    134.8501     87.4373   9.3882416359e+01   3.8598490978e+01    0.5225476     0.470604  53.89  0.002777225    1.110    0.099
        65 -11.4838    146.7845     86.7524   9.0781791508e+01   3.5993269924e+01    0.5511236    0.3391348  15.88  0.001846601    3.326    0.699
        66  -9.5030    222.8273    182.8637   9.7702222600e+01   2.8874340629e-02    0.1818569    0.1658783 -61.72  0.000389508    1.316    0.240
        67 -10.4569     49.6593     84.9099   1.1861775870e+02   5.3985259331e+01    0.2314561    0.1879765  33.04 0.0007244224    1.409    0.290
        68 -11.1143    143.4742     83.6522   9.0686645675e+01   3.7346220241e+01    0.4030929    0.2656538  27.62  0.001662083    1.985    0.496
        69 -11.0992    138.9218     81.3382   9.1117937378e+01   3.8825804619e+01    0.3362669    0.2295255 -70.91   0.00109674    2.127    0.530
        70 -10.3552    115.7432     84.9160   9.8172612150e+01   4.3217126282e+01    0.3071194    0.2065882  52.51  0.001428487    1.580    0.367
        71  -9.2035    210.9410    179.5519   9.9320100657e+01   2.8851941895e+00    0.2228166    0.1842323 -37.39 0.0007109412    1.195    0.163
        72 -10.0230     67.3628     77.3783   1.1063350077e+02   5.3228887108e+01    0.2390008    0.1620013  34.73 0.0005644551    1.582    0.368
        73 -10.9782    154.8542     72.7217   8.4964202242e+01   3.6613999594e+01    0.4747104    0.2835355 -62.37  0.001892784    2.342    0.573
        74 -11.0041    149.8664     73.8691   8.6394872692e+01   3.7607494628e+01    0.3743468    0.2429591  29.10  0.001593622    2.022    0.505
        75 -10.0871    113.6424     74.9629   9.5772273736e+01   4.5526779415e+01    0.2521572     0.205135  50.20 0.0001944896    1.262    0.208
        76 -11.0565    131.8205     72.7163   9.0324967781e+01   4.1993807089e+01    0.3584465    0.2524015  41.02  0.001296405    1.417    0.294
        77  -9.4559    101.1117     70.9053   9.8075162568e+01   4.8765090638e+01    0.2121564    0.1948759 -57.29  0.001217439    1.242    0.195
        78 -10.2089    142.1973     70.0679   8.7039074267e+01   4.0068694834e+01    0.2463535    0.1666166 -62.83  0.001086791    1.924    0.480
        79 -11.3122    118.3886     68.6490   9.2542928969e+01   4.5650387865e+01    0.4758191    0.2915213 -66.45  0.001830669    2.984    0.665
        80 -10.9353    136.3662     67.5093   8.7652045407e+01   4.1852536689e+01     0.383337    0.2481879  69.65  0.001193855    1.944    0.486
        81 -10.8413    137.5735     63.7879   8.6244893046e+01   4.2188954713e+01    0.3824289    0.2584742 -86.02  0.001600718    2.427    0.588
        82 -10.6217    128.5018    188.5067   1.1893647219e+02   1.7381001197e+01       0.2808    0.2142587  47.30 0.0009529197    1.250    0.200
        83 -10.0796    125.8202     65.5690   8.9657965196e+01   4.4557709018e+01    0.3598498    0.1879946 -53.56  0.001395813    2.610    0.617
        84 -11.3665    122.1902     58.6004   8.8403245045e+01   4.6488898663e+01    0.3666561    0.2879052 -11.05  0.001928452    1.443    0.307
        85  -9.9776    111.2786     59.8667   9.1685562655e+01   4.8615920372e+01     0.288879    0.1745422  24.49  0.001252514    2.150    0.535
        86  -9.2409     95.6759     58.6785   9.5750731492e+01   5.1905254833e+01    0.1428087    0.1019486   6.78 0.0002425072    1.680    0.405
        87  -9.3965      7.2025     57.8527   1.2682864443e+02   6.3065741792e+01    0.1556985    0.1314204 -48.59  0.000493768    1.184    0.156
        88 -10.8810    159.0022     56.4687   7.9450173989e+01   3.8235346671e+01    0.4371386    0.2332382 -54.13   0.00177581    2.340    0.573
        89  -9.3784    155.0000     56.9281   8.0388212247e+01   3.9136170573e+01    0.2021138    0.1984482 -71.78 0.0007361654    1.068    0.064
        90 -10.0341    154.6400     52.9639   7.9310309424e+01   3.9815740688e+01    0.3463845    0.2872354 -58.80  0.001058533    1.305    0.234
        91 -10.8695    249.0431     52.1983   6.5093373289e+01   1.7529761370e+01    0.3732396    0.2347263  75.05  0.001369633    1.588    0.370
        92 -11.1461    246.7440     47.1824   6.4290208604e+01   1.8750534493e+01    0.3826928    0.2682257 -83.59  0.002209381    1.344    0.256
        93 -10.0262    127.3213     56.1071   8.6336841250e+01   4.5739337232e+01    0.3250825      0.17689  41.80  0.001197975    1.826    0.452
        94  -8.8928    220.0000    175.8994   9.6804275803e+01   1.8227312696e+00    0.2382063   0.07755816 -40.99  0.000807143    2.975    0.664
        95 -10.4613    185.0902     46.7625   7.2160827733e+01   3.3244299986e+01    0.3273392    0.1970837  61.78  0.001569936    1.531    0.347
        96  -9.9477    181.0133     45.5305   7.2485881887e+01   3.4417898731e+01    0.2155571    0.1290155  64.67 0.0004420333    1.546    0.353
        97 -10.1469    174.5980     43.1255   7.2889676164e+01   3.6324453105e+01    0.3385822    0.1679281 -35.92  0.001483513    2.116    0.528
        98 -10.7260    187.3525     41.4865   7.0444314054e+01   3.3414975249e+01    0.3335572    0.2435761 -88.98  0.001275307    1.394    0.283
        99 -10.4942    231.1581     38.9286   6.4204751398e+01   2.3360132566e+01    0.4895507    0.2346573  81.87  0.001745697    2.354    0.575
       100  -9.6077    216.0699    175.3107   9.7437032848e+01   2.6853003590e+00    0.2915189    0.1857204 -55.41  0.001324421    1.926    0.481
       101 -10.5788    242.6232     38.0968   6.2818477862e+01   2.0917001497e+01    0.4333557    0.3172339  35.16  0.002170477    2.221    0.550
       102 -10.1465    144.5982     35.7092   7.6195716501e+01   4.4562273183e+01     0.546398    0.3088786 -88.05   0.00203629    3.405    0.706
       103 -10.3006    183.1459     26.3433   6.7153102832e+01   3.6353064108e+01    0.2643815    0.2070703 -13.79  0.001065828    1.674    0.403
       104 -10.1756    175.5193    220.0677   1.1423441108e+02   2.0892642987e+00    0.1889175    0.1370587 -45.58 0.0004928311    1.527    0.345
       105  -8.6435    162.6219     26.6893   7.0332557378e+01   4.1304871718e+01    0.1445488   0.09181781  39.05   0.00070276    1.792    0.442
       106 -10.5390    166.4104     24.7411   6.9189799533e+01   4.0607410896e+01    0.3670114    0.1713205  71.29  0.001345187    2.117    0.528
       107  -9.7149    240.7414     24.0686   6.0100966542e+01   2.3166132772e+01    0.3385867    0.1415017 -59.58  0.001503186    2.465    0.594
       108  -9.7165    134.0867     32.2755   7.7275123273e+01   4.7441640630e+01    0.2235374    0.1980337  48.70 0.0003994635    1.017    0.017
       109 -10.0650    225.8080     23.2500   6.1365349914e+01   2.6608781773e+01    0.2966544    0.2029863  59.23  0.001420144    1.551    0.355
       110  -9.0513     83.5045     23.5031   8.6915528467e+01   5.9057211878e+01    0.1270694    0.1046984  19.91 -9.376833e-05    1.038    0.036
       111 -10.8525    118.1981    191.8597   1.2186728051e+02   1.8540860932e+01    0.3085027    0.2817109  46.58  0.001753757    1.141    0.124
       112 -10.4055    187.6365    189.3378   1.0604605092e+02   5.5736585529e+00     0.215305    0.1762472  83.63 0.0008518113    1.625    0.385
       113 -10.2421    203.2408    217.3484   1.0817827834e+02  -2.4355865296e+00    0.5336336    0.2370893 -49.02  0.002217955    2.772    0.639
       114  -9.3400    174.1981     19.2670   6.6562142950e+01   3.9323287279e+01    0.2239538    0.1424889  51.05 0.0009301095    1.539    0.350
       115  -9.8816    236.5327     30.7865   6.1897910687e+01   2.3237325181e+01    0.2387715    0.2269645  86.45 0.0008642166    1.302    0.232
       116 -10.0250    195.2217    215.4356   1.0942601845e+02  -6.7668623098e-01    0.2530486    0.1921219 -38.25  0.001270086    1.407    0.289
       117  -9.2431    223.0045    208.0380   1.0262585359e+02  -4.3324347497e+00    0.1634261    0.1400995 -19.08 0.0003740985    1.125    0.111
