#   1 NUMBER                 Running object number                                     
#   2 MAG_AUTO               Kron-like elliptical aperture magnitude                    [mag]
#   3 X_IMAGE                Object position along x                                    [pixel]
#   4 Y_IMAGE                Object position along y                                    [pixel]
#   5 X_WORLD                Barycenter position along world x axis                     [deg]
#   6 Y_WORLD                Barycenter position along world y axis                     [deg]
#   7 A_WORLD                Profile RMS along major axis (world units)                 [deg]
#   8 B_WORLD                Profile RMS along minor axis (world units)                 [deg]
#   9 THETA_WORLD            Position angle (CCW/world-x)                               [deg]
#  10 FWHM_WORLD             FWHM assuming a gaussian core                              [deg]
#  11 ELONGATION             A_IMAGE/B_IMAGE                                           
#  12 ELLIPTICITY            1 - B_IMAGE/A_IMAGE                                       
         1 -15.6211      6.5899     71.9472   1.2917210630e+02   6.0573557083e+01     1.221478    0.6753029 -49.85  0.003817854    1.354    0.262
         2 -14.0665    219.8568     41.7305   6.4957533714e+01   2.5789139543e+01     1.115997    0.5353557 -84.71  0.004289736    3.145    0.682
         3 -15.1029     42.4323      8.0833   9.3006240906e+01   6.7402984660e+01     1.545766    0.9385821  -4.27  0.008211947    1.586    0.369
         4 -13.6827      8.8918      3.2601   1.0559067699e+02   7.1762229527e+01    0.4706819    0.4097183  -7.87  0.003699224    1.512    0.339
         5 -14.3277     24.4884     14.1408   1.0316144270e+02   6.8897092345e+01    0.4883014    0.3230414  21.84  0.002334491    1.433    0.302
         6 -15.3149      8.2647     29.5418   1.1652301226e+02   6.8144954182e+01     0.829982    0.6994351  11.01   0.00661001    1.415    0.293
         7 -15.5523     14.6940     18.9370   1.0958628832e+02   6.9210601944e+01     1.089692    0.5619321 -21.07  0.004993127    1.791    0.442
         8 -13.7793    189.3815     26.4849   6.5137097245e+01   3.4948088847e+01    0.7062365    0.3200056 -60.21  0.002855085    2.874    0.652
         9 -15.6244     99.5414     12.8610   7.7119675165e+01   5.7048539352e+01     1.153211    0.6277966  55.74  0.003286403    1.650    0.394
        10 -12.9798    245.3166     16.6214   5.7162935533e+01   2.3376310108e+01    0.3842867    0.2297401 -29.85  0.002156131    2.133    0.531
        11 -11.4525    201.9077     11.7794   6.0168676053e+01   3.3643913630e+01    0.1834041    0.1497842  70.61 0.0004054152    1.187    0.158
        12 -12.8810    214.0564     10.1852   5.8598709063e+01   3.1015791527e+01    0.4175768    0.1478825  64.03  0.001868817    2.416    0.586
        13 -10.8334    153.5126      8.4319   6.5368868533e+01   4.5406339413e+01    0.1285798    0.1072096  67.89  6.72032e-05    1.012    0.012
        14 -12.8900    223.7459      4.9570   5.6625034837e+01   2.9399446205e+01    0.3912426    0.2220717 -36.38  0.002237185    1.901    0.474
        15 -12.4125    229.3401      4.6407   5.6096050390e+01   2.8198901725e+01    0.2112734    0.1568718 -67.75 0.0004889917    1.142    0.124
        16 -11.1778     67.3024      4.0846   8.2585170907e+01   6.3914235008e+01    0.1618651    0.1289279  12.00 0.0007613153    1.100    0.091
        17 -10.9243    192.7441      3.0259   5.9110847929e+01   3.6670761785e+01    0.1409647    0.1045641 -39.39 0.0004178521    1.509    0.337
        18 -11.7896     81.0714      1.6789   7.7640449120e+01   6.1626369385e+01    0.4828311   0.09135128  51.34  0.001819565    3.592    0.722
        19 -10.9866    232.5050      1.4819   5.5216483020e+01   2.7847865648e+01    0.1212494   0.09279629 -81.00 -1.844274e-05    1.003    0.003
        20 -11.3268     59.4889      1.5074   8.3987878971e+01   6.5448683544e+01    0.2046582   0.09474225  46.05  0.001113296    1.897    0.473
        21 -15.0342    122.4088     36.9368   7.9917104764e+01   4.9556734372e+01     1.425799    0.5439887  50.38  0.004622604    2.282    0.562
        22 -15.6268     15.3970    175.4193   1.4193047521e+02   3.6670387410e+01     2.449069     1.137203  81.64   0.01148056    2.419    0.587
        23 -12.9796     58.2607    245.8937   1.3983415131e+02   1.6303821704e+01     0.420309    0.3479338  28.02  0.002804116    1.758    0.431
        24 -12.1734      2.8835    249.8993   1.4953613429e+02   2.2123187072e+01    0.2853616    0.1677321  52.88  0.002023767    1.454    0.312
        25 -14.4347      8.9584    245.5926   1.4833176655e+02   2.2315993759e+01    0.7389131    0.3913434  62.24  0.003264091    1.459    0.315
        26 -12.5160     48.9640    181.3811   1.3507850930e+02   3.1661054959e+01    0.4170996    0.2293475 -53.06  0.002073387    1.903    0.475
        27 -11.9057    122.1379    181.5081   1.1782732985e+02   2.0098714683e+01     0.377306    0.2401218  82.52   0.00151443    2.371    0.578
        28 -12.3738     87.0117    180.9977   1.2611045976e+02   2.6348033889e+01    0.3340681    0.1677009  29.58  0.001340018    2.607    0.616
        29 -13.5925    124.0590    167.1553   1.1463952153e+02   2.3093183145e+01    0.7129177    0.4491991 -72.75  0.002965245    1.996    0.499
        30 -12.6089     25.5238    155.4802   1.3740833137e+02   4.0387307850e+01    0.3672968    0.2503029 -40.44  0.002111521    1.795    0.443
        31 -12.7192     77.5962    157.2276   1.2449556515e+02   3.3577580753e+01    0.4370431    0.2995366  34.18  0.001365026    1.639    0.390
        32 -13.4185     73.8691    153.5729   1.2481924718e+02   3.5028000869e+01    0.6466357    0.4554309  29.07  0.003278627    1.687    0.407
        33 -12.9038    110.6700    155.2999   1.1560202381e+02   2.8461978937e+01    0.5438626    0.3521913 -86.95  0.002192926    2.248    0.555
        34 -12.7131    189.3968    156.0261   9.7218383212e+01   1.1992574210e+01    0.3190787    0.2395407  46.45  0.001532562    1.362    0.266
        35 -12.5885    189.2008    150.2665   9.5963207213e+01   1.3237572659e+01    0.3844248    0.2057071 -30.00  0.001418505    2.413    0.586
        36 -12.0323    103.4443    150.0089   1.1638482267e+02   3.1059823403e+01    0.3530814    0.2837348 -31.37  0.001749839    1.480    0.324
        37 -12.5686    201.3124    191.4305   1.0223079867e+02   2.5138593150e+00     0.342849    0.2512869  32.69  0.001763849    1.362    0.266
        38 -10.7170     44.5262    145.4704   1.3118243999e+02   4.0816155574e+01    0.1346947    0.1137872 -71.36 6.814089e-05    1.015    0.015
        39 -12.3291    148.3968    141.8681   1.0320586353e+02   2.3991953518e+01    0.4991446    0.2215364 -44.75   0.00177207    2.255    0.556
        40 -12.3958     42.4729    139.8240   1.3083462648e+02   4.2404178952e+01     0.212379    0.1948686  39.83 0.0007769201    1.280    0.219
        41 -11.9268     61.0180    133.8208   1.2467561973e+02   4.1626515756e+01     0.255872    0.1962542  52.07 0.0004908991    1.441    0.306
        42 -12.8239    132.8352    131.9233   1.0469389003e+02   2.9597863089e+01    0.3758765    0.2501443 -82.11  0.001443416    2.358    0.576
        43 -12.4547     25.7602    127.2086   1.3340786908e+02   4.7046679594e+01    0.2409284    0.1934974 -39.42  0.001040894    1.339    0.253
        44 -14.3082     29.4636    122.4944   1.3159790589e+02   4.7818218272e+01    0.7461311    0.2910141 -58.84  0.003383933    1.987    0.497
        45 -14.5537    103.9328    123.1189   1.1025016980e+02   3.7389605570e+01      1.30615    0.8415319  43.14  0.005931624    1.618    0.382
        46 -13.4601     83.7515    116.1737   1.1433785868e+02   4.2504348254e+01    0.9114663     0.673197  33.08   0.00464984    1.480    0.324
        47 -14.9236    106.6255    108.1776   1.0572391718e+02   4.0279839788e+01     1.117883    0.7741911 -42.54  0.005274157    1.409    0.290
        48 -15.4806     18.0346    111.4319   1.3306747063e+02   5.1318663961e+01     1.224762     1.113294  22.42  0.005211917    1.360    0.265
        49 -14.7925      2.4784     96.9018   1.3535274657e+02   5.5568786880e+01      1.34922    0.6804715 -77.31  0.005963693    2.015    0.504
        50 -15.6361     20.7025     96.5617   1.2953475765e+02   5.4438051536e+01     1.354392    0.8597038 -61.10  0.007478775    1.302    0.232
        51 -15.1861     29.0686     92.8373   1.2604159176e+02   5.4564892906e+01     1.040104    0.8400704 -76.11  0.006643779    1.358    0.264
        52 -12.7725      3.9877    119.8870   1.3836700136e+02   5.0370359395e+01      0.43861    0.1954672  22.61  0.002309365    2.815    0.645
        53 -12.5446     45.6482    110.2599   1.2448685267e+02   4.9036361814e+01    0.5502925     0.321879 -39.09  0.002763645    1.739    0.425
        54 -11.5441     60.7344    124.7378   1.2297051149e+02   4.3839540446e+01    0.2428641    0.1789074  11.25  0.001267695    1.766    0.434
        55 -12.1727     61.5626    108.8521   1.1928318553e+02   4.7439720673e+01    0.4223891    0.2331087 -67.74  0.001852185    2.124    0.529
        56 -12.5638    136.1457    103.5291   9.6563399188e+01   3.5150741057e+01    0.4931608     0.285354  51.88  0.001593921    1.788    0.441
        57 -11.2932    166.9934    102.6421   8.9076243807e+01   2.8217620790e+01    0.3403389    0.1541514 -51.01   0.00118793    2.445    0.591
        58 -14.1259     92.8450    109.9964   1.1015255967e+02   4.2393668760e+01     1.027653    0.7404017  69.38  0.004773696    1.902    0.474
        59 -12.0553    120.0075    101.4637   1.0021656299e+02   3.9058200042e+01     0.224307    0.1497191  45.73 0.0003697441    1.524    0.344
        60 -12.1673     49.5235     95.0242   1.1983022316e+02   5.2016636821e+01    0.2662462    0.1839541 -82.45  0.001267003    2.064    0.515
        61 -12.4156     43.4973     92.4675   1.2119274984e+02   5.3243148734e+01    0.5071787    0.2251125 -64.42   0.00210984    2.620    0.618
        62 -12.7360     47.0017    100.0856   1.2183634363e+02   5.1187352876e+01    0.5093117     0.363379  71.92   0.00266542    2.062    0.515
        63 -12.7955     52.2356     98.0757   1.1968612849e+02   5.1028971974e+01     0.388722    0.2556909 -21.55  0.001730125    1.863    0.463
        64 -11.8804    137.0243     95.8061   9.4220619327e+01   3.6540575334e+01    0.3037917    0.2094655 -48.67   0.00114622    1.475    0.322
        65 -12.5339     62.4823     99.3628   1.1672601304e+02   4.9450460126e+01    0.6123948    0.3896415  81.89  0.002443639    3.358    0.702
        66 -12.2445    180.4159    121.4990   9.0998374415e+01   2.1227346960e+01    0.3330712    0.2310077  37.36  0.001385886    1.634    0.388
        67 -11.4440     89.1590     87.6451   1.0519850680e+02   4.7846064677e+01    0.2887792    0.1265558  47.50  0.001102418    2.652    0.623
        68 -13.3661    188.2653     84.4386   8.0070064598e+01   2.6565800536e+01    0.5413501    0.2698136  51.07  0.001293503    2.025    0.506
        69 -13.8648    160.9585     80.5834   8.4431784163e+01   3.3852130195e+01      0.72247    0.4577273  27.02  0.001916316    2.378    0.579
        70 -12.1131    216.7872     80.9163   7.4440857818e+01   2.0440310420e+01    0.3896674    0.1473483 -44.84  0.001039995    2.443    0.591
        71 -14.3545     39.4482     67.8561   1.1612873375e+02   5.8716894416e+01      1.82388    0.4781532  23.82  0.005844919    5.798    0.828
        72 -14.1348     64.7041     65.5665   1.0644861619e+02   5.6000129713e+01    0.8375055    0.3675349  31.43  0.003676911    2.483    0.597
        73 -13.7000     51.6917     69.8030   1.1229918220e+02   5.6946546812e+01    0.7882869    0.5583746  79.83  0.003683159    3.164    0.684
        74 -13.4434     56.6378     78.6447   1.1315062011e+02   5.4590091923e+01    0.5072132     0.343735 -19.43  0.001860752    1.645    0.392
        75 -13.6263     60.8608     75.5457   1.1081556854e+02   5.4648065890e+01    0.4855076    0.3240992 -46.64  0.001102871    1.391    0.281
        76 -14.4991      5.6231     63.7273   1.2762794439e+02   6.2256964885e+01    0.6460193    0.4944705 -22.99   0.00389665    1.250    0.200
        77 -12.8717    134.8043     79.5757   9.0139652643e+01   4.0164442161e+01    0.8446391    0.3945636  58.38  0.002985872    2.514    0.602
        78 -11.6610    113.8480     80.5763   9.5909454832e+01   4.4527141590e+01    0.2705436    0.2503698 -74.41  0.001315047    1.225    0.184
        79 -11.3162     89.9906     81.0016   1.0299441155e+02   4.9026597945e+01    0.2192447    0.1810796 -88.47  0.001141672    1.708    0.415
        80 -11.2094     69.5712     80.2281   1.0926793681e+02   5.2489740761e+01    0.1938343     0.115922 -37.15 0.0009430407    1.588    0.370
        81 -11.8816    238.3339     79.6725   7.1098501975e+01   1.5834647912e+01     0.148246   0.09434117 -69.25 0.0007051701    1.718    0.418
        82 -12.2117     41.7625     77.3971   1.1795892962e+02   5.6587980384e+01    0.2749407    0.1976689 -46.17 0.0008334699    1.195    0.163
        83 -13.6756    170.1511     77.2840   8.1639412957e+01   3.2215632228e+01    0.3828089    0.3091297  53.21  0.001894886    1.224    0.183
        84 -13.3040     92.0008     60.3193   9.5869870876e+01   5.2410024156e+01    0.7415492    0.4530188 -51.36  0.003523225    2.028    0.507
        85 -12.7148     81.4852     70.2408   1.0235954342e+02   5.2528844666e+01    0.4370777    0.3079591  44.95  0.002319338    1.554    0.356
        86 -13.6540     87.5419     65.7762   9.9022622351e+01   5.2285651193e+01    0.5067844    0.3576313  -8.79  0.001499532    1.693    0.409
        87 -12.9946    199.8926     70.0761   7.4450542395e+01   2.6229071143e+01    0.5775961    0.2883408  57.52   0.00201726    1.957    0.489
        88 -13.6919     28.5542    246.2503   1.4510599922e+02   2.0002277360e+01    0.4326663    0.2752852  73.00  0.002698412    1.202    0.168
        89 -12.8155    135.7123     66.3047   8.5982864285e+01   4.2271176762e+01    0.4555092    0.3059303  44.80  0.001370641    1.450    0.310
        90 -11.3167     99.6948     65.0963   9.5131039918e+01   5.0148268592e+01     0.199352    0.1776715 -22.56  0.001072953    1.101    0.092
        91 -13.3010     75.2033     74.2333   1.0563053533e+02   5.2802074382e+01     0.693598    0.3449415  24.29  0.002851375    2.691    0.628
        92 -13.1292     78.3782     61.0745   1.0040843563e+02   5.4673996527e+01    0.4119824    0.3781523  30.84  0.002583462    1.188    0.158
        93 -12.0299     38.8511     60.5318   1.1417298085e+02   6.0158756034e+01    0.2355683    0.1601531 -63.13  0.001320483    1.954    0.488
        94 -12.2578     24.5318     60.0241   1.1945495763e+02   6.1620254628e+01    0.2653523    0.1729156 -42.27  0.001058491    1.236    0.191
        95 -14.8932    119.5836     55.1011   8.6469517619e+01   4.7661023351e+01    0.8024732    0.4381437  40.11  0.001851146    1.843    0.457
        96 -13.5299    177.8825     58.0665   7.5027299938e+01   3.3470788729e+01     0.648453    0.4967976  84.78  0.002224953    1.347    0.258
        97 -12.4148    109.4332     54.3408   8.8886427590e+01   4.9935766687e+01    0.3479155    0.3018578 -19.24  0.001579307    1.175    0.149
        98 -13.7257    103.1879     50.8078   8.9433704982e+01   5.1745529483e+01    0.3695073    0.3501364   3.55 0.0009081931    1.068    0.063
        99 -13.1050     97.6013     50.4109   9.0888692263e+01   5.2911361766e+01    0.7953805     0.356123 -45.61  0.003274206    2.710    0.631
       100 -12.7543     66.4167     50.6736   1.0089952564e+02   5.8300671286e+01    0.4109839    0.2315601  38.61  0.002140627    1.817    0.450
       101 -12.2822      6.0584     50.6644   1.2408697247e+02   6.4693321686e+01    0.2388585    0.1513032 -30.02  0.001282703    1.316    0.240
       102 -10.6140     86.2823     49.6454   9.4018234098e+01   5.5152332840e+01    0.1233995    0.1061608 -69.58 0.0005595929    1.661    0.398
       103 -13.2886    212.0030     43.2503   6.6261639713e+01   2.7405036017e+01    0.5823429    0.1893687  59.90  0.002242948    2.795    0.642
       104 -14.2246     95.6842    236.9772   1.3179093295e+02   1.2565559096e+01    0.5951892    0.3711653  58.76  0.001872546    1.438    0.305
       105 -12.7426    158.7271     43.5598   7.4449745783e+01   4.0218565643e+01    0.6724838     0.210005  59.66    0.0023555    2.885    0.653
       106 -12.2220    147.1068    238.8654   1.2167784051e+02   3.5705731069e+00    0.2062857    0.1667626  63.28 0.0008480827    1.262    0.207
       107 -12.5677     24.2536    217.3083   1.4377469628e+02   2.6426977547e+01    0.6287246    0.3096319  84.46  0.003349282    1.908    0.476
       108 -13.6380      8.6701     42.8451   1.2072780574e+02   6.5916387336e+01    0.7407801    0.5200696  50.31   0.00471213    2.506    0.601
       109 -13.8117     20.4286    224.6126   1.4502724674e+02   2.5303827935e+01    0.3987365    0.3036842  61.93  0.001715567    1.221    0.181
       110 -13.4828     23.8384    230.9796   1.4487001678e+02   2.3608250401e+01    0.2790525    0.1927005 -75.91  0.001413314    1.363    0.266
       111 -13.7202     26.5803    226.2573   1.4402971232e+02   2.4275690106e+01    0.4340452    0.2852507 -80.44  0.002021152    1.303    0.233
       112 -13.1090    246.9725     37.6082   6.1186957965e+01   2.0330762864e+01    0.5710177    0.2611324 -74.74  0.002387428    2.926    0.658
       113 -12.7849     75.8111     37.3856   9.2961071294e+01   5.8755512433e+01    0.2767739    0.2151302  27.43 0.0008663342    1.174    0.148
       114 -13.0178    205.3151     40.4208   6.6448551559e+01   2.9369992819e+01    0.4857676    0.2560445  89.36  0.002024745    2.370    0.578
       115 -12.1416     70.3297     36.6213   9.4489009273e+01   5.9775137715e+01    0.2338685    0.1853785  10.91 0.0005441273    1.131    0.116
       116 -12.6318     47.1891     32.4461   1.0124428503e+02   6.3764844196e+01    0.3437169    0.1923202   1.91  0.001732191    2.367    0.578
       117 -13.4273     34.0060     32.7763   1.0661619404e+02   6.5308244387e+01    0.4977663     0.244647  41.48  0.002604244    2.764    0.638
       118 -12.6426     27.4659     33.6026   1.0963998552e+02   6.5870077315e+01    0.3200315    0.2360966 -58.61  0.002029709    2.118    0.528
       119 -13.0590     23.4471     29.4898   1.0981399011e+02   6.6884283626e+01    0.4198582    0.2608226 -15.31  0.002381074    1.457    0.313
       120 -12.4611    153.8825     46.6384   7.6243266095e+01   4.0966869986e+01    0.4748925    0.2289276  52.83  0.002045775    1.886    0.470
       121 -14.2035    166.3991     30.3856   6.9462357819e+01   4.0029953931e+01    0.7513753    0.4822902  65.62  0.002546432    1.385    0.278
       122 -13.0326    152.3666     31.4788   7.2132127633e+01   4.3274499775e+01    0.3677769    0.3454292 -48.72  0.001278328    1.172    0.147
       123 -14.2136    145.6115     30.6540   7.3121988611e+01   4.4976295151e+01    0.9538989     0.458911  64.12  0.003696071    1.950    0.487
       124 -12.5059    198.6772     37.5235   6.6620356060e+01   3.1337795128e+01    0.3371538    0.2024947  89.63   0.00148324    1.816    0.449
       125 -13.7941     66.5118    223.3688   1.3610767817e+02   1.9789399374e+01    0.7172305    0.5607564  46.72  0.004492971    1.324    0.245
       126 -13.0305     56.1629     27.4386   9.5921883438e+01   6.3192725576e+01    0.3813117    0.2344603  40.84  0.001474535    1.698    0.411
       127 -12.4751    139.2462     21.6041   7.1583921127e+01   4.7468486016e+01    0.2900119    0.2032034  63.55 0.0005173007    1.270    0.213
       128 -10.9771    223.2340     21.6317   6.0173261204e+01   2.7615724159e+01    0.1695422    0.1018663  65.78 0.0003963406    1.569    0.362
       129 -14.6434     62.5523    214.8672   1.3600315693e+02   2.2190437375e+01    0.7672372    0.4885767  64.79  0.004284387    1.436    0.304
       130 -12.3925     94.4968    218.4927   1.2977169991e+02   1.6593748130e+01    0.2804047    0.1217248  40.79  0.001209507    2.160    0.537
       131 -11.1389     70.8371     16.8617   8.6678714795e+01   6.2083943778e+01     0.146153    0.1333024  32.98 0.0004275215    1.278    0.217
       132 -12.0540    186.2937     14.0068   6.2452319634e+01   3.7082212835e+01    0.1759114    0.1556029 -78.80 0.0006631222    1.109    0.098
       133 -13.1729     99.2042    215.6571   1.2839829712e+02   1.6438856626e+01    0.4070638    0.2619151 -74.86  0.002082591    1.650    0.394
       134 -12.1590    200.4968    215.4771   1.0698136178e+02  -1.7073746488e+00    0.2514086    0.2284709  14.22  0.001510609    1.007    0.007
       135 -13.9111      9.4152    211.1266   1.4608339612e+02   2.9294847227e+01    0.6562767    0.2800375  43.65  0.003607311    2.200    0.545
       136 -11.5533    156.4338    214.2476   1.1587314895e+02   6.5671256461e+00    0.2809347    0.1669711  32.52  0.001285826    1.762    0.433
       137 -13.1098     57.3542    203.8239   1.3587111457e+02   2.5367845142e+01    0.4247396    0.2248632 -89.71  0.001993709    2.095    0.523
       138 -13.3013     39.2672    195.5861   1.3881860522e+02   2.9526052920e+01    0.4088519    0.3314858  82.26  0.002666662    1.040    0.039
       139 -14.3003    112.3027     40.3160   8.3481686605e+01   5.1324450807e+01    0.7973725    0.4556913  26.53  0.002988168    2.225    0.551
       140 -13.2588     16.6391    196.1295   1.4353644506e+02   3.1856093455e+01    0.5744263     0.209429 -60.97  0.002734546    2.476    0.596
       141 -14.1366     30.0189    169.1816   1.3798005508e+02   3.6700450634e+01    0.7083648    0.6073943 -73.53  0.001212277    1.151    0.131
       142 -13.6324     22.6208    181.3297   1.4093971110e+02   3.4616639524e+01    0.5082983    0.4156821  88.73  0.002316325    1.065    0.061
       143 -15.4115      7.3395    184.1740   1.4442206585e+02   3.5404797710e+01      1.31868    0.9298421  88.40  0.008829083    1.097    0.088
