#   1 NUMBER                 Running object number                                     
#   2 MAG_AUTO               Kron-like elliptical aperture magnitude                    [mag]
#   3 X_IMAGE                Object position along x                                    [pixel]
#   4 Y_IMAGE                Object position along y                                    [pixel]
#   5 X_WORLD                Barycenter position along world x axis                     [deg]
#   6 Y_WORLD                Barycenter position along world y axis                     [deg]
#   7 A_WORLD                Profile RMS along major axis (world units)                 [deg]
#   8 B_WORLD                Profile RMS along minor axis (world units)                 [deg]
#   9 THETA_WORLD            Position angle (CCW/world-x)                               [deg]
#  10 FWHM_WORLD             FWHM assuming a gaussian core                              [deg]
#  11 ELONGATION             A_IMAGE/B_IMAGE                                           
#  12 ELLIPTICITY            1 - B_IMAGE/A_IMAGE                                       
         1 -14.1737     68.2847    144.7265   9.8818911385e+01   3.7601995690e+01     3.648644     1.743471  68.36  0.004788729    5.654    0.823
         2 -13.8363    206.5868     42.0265   4.0888512003e+01   2.8811705504e+01     1.415285     1.287621  24.06  0.005792233    1.507    0.336
         3 -13.4951    214.4400     37.4374   3.8962639235e+01   2.7669159117e+01     1.016855    0.6991931 -57.59  0.003920183    1.300    0.231
         4 -12.7828    221.8124     30.3165   3.6655251111e+01   2.6971240755e+01    0.6023619    0.4265561  53.59  0.001391396    1.708    0.415
         5 -13.7943    234.2858     19.1565   3.3250212690e+01   2.5690750561e+01     1.038129    0.8248254  53.53   0.00266277    1.663    0.399
         6 -10.9386      2.7556      4.7012   8.6062423528e+01   7.3881527173e+01     0.314639    0.1233959 -34.89  0.001727683    2.175    0.540
         7 -10.0421    250.2435      2.2073   2.8905744508e+01   2.4398536267e+01    0.2122219    0.1293095 -50.39  0.001413811    1.359    0.264
         8  -9.7352     16.9948      1.4809   7.6010563116e+01   7.2893124018e+01    0.1298068   0.09130257  47.37 0.0004578494    2.391    0.582
         9 -11.1866    184.3623    216.6706   8.3030814170e+01   1.9459815328e+00    0.2669825    0.2226097  67.71  0.001530737    1.717    0.418
        10  -9.8439    134.6557    250.3237   9.8388105892e+01   3.8800492581e+00    0.1950102    0.1344382  60.34   0.00108434    1.716    0.417
        11 -13.6103     45.0079    216.9251   1.1395828809e+02   2.3280658137e+01       1.2427    0.8184292  24.95  0.002689265    1.834    0.455
        12 -15.2659      5.0792    177.6370   1.1981515688e+02   3.6340854496e+01     8.409591     1.176399 -77.35   0.02176362    7.135    0.860
        13 -15.1365    113.2201    230.0263   1.0034727407e+02   1.0918493563e+01       6.4767     1.256717  36.63   0.01948071    4.351    0.770
        14 -14.2401      4.3422    244.3933   1.2384422487e+02   2.1973477971e+01      1.48758     1.073294 -89.32   0.01094531    1.262    0.208
        15 -10.9010    195.5916    199.1627   7.7644650583e+01   3.2063120560e+00    0.3311588    0.2521344 -77.22  0.001651995    2.292    0.564
        16 -10.6118    192.1998    193.3945   7.7256284171e+01   4.8189822440e+00    0.4552355    0.2633977 -65.47  0.001683492    3.771    0.735
        17 -10.4630     56.2194    193.0206   1.0898905023e+02   2.7335067281e+01    0.2830229    0.1997714  82.91 0.0006203036    1.398    0.284
        18  -9.6473     99.5425    180.7306   9.6433044458e+01   2.3886419103e+01    0.2624665    0.1361827 -53.81  0.000721204    1.949    0.487
        19 -12.1601     56.2917    177.1332   1.0705211660e+02   3.1142904281e+01    0.4547682    0.3277469 -40.14  0.001650938    1.713    0.416
        20 -12.0413     62.0697    171.8134   1.0483202269e+02   3.1691616299e+01    0.3638244    0.2875464 -41.56 0.0004722168    1.474    0.321
        21 -13.1804     68.0208    129.0989   9.5938331254e+01   4.1548555857e+01     3.192948     1.557414  65.61  0.006601465    5.363    0.814
        22 -13.3184     79.6265    156.2041   9.7600385791e+01   3.3052088098e+01     1.336011     0.965197  80.22  0.001257972    1.631    0.387
        23 -14.8848      9.3902    207.6950   1.2090003864e+02   2.9120589810e+01     1.718455      1.24502  78.08  0.007139998    1.102    0.093
        24 -11.4754     53.8163    147.4514   1.0350309550e+02   3.8845123375e+01    0.4799437    0.1878155 -65.32  0.001841081    2.391    0.582
        25  -9.9210    133.9007    146.1372   8.0883770616e+01   2.5764051459e+01    0.5584473   0.09144291 -49.40  0.001220801    6.147    0.837
        26 -10.6005     47.6729    146.0295   1.0506943071e+02   3.9945669515e+01    0.2058332    0.1691933 -69.84  0.001075554    1.101    0.092
        27 -12.3236     83.3664    140.4907   9.3595150883e+01   3.6380595377e+01    0.3806881    0.2787278 -57.34 0.0005891403    1.313    0.238
        28 -11.9355     72.5817    162.3216   1.0057679823e+02   3.2579104162e+01    0.3781642    0.3446577  62.50 0.0003206084    1.077    0.072
        29 -10.8110     95.1819    142.1964   9.0524695934e+01   3.3990758407e+01    0.3760217    0.3209464 -21.51  0.001046537    1.368    0.269
        30 -10.1766     98.7469    139.0091   8.8837657454e+01   3.4147306279e+01    0.3792101    0.2691781 -16.32  0.001623681    2.061    0.515
        31 -10.6157     28.2692    142.9860   1.1028124417e+02   4.2754616815e+01    0.2183604    0.2011227  35.40  0.001263117    1.241    0.194
        32 -10.7829     47.5332    168.5720   1.0824915967e+02   3.4330181487e+01    0.2612566    0.2086072  70.61 0.0006128142    1.202    0.168
        33  -8.7945    183.7272    134.9826   6.6832518142e+01   1.7862064308e+01    0.1835035    0.1267613 -41.89 0.0002709733    1.392    0.281
        34 -10.8309    106.8389    130.9883   8.4754647562e+01   3.4607218196e+01    0.4167068    0.3503237  34.79  0.001241805    1.227    0.185
        35 -10.0953     40.9705    165.0092   1.0954810392e+02   3.5968276127e+01    0.1909851    0.1651487  83.73   0.00045179    1.046    0.044
        36 -10.9559     94.4302    127.3266   8.7520338893e+01   3.7749635519e+01    0.2859384    0.2552422 -35.30 0.0004691944    1.161    0.139
        37  -9.5161    114.9723    125.0082   8.1057444984e+01   3.4450711680e+01    0.2530408    0.1942893  -8.32  0.001128707    1.765    0.433
        38 -12.5834     34.3022    158.5074   1.1054787073e+02   3.8297835043e+01    0.8246234    0.3882012  67.05  0.002626231    2.928    0.658
        39  -9.9562    240.6689    122.6859   5.4175744529e+01   8.9997215364e+00    0.1296078    0.1006033  -4.70 0.0002926962    1.679    0.404
        40  -9.6015    105.3273    119.4502   8.2454235147e+01   3.7622190506e+01    0.2338618    0.2119428 -13.95 0.0005225115    1.209    0.173
        41 -13.2330     26.6328    203.8478   1.1690839478e+02   2.8274574732e+01    0.4966129    0.4409396 -48.22 0.0009171938    1.460    0.315
        42  -9.0730    167.9939    113.1782   6.4947672695e+01   2.5664676328e+01    0.2501895     0.177816  84.66  0.001067325    2.002    0.501
        43 -10.1348    205.1633    110.6216   5.7162625282e+01   1.8063022045e+01    0.3138242    0.2471951  35.63  0.001225708    1.489    0.329
        44 -13.5728     59.2839    157.9303   1.0357066587e+02   3.5513458342e+01    0.7926169    0.3968007 -55.90  0.003100361    1.873    0.466
        45 -10.9869     52.4962    104.4745   9.5787099157e+01   4.9640777978e+01    0.3067092    0.1274209 -57.74  0.001219535    2.196    0.545
        46  -9.5724     66.4707    103.5088   9.0766808203e+01   4.7976221620e+01    0.1420008    0.1354763 -60.75  8.96679e-05    1.070    0.065
        47 -10.1209    241.3097     99.3282   4.9197027315e+01   1.2792530808e+01    0.1244886    0.1016721  -5.19  0.000290215    1.662    0.398
        48 -12.1670      1.7843     87.1819   1.1075649143e+02   5.8113206846e+01    0.7671497    0.1615151 -69.86  0.002544235    4.244    0.764
        49 -11.7143      2.4242     78.2608   1.0894678215e+02   6.0091440490e+01    0.4825292    0.1853308 -69.16  0.002195914    2.345    0.574
        50 -10.8059     52.0147     90.4090   9.2592891914e+01   5.2971944070e+01    0.4185396    0.2868351  55.39  0.002075055    1.923    0.480
        51  -9.7364     41.7544     92.1840   9.6800446369e+01   5.3781037280e+01     0.274595    0.1985667  -2.93  0.001052786    1.617    0.382
        52 -10.5353     45.9711     91.4927   9.5080517701e+01   5.3461351992e+01    0.2717727    0.2011357  69.91  0.001395038    1.892    0.471
        53  -9.5056    161.6116     83.1804   5.8535602622e+01   3.2891370261e+01    0.2007998    0.1432745 -28.09  0.000425631    1.608    0.378
        54  -8.9025     49.9512     71.3180   8.8122613988e+01   5.7380305927e+01     0.216191   0.08876253  48.80 0.0007038317    4.466    0.776
        55 -10.6436     13.4660     60.2188   1.0031577371e+02   6.3316266651e+01    0.2185963    0.1854362 -38.75  0.000378426    1.057    0.054
        56 -11.8348     32.8363    234.0857   1.1783415555e+02   2.1052206071e+01    0.4562652    0.2432444  58.81  0.002142343    1.595    0.373
        57 -15.8653     34.2299    189.0063   1.1386499926e+02   3.0895489082e+01     7.418659     2.805958  72.16    0.0226064    5.218    0.808
        58  -9.0546    197.5314    223.4355   8.1536491692e+01  -1.2417050325e+00    0.1279439    0.1105519  10.74 0.0001954152    1.037    0.036
        59  -9.6927     29.7078     53.1601   9.0990572361e+01   6.3339893712e+01    0.1865334    0.1581308  20.44 0.0004709389    1.289    0.224
        60 -13.7543     11.2814    232.4614   1.2195984660e+02   2.3675423298e+01    0.8177325    0.4586572  80.84  0.005013536    1.529    0.346
        61  -9.4263     21.9432     42.7038   9.1118409629e+01   6.6053776656e+01    0.1646672    0.1370027  -4.97 0.0004888758    1.125    0.111
        62 -10.8995    129.8182     37.3142   5.1789063266e+01   4.7637527349e+01    0.3361126    0.2472509 -76.74 0.0006105519    1.710    0.415
        63  -9.0737    115.4840     31.5386   5.3078978434e+01   5.1696520611e+01    0.1356284    0.1210863  49.54 0.0003745333    1.005    0.005
        64 -10.1074    189.4837     15.4475   3.6527008885e+01   3.5958127910e+01    0.2294317    0.1890374 -84.71 0.0007286581    1.018    0.018
        65 -12.6816     57.6121    240.9910   1.1335328506e+02   1.6655329641e+01    0.5857194    0.3623989  54.89 0.0005070421    1.352    0.260
        66 -14.8625     40.7832    249.2396   1.1730912090e+02   1.7099417980e+01     4.144783    0.8212094  31.51   0.01324613    5.816    0.828
