#   1 NUMBER                 Running object number                                     
#   2 MAG_AUTO               Kron-like elliptical aperture magnitude                    [mag]
#   3 X_IMAGE                Object position along x                                    [pixel]
#   4 Y_IMAGE                Object position along y                                    [pixel]
#   5 X_WORLD                Barycenter position along world x axis                     [deg]
#   6 Y_WORLD                Barycenter position along world y axis                     [deg]
#   7 A_WORLD                Profile RMS along major axis (world units)                 [deg]
#   8 B_WORLD                Profile RMS along minor axis (world units)                 [deg]
#   9 THETA_WORLD            Position angle (CCW/world-x)                               [deg]
#  10 FWHM_WORLD             FWHM assuming a gaussian core                              [deg]
#  11 ELONGATION             A_IMAGE/B_IMAGE                                           
#  12 ELLIPTICITY            1 - B_IMAGE/A_IMAGE                                       
         1 -13.4098    190.1348     14.8409   5.4113297526e+01   3.5597047982e+01    0.9746537    0.6627299 -41.18  0.003218152    1.436    0.304
         2 -14.2544    206.8719      4.4351   4.8953643525e+01   3.2207957516e+01     1.747847     1.110972  58.39  0.004819227    1.585    0.369
         3 -13.7839    170.9154     48.6244   6.8500711679e+01   3.6371942703e+01      1.02489    0.8808296  -1.56 0.0009086296    1.221    0.181
         4 -15.1547    185.2107     33.6977   6.1071125399e+01   3.4696904066e+01      3.16517     1.699354  22.23   0.01104058    2.971    0.663
         5 -12.1205     50.5753      4.4545   8.2363497233e+01   6.9058965006e+01    0.3034836    0.2792426  88.66   0.00170127    1.743    0.426
         6 -10.1423    106.4927      1.4489   6.2887839262e+01   5.8493692218e+01    0.1392573    0.1254056  12.36 0.0008083832    1.012    0.011
         7 -12.2071    121.2724    212.3954   1.1495361530e+02   1.6890535200e+01     0.311032    0.1967889  57.60  0.001694664    1.374    0.272
         8 -19.6502     30.7269    156.3921   1.2667538630e+02   3.9081518933e+01     17.10874     4.998511 -78.87   0.07223748    3.318    0.699
         9 -11.4121     60.9872    190.2221   1.2362116304e+02   2.9039530827e+01    0.3335984    0.1778125 -78.06   0.00162501    1.794    0.443
        10 -10.0227    166.2299    188.3916   1.0368203915e+02   1.3262046119e+01    0.1809011    0.1028216  51.30  0.000950544    1.650    0.394
        11 -12.8420    127.0765    208.0701   1.1344079832e+02   1.6677024990e+01    0.4112946    0.2932851  15.69  0.002416076    2.330    0.571
        12 -11.2830    141.5319    199.5081   1.0978263370e+02   1.5719008860e+01    0.2072409    0.1607022 -50.49 0.0009064514    1.537    0.349
        13 -11.1868    110.1756    183.4096   1.1354351053e+02   2.3439636419e+01    0.2141701    0.1980973 -14.42   0.00125468    1.539    0.350
        14 -10.8726     99.4398    180.7656   1.1530043875e+02   2.5560579655e+01    0.2184011     0.182445  61.98 0.0005765988    1.065    0.061
        15  -9.4313     98.5628    213.4265   1.1901056581e+02   2.0033120210e+01     0.109846     0.086684  60.21 6.535374e-05    1.042    0.040
        16  -9.7264    209.9946    176.0121   9.3768697247e+01   7.2266690406e+00    0.1823954    0.1725323  40.16 0.0007436876    1.244    0.196
        17 -11.8584    144.5525    178.8924   1.0625941167e+02   1.8559526730e+01    0.3807423    0.1691382  44.77   0.00177694    1.990    0.497
        18 -12.4610    193.7798    194.8624   9.9827940053e+01   7.5746637520e+00     1.047698    0.5151137 -55.10    0.0044829    3.997    0.750
        19 -10.7629     88.3522    203.4485   1.1984781488e+02   2.3108841596e+01    0.3465137    0.1860016  63.28  0.001453632    1.760    0.432
        20 -10.0744     93.9425    205.0867   1.1900953151e+02   2.2054524433e+01     0.217345    0.1794969  -9.65  0.001016509    2.291    0.563
        21 -10.2311     95.2772    200.4422   1.1830049132e+02   2.2655644664e+01    0.3262403    0.1738889  81.09  0.001675748    2.585    0.613
        22 -10.7574    228.9944    171.7471   8.9763514659e+01   4.3857686559e+00    0.1664634   0.09658495  41.81 0.0008888858    1.576    0.366
        23  -9.9248    202.6815    171.0361   9.4118727492e+01   9.2385884062e+00    0.1764031    0.1581381   5.01 0.0005113634    1.092    0.084
        24 -12.1203    194.7594    168.0228   9.4966709038e+01   1.1142304075e+01    0.5266017    0.3851945 -61.89  0.002841708    2.018    0.505
        25  -9.8739    163.0742    203.5368   1.0649429456e+02   1.1573950494e+01    0.1603947    0.1522538  44.70 0.0003535296    1.147    0.128
        26 -10.3010    162.8898    168.5530   1.0101799899e+02   1.7007356547e+01    0.2768635    0.2031758  75.83 0.0009847579    1.830    0.454
        27 -13.9976     11.7233    206.7753   1.3320736987e+02   3.1355537641e+01    0.5541927    0.3131668  34.79  0.004006291    2.118    0.528
        28 -12.5014    155.5614    198.8674   1.0716899544e+02   1.3504483520e+01    0.5758407    0.3178559 -67.92  0.002719705    3.281    0.695
        29 -10.6389    229.5261    165.5042   8.8461464511e+01   5.0763061349e+00      0.12783    0.1096372  14.15 0.0001960144    1.033    0.032
        30  -9.0335    222.6830    162.3000   8.8967986387e+01   6.7398476352e+00    0.1156528     0.105463 -85.32 0.0003508503    1.616    0.381
        31 -11.2802    121.2163    198.4425   1.1334370635e+02   1.9127596081e+01    0.1974391    0.1583608 -69.56 0.0006084324    1.388    0.280
        32 -11.0347    189.6156    155.4304   9.3461443605e+01   1.4039915629e+01    0.3581635    0.3174808 -65.66  0.001676202    1.408    0.290
        33 -12.5406     99.4838    153.9985   1.1163653666e+02   3.0769897137e+01    0.5429941    0.3989057 -42.24  0.003090808    1.731    0.422
        34 -11.7485    133.8569    145.1573   1.0266037669e+02   2.6645629517e+01     1.159917    0.2886152 -54.77  0.003123585    5.842    0.829
        35 -11.0214    208.5708    197.3670   9.7726897820e+01   4.7464490162e+00    0.2066824    0.1887795  43.06 0.0007490214    1.277    0.217
        36 -10.8925    164.7024    152.4977   9.7682247992e+01   1.9397286862e+01    0.2946923    0.2140819  79.16  0.001459567    1.965    0.491
        37 -11.6437    144.0934    145.9411   1.0062746609e+02   2.4569787345e+01    0.4537706    0.2563762 -69.64  0.001802613    2.963    0.663
        38 -10.5653    174.4420    148.9655   9.5052391325e+01   1.8089631484e+01     0.262271    0.2278794  63.40 0.0007738774    1.249    0.199
        39 -12.5055     98.4245    139.6676   1.0957130710e+02   3.3923178319e+01    0.3013896    0.2448632  82.00 0.0006618672    1.186    0.157
        40 -12.0260    109.5929    139.5031   1.0698937331e+02   3.2113551530e+01    0.5077362    0.3062946 -36.50  0.002331452    2.345    0.574
        41 -10.5887    151.5551    150.4959   9.9953850358e+01   2.2294638002e+01    0.2634766    0.1271657  42.69 0.0006657616    1.994    0.499
        42 -11.4693    106.0831    130.7180   1.0617625935e+02   3.4568946142e+01    0.3851297    0.2818231 -70.99  0.001264546    1.374    0.272
        43 -11.4925    104.1342    126.2794   1.0578289189e+02   3.5855418921e+01    0.2817848    0.2357667 -43.68  0.001099037    1.328    0.247
        44 -10.9163    116.2905    130.0100   1.0364641084e+02   3.2935901632e+01    0.3158253    0.2544411 -34.24 0.0008469715    1.490    0.329
        45 -11.1793    135.6596    127.4309   9.8665800709e+01   2.9832246919e+01    0.5277368    0.1623685 -51.13  0.001696133    3.527    0.716
        46 -10.6076    120.7163    123.9875   1.0136734157e+02   3.3396125241e+01    0.3067319    0.1814751 -34.92  0.001201258    2.209    0.547
        47 -11.2571    203.3957    197.4698   9.8611908212e+01   5.6048770419e+00     0.206631    0.1988195  78.94  0.001499707    1.406    0.289
        48 -10.9882    160.3048    127.3578   9.3266166309e+01   2.4846009074e+01     0.406911    0.2513022 -52.98  0.001256386    1.800    0.444
        49 -10.3707    111.1352    119.0918   1.0261446517e+02   3.6189137456e+01    0.2205017    0.1957214  54.28 0.0003013538    1.158    0.136
        50 -10.5794    168.0869    112.9644   8.8177640972e+01   2.5859765052e+01     0.360387    0.2756957 -74.45  0.001257856    1.746    0.427
        51 -10.8805    135.0000    112.4993   9.5395830434e+01   3.3010683300e+01     0.475472   0.08151855 -45.53  0.001134417    5.718    0.825
        52 -10.3394    205.6199    110.1282   8.0175052720e+01   1.7948936529e+01    0.2736681    0.2067741  39.25 0.0006346704    1.333    0.250
        53 -10.8276    117.6600    109.8502   9.8931427616e+01   3.6976853915e+01    0.5633964    0.1988028  54.88  0.001676097    4.308    0.768
        54 -10.7063    118.7585    106.4024   9.7831814351e+01   3.7505758380e+01     0.232992      0.18505 -14.53  0.001151913    1.706    0.414
        55  -9.9467    134.5770    105.2877   9.3706535190e+01   3.4580579525e+01    0.2955888     0.138676 -48.87  0.001142807    2.118    0.528
        56 -11.9190    109.2748    189.6448   1.1449391831e+02   2.2469047472e+01    0.4671449    0.3098432   4.00   0.00185595    5.241    0.809
        57  -9.1979    137.3257    101.6510   9.2114630795e+01   3.4750841362e+01    0.1562669    0.1173903 -81.30 0.0007049159    1.753    0.430
        58  -9.1595    175.2680    193.6702   1.0287856237e+02   1.0921478994e+01    0.1127164   0.09212458  76.12 0.0002451387    1.580    0.367
        59  -9.6192     74.3519     73.8798   1.0167396134e+02   5.2338758773e+01    0.1926189    0.1523804 -51.25 0.0004460779    1.099    0.090
        60 -12.5633    171.0486     70.3775   7.5546385763e+01   3.2841602767e+01    0.5599655    0.3771942 -75.53  0.001205768    2.292    0.564
        61  -8.8744    168.2807    248.2838   1.1119240061e+02   5.1029803760e+00   0.09740345   0.06727336  26.21 0.0001621827    1.515    0.340
        62  -9.1209    169.3107    237.2917   1.0978583730e+02   6.2083532170e+00    0.1040362   0.07124138  24.71 0.0002547153    1.586    0.370
        63 -11.1589     99.3143    191.1844   1.1655338576e+02   2.3688859806e+01    0.3549247    0.1871081 -65.95  0.001515411    2.048    0.512
        64 -10.2377    198.9725    222.7473   1.0315550218e+02   3.3259794893e+00    0.1655589    0.1411504  26.61 0.0003891481    1.117    0.105
        65  -9.1488    115.4930     31.4454   7.4168318397e+01   5.2681369365e+01    0.1471446    0.1367388 -13.10 0.0001294483    1.019    0.019
        66 -11.3862    129.9788    211.6931   1.1335393099e+02   1.5673366759e+01    0.1938602    0.1477784  86.82 0.0004593218    1.505    0.336
