#   1 NUMBER                 Running object number                                     
#   2 MAG_AUTO               Kron-like elliptical aperture magnitude                    [mag]
#   3 X_IMAGE                Object position along x                                    [pixel]
#   4 Y_IMAGE                Object position along y                                    [pixel]
#   5 X_WORLD                Barycenter position along world x axis                     [deg]
#   6 Y_WORLD                Barycenter position along world y axis                     [deg]
#   7 A_WORLD                Profile RMS along major axis (world units)                 [deg]
#   8 B_WORLD                Profile RMS along minor axis (world units)                 [deg]
#   9 THETA_WORLD            Position angle (CCW/world-x)                               [deg]
#  10 FWHM_WORLD             FWHM assuming a gaussian core                              [deg]
#  11 ELONGATION             A_IMAGE/B_IMAGE                                           
#  12 ELLIPTICITY            1 - B_IMAGE/A_IMAGE                                       
         1 -12.9328      4.6860     20.5668   1.0480322614e+02   7.0444160931e+01     1.197735       0.6598 -48.89  0.007634528    1.365    0.267
         2 -12.2942     11.7610     11.0164   9.7245751215e+01   7.1628494025e+01    0.6789978    0.4678863 -19.23  0.004790644    1.204    0.169
         3 -11.7318    223.9754      9.5105   4.1709126587e+01   2.7546350006e+01    0.6449782     0.534386 -63.32  0.003237568    1.095    0.087
         4 -10.3301    165.7862    239.3878   1.0475877859e+02   3.0155966723e+00    0.3634849     0.324272 -59.96  0.002630072    1.447    0.309
         5 -10.5218    218.4754    248.1781   9.6734400787e+01  -6.3931859476e+00    0.4003195    0.1242483  42.31  0.001811203    2.680    0.627
         6  -9.4092    162.7512    249.5175   1.0660008622e+02   2.1086165119e+00    0.2515839    0.1384151  37.87  0.001475737    1.462    0.316
         7 -13.4859    119.1308    239.7774   1.1322439022e+02   1.0375531096e+01      1.31183    0.9833864 -57.66  0.009000806    1.642    0.391
         8 -10.3182    128.6189    247.3818   1.1235874901e+02   7.7456227461e+00    0.3605116    0.2541679 -53.32   0.00164372    1.806    0.446
         9 -12.7131     14.4222    175.0737   1.2715243930e+02   3.6215154499e+01     1.327652     1.173653  -1.83   0.01006652    1.842    0.457
        10 -12.7224     40.5586    175.5699   1.2186903387e+02   3.3506185476e+01     1.734891    0.8102201  60.52  0.008862471    2.145    0.534
        11 -14.3719     53.6098    195.9549   1.2112969910e+02   2.7702269817e+01     2.729869     1.542343 -48.97   0.01474566    2.512    0.602
        12 -13.5005     62.6291    220.4840   1.2157132824e+02   2.1787311980e+01     2.822023    0.9642388  61.97   0.01132956    3.790    0.736
        13 -13.8688     65.7823    204.2623   1.1953852372e+02   2.4486979328e+01     1.515665      1.18753 -69.25   0.01033576    1.377    0.274
        14 -12.8362     79.1733    196.1247   1.1604427629e+02   2.4289877242e+01    0.8930972    0.7474867 -77.56  0.004067737    1.213    0.176
        15 -13.7357     53.5814    235.8037   1.2430855585e+02   2.0163016139e+01     1.095451    0.7125537  51.08  0.005601338    1.288    0.224
        16 -13.9331     61.8316    246.3773   1.2367306962e+02   1.7335844473e+01     3.979451    0.2198562  40.47   0.01187432    7.544    0.867
        17 -13.4117     28.7780    246.6219   1.2894232441e+02   2.1176414811e+01     1.085734      0.40367  48.54   0.00671727    1.955    0.489
        18 -10.7198     12.2087    244.9215   1.3137490208e+02   2.3189366182e+01    0.2304123    0.1346779  86.12 0.0009541647    1.356    0.262
        19 -11.3939      5.0621    249.4209   1.3260313850e+02   2.3147064716e+01    0.4721204    0.1774159  52.58  0.001197975    1.829    0.453
        20 -11.5085      2.1450    234.8800   1.3247614846e+02   2.5870085204e+01    0.6429706    0.1399256 -78.49  0.003096882    3.857    0.741
        21  -9.8259     12.1888    239.1709   1.3113104383e+02   2.4163867865e+01    0.1458327    0.1081381  74.67  0.001231655    1.159    0.138
        22 -10.5515     27.0056    234.6995   1.2860013735e+02   2.3407512842e+01    0.1797334    0.1208801  73.52 0.0004292986    1.067    0.063
        23  -9.8713    242.4566    224.6653   8.8905354043e+01  -7.3669712911e+00    0.4732649    0.2486803 -28.85  0.002706068    2.004    0.501
        24 -13.2839    110.9014    206.9693   1.1095631056e+02   1.7358045412e+01     2.937257      1.35463  62.53   0.01203201    3.028    0.670
        25 -12.1852    144.5927    205.0912   1.0394838730e+02   1.2034945802e+01     1.906504     0.750154  50.66  0.007727114    2.568    0.611
        26 -12.6335    126.9570    212.1194   1.0844636959e+02   1.3794657549e+01     1.153444    0.7424232  80.14  0.005944644    2.157    0.536
        27 -11.2925    152.5297    220.7190   1.0466708791e+02   8.0294279653e+00     0.779627    0.4950382 -37.93  0.004359738    2.015    0.504
        28 -10.4419     84.7532    224.6313   1.1791713408e+02   1.8040109023e+01    0.3991309    0.2721714  69.87  0.002175716    1.300    0.231
        29 -14.1840     74.4431    245.7474   1.2153788680e+02   1.5809332629e+01     1.742954    0.6480765  46.92  0.009490244    2.026    0.506
        30 -10.3197    234.7045    220.2329   8.9475724767e+01  -5.6564817351e+00    0.5286281    0.2342006 -21.08  0.002447101    2.885    0.653
        31 -12.5403    138.1628    210.8152   1.0605990884e+02   1.2139492549e+01     1.761867    0.8600578  65.38  0.006328336    4.140    0.758
        32  -9.8840     49.8540    220.6695   1.2386639153e+02   2.3343278842e+01     0.333212      0.16611  75.76  0.001891623    1.980    0.495
        33 -10.5176     36.0082    214.0405   1.2583886930e+02   2.6194783794e+01    0.2229602    0.1866747 -63.10 0.0008064802    1.612    0.380
        34 -12.6276    245.4374    209.4021   8.5716164457e+01  -6.0239928737e+00     0.803602    0.5346907  23.18   0.00493624    1.276    0.216
        35 -12.4523    243.4166    202.2343   8.4746382176e+01  -4.8124593263e+00    0.9187632    0.5567088  13.58  0.005014792    1.703    0.413
        36 -12.7163    236.0449    198.9411   8.5414177913e+01  -3.1808159430e+00    0.8683508    0.4916905 -25.17  0.004637545    1.792    0.442
        37 -11.1582      9.9676    207.6603   1.2997608356e+02   3.0079052945e+01    0.4366523    0.4132798 -37.51   0.00317655    1.810    0.447
        38  -9.8836     27.9023    209.4287   1.2696445550e+02   2.7955250189e+01     0.244746    0.1612281  59.89  0.001037045    1.234    0.190
        39 -11.4686     93.9758    202.6197   1.1380741378e+02   2.0827252464e+01    0.7341282    0.5565672 -72.18   0.00397486    1.352    0.261
        40 -10.0672     29.9081    200.6553   1.2601294615e+02   2.9457589773e+01    0.4666668    0.2024383  66.72   0.00249066    2.188    0.543
        41 -12.1753    249.0050    181.2467   7.9725149233e+01  -2.9708187450e+00     1.016251    0.2754717 -35.81  0.003725235    3.577    0.720
        42 -11.8848    141.8811    186.8342   1.0162161027e+02   1.5882608435e+01    0.5078777    0.2418365 -45.51  0.002214851    2.363    0.577
        43  -9.7683     22.9760    186.7542   1.2632497393e+02   3.2977785647e+01    0.2721219    0.1685594  67.36  0.001714531    1.342    0.255
        44 -10.0544    208.4906    185.5790   8.7902308318e+01   3.5878417250e+00    0.3201228    0.1313716 -36.41   0.00132169    2.581    0.613
        45 -11.4876     31.4164    185.2056   1.2456640262e+02   3.2442954376e+01    0.6151626    0.3803187 -80.77  0.003133714    1.352    0.260
        46 -10.7335    120.2134    184.4354   1.0586471666e+02   2.0211043154e+01    0.3298353    0.2876849 -32.26  0.001955416    1.437    0.304
        47 -12.1546    195.2014    195.2686   9.2278678729e+01   4.5199418677e+00     1.229604     0.499392 -45.15  0.005062942    2.935    0.659
        48  -8.8305     77.8788    167.8219   1.1280853988e+02   3.0496985869e+01    0.1793541    0.1645595 -76.92 0.0004547317    1.166    0.143
        49 -11.4999     65.1629    164.2836   1.1522955747e+02   3.3030588086e+01    0.4634858    0.2559351 -49.32  0.001254557    2.108    0.526
        50 -10.6572     12.2128    161.9622   1.2662530696e+02   3.9206740858e+01    0.3169356    0.2678021  84.62  0.001389631    1.176    0.149
        51  -9.1738     83.8848    161.6325   1.1053578784e+02   3.1003561079e+01    0.2201735    0.1728979 -58.53 0.0006102114    1.294    0.227
        52  -9.9914     10.9148    155.1066   1.2635761400e+02   4.0806080605e+01    0.2500998    0.1483507  60.43  0.001174559    1.591    0.371
        53  -9.5096      8.5370    165.5016   1.2764844084e+02   3.8751167223e+01    0.1984765    0.1269208  44.29  0.001343252    1.649    0.394
        54 -11.5819     86.9995    145.8775   1.0724188985e+02   3.4130838536e+01    0.7952521    0.5618783 -87.37  0.001411594    1.555    0.357
        55 -11.1191      9.6474    145.1249   1.2579940700e+02   4.3108295841e+01    0.5718415    0.3084543  88.51  0.003069315    1.580    0.367
        56 -11.3289     68.2030    143.8769   1.1160515432e+02   3.7303765764e+01    0.5903734    0.3567186  63.51  0.002885194    1.884    0.469
        57  -8.5846     96.9603    129.5260   1.0157707432e+02   3.6336408614e+01    0.1991597    0.1440399  37.62  0.000562107    1.494    0.331
        58 -10.6605      2.4865    114.0168   1.2454268660e+02   5.0594804886e+01    0.4661723    0.2104685 -59.60  0.002595466    1.763    0.433
        59 -10.8079      2.8169    108.4043   1.2383658246e+02   5.1846086407e+01    0.4662864    0.3229281  75.94  0.002746021    1.449    0.310
        60  -9.2895     29.9877    106.0123   1.1586852829e+02   5.0448129280e+01    0.2641441    0.1008732 -38.55  0.000960389    4.145    0.759
        61  -9.4442     52.5185     89.5190   1.0572062820e+02   5.2042240513e+01    0.1352989    0.1141449 -54.21 0.0008100873    1.007    0.007
        62 -10.1827     58.4030     82.2047   1.0200469039e+02   5.3005643954e+01    0.1991922    0.1188756 -64.28 0.0009551305    1.721    0.419
        63 -11.6479     25.0736     45.5394   1.0395828778e+02   6.4248053064e+01    0.5393103    0.2413014  31.36   0.00277277    2.685    0.628
        64 -11.0039     32.8351     36.3211   9.7531026155e+01   6.5348055406e+01    0.3490616    0.1269139 -46.29  0.001600821    2.161    0.537
        65  -9.9165    197.9085     34.8446   5.1601886500e+01   3.1139600795e+01    0.2280422    0.1975431  38.91  0.001233401    1.258    0.205
        66 -11.4999    207.7290     28.7035   4.8559590936e+01   2.9398598923e+01    0.5753416    0.4929219  -7.55  0.003203775    1.350    0.259
        67 -11.0785    213.2355     21.3939   4.5908160762e+01   2.8880599892e+01    0.4462485    0.2908992  38.64  0.001643864    1.901    0.474
        68 -10.4724    200.6998    248.7860   9.9872633278e+01  -3.7533412812e+00    0.4222513    0.1663954  40.76  0.002148112    1.987    0.497
        69  -9.9754    141.1574    245.7030   1.0995729342e+02   6.0476560725e+00    0.4839498    0.1743079  47.99  0.002267995    2.306    0.566
