#   1 NUMBER                 Running object number                                     
#   2 MAG_AUTO               Kron-like elliptical aperture magnitude                    [mag]
#   3 X_IMAGE                Object position along x                                    [pixel]
#   4 Y_IMAGE                Object position along y                                    [pixel]
#   5 X_WORLD                Barycenter position along world x axis                     [deg]
#   6 Y_WORLD                Barycenter position along world y axis                     [deg]
#   7 A_WORLD                Profile RMS along major axis (world units)                 [deg]
#   8 B_WORLD                Profile RMS along minor axis (world units)                 [deg]
#   9 THETA_WORLD            Position angle (CCW/world-x)                               [deg]
#  10 FWHM_WORLD             FWHM assuming a gaussian core                              [deg]
#  11 ELONGATION             A_IMAGE/B_IMAGE                                           
#  12 ELLIPTICITY            1 - B_IMAGE/A_IMAGE                                       
         1 -12.8646     42.2306     45.9645   9.6433767984e+01   6.3081127182e+01     1.131012    0.7544347  58.20  0.002060564    1.896    0.473
         2 -12.1246    124.8512     27.9111   6.1272249768e+01   5.0803975413e+01     0.848627    0.7019843  24.62  0.002536077    1.290    0.225
         3 -12.1852     60.6011     45.8444   8.8939631276e+01   6.0676215600e+01     1.087618     0.509473 -52.53  0.004797662    1.881    0.468
         4 -10.8133    178.4826     21.3756   4.8962801518e+01   3.7348171930e+01    0.7365968    0.4004158  27.39  0.002784396    2.418    0.586
         5 -11.4676    182.6895     25.3854   4.9778979599e+01   3.5758122577e+01    0.7075575    0.3956254  43.81   0.00292798    1.905    0.475
         6 -10.1194     22.2186      4.8132   8.9933451425e+01   7.4040018468e+01    0.3713839    0.1588244 -57.03   0.00103541    2.285    0.562
         7 -11.2007     13.4585     24.0644   1.0335816566e+02   7.0712233007e+01    0.5794392    0.3821909 -58.43  0.002369794    1.175    0.149
         8 -12.7079     17.5816     13.7479   9.7165091515e+01   7.2646617953e+01    0.5904461    0.5641572  28.95 0.0008303346    1.312    0.238
         9 -11.0754    240.6253     33.2651   4.5533172954e+01   2.0246808329e+01    0.4897884    0.4190263 -71.26   0.00284838    1.327    0.246
        10 -12.1334    106.0232     20.1845   6.2609208778e+01   5.6542438456e+01    0.6471238    0.4359748 -49.89 0.0003968745    1.659    0.397
        11 -12.3822    105.7441     32.8767   6.8343942548e+01   5.4613620742e+01     1.088531    0.6228605   3.33  0.003418559    4.117    0.757
        12 -11.3782     19.9019     22.5423   9.9303588941e+01   7.0550720268e+01    0.7169268    0.3889205 -59.58  0.003832192    1.468    0.319
        13 -11.2014    165.0131     17.8121   4.9604149406e+01   4.1422074835e+01    0.5170406    0.3112054  34.86  0.001514216    1.880    0.468
        14 -11.4036    138.0938     21.9532   5.5910950867e+01   4.8204986100e+01      1.24857    0.3586642  53.81   0.00391724    3.123    0.680
        15 -10.8261    146.1150     16.6247   5.2217188063e+01   4.6713003884e+01    0.5384589    0.4368815  49.17 0.0001278408    1.231    0.187
        16 -12.2180    132.2675     15.0007   5.4136183721e+01   5.0612577039e+01     1.298602    0.6509776  79.05  0.002069556    2.776    0.640
        17  -9.5779    141.3877     12.4692   5.1336999687e+01   4.8466715314e+01    0.2627227     0.197731  -8.87 0.0008351419    1.362    0.266
        18 -12.6115    163.7065     28.0304   5.3605837594e+01   4.0568055349e+01    0.7610713    0.4405582  41.01 0.0005838606    1.872    0.466
        19 -10.5432     87.3840      7.5906   6.1660319925e+01   6.2599350830e+01    0.5917078    0.3944979  59.85  0.002669401    1.674    0.403
        20 -11.2407     91.0470     20.7302   6.7253200755e+01   5.9872140630e+01    0.7974668    0.4339148 -27.05  0.003445059    1.822    0.451
        21 -11.4789     85.9459     14.3643   6.5706751432e+01   6.1956629949e+01    0.6905409    0.3946624 -22.02  0.002137238    1.796    0.443
        22 -10.8586    214.5475     23.4575   4.5296740474e+01   2.7590915454e+01    0.5463097    0.3598493   8.17  0.002518306    1.762    0.432
        23  -9.1784     50.5438      6.5729   7.5281822665e+01   6.9924249063e+01    0.3528372    0.1591299  45.10  0.001589763    2.553    0.608
        24 -10.3920     47.0622     19.0630   8.3729309976e+01   6.8188332818e+01    0.3434038     0.306525 -46.00  0.001389702    1.110    0.099
        25 -12.3308     48.4066     13.0335   7.9981258271e+01   6.9128911500e+01    0.8064122    0.3863632  36.93   0.00374733    2.444    0.591
        26 -10.7669     32.3375     12.4507   8.7997828327e+01   7.1412599701e+01    0.2509609    0.2116105  66.86 0.0005573155    1.645    0.392
        27 -11.5761     35.6118     18.5466   8.9202486135e+01   6.9797085563e+01    0.6101226    0.2273827 -44.38  0.001784028    2.286    0.563
        28  -9.8970     62.8660      6.7170   6.9915930848e+01   6.7753293671e+01    0.3452354     0.230406  -2.30  0.001596561    1.859    0.462
        29 -10.0098     62.0000     11.8812   7.3229708289e+01   6.7083359425e+01    0.3383365    0.1467266 -39.22 0.0006949031    2.046    0.511
        30 -10.5414     65.7058     10.1362   7.0733404570e+01   6.6689629427e+01    0.3959462    0.2666512  49.66  0.001342237    1.684    0.406
        31 -11.9017     68.3304     18.0660   7.3952846409e+01   6.4886611360e+01    0.5569969     0.530684  71.13  0.002542648    1.268    0.211
        32 -11.5415    119.7437     57.9608   7.4071674385e+01   4.6951630619e+01     1.291157     1.006774  77.92  0.006262427    1.577    0.366
        33 -10.2818    120.2845     19.4976   5.8706477015e+01   5.3139882126e+01    0.5129027    0.2425128 -32.20  0.002017208    1.972    0.493
        34 -12.1860    239.0857     15.8262   4.0785852420e+01   2.2297928562e+01     1.034604    0.5201234  69.57  0.003379015    2.162    0.537
        35 -11.8835    233.8330      7.0371   3.8693144291e+01   2.4345396267e+01    0.8861276    0.4693524  87.62  0.003969516    2.237    0.553
        36 -11.8655    247.0472      6.9235   3.7728832348e+01   2.1229129797e+01    0.7547867    0.4597701   2.99  0.003439086    1.872    0.466
        37 -10.9875    242.3156      3.8099   3.7187432932e+01   2.2596760048e+01    0.4611814    0.2263894  70.68   0.00212166    2.191    0.544
        38 -10.9494    218.7952      3.2668   3.8728086695e+01   2.8409389628e+01    0.3719365    0.3229627 -13.50  0.001269182    1.126    0.112
        39 -11.1168    223.6578      1.8982   3.7945375222e+01   2.7296386385e+01    0.5733547    0.2877408  84.86  0.002462757    2.267    0.559
        40 -11.4305    192.5262      7.3379   4.2409372039e+01   3.4958729048e+01    0.7844017    0.4084537   4.99  0.002992176    2.490    0.598
        41  -9.6844    191.6805     16.6712   4.5656967498e+01   3.4280264916e+01    0.3594525    0.2597007   8.15  0.001698768    1.542    0.351
        42 -10.1361    225.9720     15.3213   4.1742548243e+01   2.5521230994e+01    0.4756146     0.170125 -27.07   0.00180947    2.314    0.568
        43 -11.8573     22.5323     10.8152   9.2848282952e+01   7.2805366776e+01    0.4483953    0.3224627  21.91  0.002192436    1.687    0.407
        44 -12.3478    104.5950     12.7440   5.9431169571e+01   5.7917402053e+01     0.600086     0.476996 -35.62  0.002013945    1.238    0.192
        45 -11.5090    211.9312      9.7691   4.1313613851e+01   2.9595626935e+01    0.5481095    0.3151932   8.54 0.0006767216    2.165    0.538
        46  -8.9832     94.3278     12.1432   6.1975676250e+01   6.0412048632e+01     0.196523    0.1723147 -25.39 0.0004007086    1.081    0.075
        47  -9.6436    169.2559      9.6619   4.5954950761e+01   4.1111047157e+01    0.3846425     0.188688  41.35   0.00146057    2.249    0.555
        48 -10.0566    163.3230      6.0027   4.5350337830e+01   4.3107485246e+01     0.707106     0.260902 -13.84  0.002314854    2.992    0.666
        49  -9.1582    157.4650      2.5132   4.4765115415e+01   4.5056572152e+01     0.265379    0.2275458  52.52   0.00138037    1.156    0.135
        50  -8.7876    161.0097      1.0000   4.3707131537e+01   4.4207047045e+01    0.3967829   0.08489945  72.01  0.001025569    4.703    0.787
        51  -8.9381    157.0000      8.0258   4.7016212302e+01   4.4660950989e+01    0.1883281    0.1656189 -17.82 0.0004627529    1.122    0.108
        52  -9.3850    153.9475      7.0000   4.7052697666e+01   4.5605553335e+01    0.4494626    0.1399761  55.78  0.001476232    2.824    0.646
        53 -11.3649     40.7376      5.8581   7.9772009372e+01   7.1550217200e+01    0.5015704    0.2479661 -27.35  0.002091654    2.400    0.583
        54  -9.2788      1.1296      7.3832   1.0517109686e+02   7.5140828573e+01    0.2078681   0.05499292 -63.73 0.0005599259    2.640    0.621
        55 -10.4567    183.5054      4.8852   4.2518321476e+01   3.7637531632e+01    0.4032567    0.3132788 -22.75  0.001232819    1.247    0.198
        56  -9.2076     78.4944      7.4898   6.4490903448e+01   6.4541224170e+01    0.2407497    0.1878251  57.41 0.0007091182    1.460    0.315
        57 -11.3247     75.8447      3.3434   6.3021809692e+01   6.5665586329e+01    0.7075496    0.3799585  47.23  0.003145047    1.921    0.479
        58 -10.4513    175.8546      5.1563   4.3475045334e+01   3.9717542086e+01    0.5025898    0.2631121  82.44  0.001998202    2.157    0.536
        59 -10.8527    113.1256      3.1633   5.2649970412e+01   5.6938576351e+01     0.633458    0.3863513  75.70  0.001911498    1.941    0.485
        60 -10.8882    105.3745      1.7556   5.3691605114e+01   5.9042808123e+01    0.5579376    0.3776238 -86.35  0.001460399    2.046    0.511
        61 -11.7365    133.4558      2.7748   4.8524411619e+01   5.1625570887e+01    0.4927633    0.3357319  61.51  0.001445509    1.446    0.308
        62 -10.4459    142.3814      3.3761   4.7314561593e+01   4.9139682940e+01    0.4039043    0.3097671  53.08  0.001344603    1.277    0.217
        63 -10.1093    206.5279      2.6843   3.9555468064e+01   3.1635493682e+01    0.4703437    0.2365954 -81.71  0.001854052    2.492    0.599
        64 -11.0441      3.0186      1.7882   1.0154200827e+02   7.6230059770e+01    0.3735549      0.19924   0.32  0.002081118    2.567    0.610
        65  -9.7935     13.4332      1.7726   9.4091908486e+01   7.5474509800e+01    0.2353276    0.1665522  -0.45  0.001491504    1.721    0.419
        66  -8.7672    151.9936      1.2010   4.4981575441e+01   4.6692146137e+01    0.1999234    0.1181115  70.81 0.0005312652    1.704    0.413
        67 -10.3527     82.2021      1.3194   5.9748824548e+01   6.4552501057e+01    0.2115601    0.1268713  54.31 0.0003349023    1.742    0.426
        68  -9.3271    122.5576      1.0000   4.9679944580e+01   5.4708997070e+01    0.4749013   0.08392712  67.45  0.001138063    5.754    0.826
        69 -11.0687     47.3361    147.9879   1.1202478187e+02   3.9672844310e+01    0.4149076    0.2446028 -62.40  0.002527443    1.795    0.443
        70 -10.0888    142.9721    249.5090   1.0353330337e+02   1.1568498835e+01    0.1586565    0.1199816  63.60  0.001180393    1.510    0.338
        71 -11.2212     62.9224    150.1939   1.0869252177e+02   3.7383009030e+01    0.3806453    0.3212065  41.80  0.001901206    1.326    0.246
        72  -9.7691    214.9872    151.0660   7.8062853003e+01   1.1678397284e+01    0.1966711    0.1622233  21.18 0.0009687405    1.009    0.009
        73  -9.4993    234.3568    150.3535   7.4852809011e+01   8.3485868211e+00    0.2010669    0.1215944  16.16  0.001112392    1.677    0.404
        74  -9.7375    239.8570    146.7051   7.3303485751e+01   7.7873867937e+00    0.2013772    0.1448121   1.90 0.0005668815    1.250    0.200
        75 -10.6390    249.5688    142.4799   7.1034333490e+01   6.5620746721e+00    0.4805041    0.2054333 -20.55  0.002338409    2.301    0.565
        76  -9.9517     46.3117    144.6638   1.1195412284e+02   4.0458264156e+01     0.197334    0.1654462 -77.91 0.0008358312    1.261    0.207
        77 -10.8681     32.7889    144.3237   1.1505957787e+02   4.1954100463e+01    0.2769173    0.2298477  39.18  0.001352936    1.413    0.292
        78  -9.8966    133.2383    140.1144   9.1462826444e+01   2.8460992412e+01    0.2795014    0.2118083  36.77  0.001029853    1.303    0.233
        79 -12.0969     24.1052    136.6628   1.1652023829e+02   4.4355585618e+01     0.703765    0.3144065  49.25  0.002371002    1.902    0.474
        80 -12.4605     29.8435    132.9716   1.1484564484e+02   4.4587332625e+01    0.3823912    0.2430335  78.53 0.0003319558    1.326    0.246
        81 -10.1972     80.2071    136.4521   1.0297215218e+02   3.7832073648e+01    0.3475641    0.2865272   9.76     0.002116    1.796    0.443
        82 -10.3197     47.3325    135.4019   1.1080149735e+02   4.2252769368e+01    0.3610666     0.141112 -65.14  0.001326925    2.355    0.575
        83 -10.2057     39.5828    137.8011   1.1290883835e+02   4.2596863652e+01    0.2356743    0.1949447  26.96 0.0009489047    1.571    0.363
        84  -9.5448     86.7350    136.0941   1.0136347757e+02   3.6952149549e+01    0.2276491    0.1680947 -46.94  0.001333354    1.645    0.392
        85  -9.1004    192.1987    136.2291   7.9010500772e+01   1.7850573317e+01    0.1660695    0.1591647  89.94  0.000660872    1.331    0.249
        86  -8.9291    216.6322    135.1905   7.4595832816e+01   1.3293913021e+01    0.1738047    0.1128489 -11.90 0.0005282864    1.620    0.383
        87 -10.6888     92.8246    129.5461   9.8882205192e+01   3.7350986016e+01    0.3485746    0.2593251 -88.02  0.001787144    1.411    0.291
        88  -9.7465    107.7629    145.9563   9.8019645254e+01   3.1755386821e+01     0.208402    0.1623544  51.73 0.0004223158    1.143    0.125
        89 -10.4009     74.2855    132.7350   1.0388446726e+02   3.9429414775e+01    0.2289149    0.2128665   5.27  0.001514823    1.481    0.325
        90  -9.9920     62.2006    132.2550   1.0679204240e+02   4.1133382948e+01    0.2939673    0.2346544  34.37   0.00181453    1.456    0.313
        91  -9.4184    103.8725    130.8436   9.6453772250e+01   3.5310145061e+01    0.1827064    0.1721058  36.30 0.0003265867    1.215    0.177
        92 -10.2089     82.2820    125.3910   1.0081149452e+02   3.9816674606e+01    0.3549863     0.251701 -20.58  0.001589076    2.657    0.624
        93  -9.0296    223.8548    126.8147   7.1641187133e+01   1.2940496214e+01     0.162998    0.1498874 -30.44 0.0004160423    1.314    0.239
        94  -9.6246     22.9524    126.9477   1.1606356879e+02   4.6499818917e+01    0.1704914    0.1286417  75.79            0    1.046    0.044
        95 -11.0984     51.2912     95.1527   1.0437724249e+02   5.0661543971e+01     1.178448    0.3775784 -69.04  0.004454437    3.075    0.675
        96 -10.4721     42.2444     94.0849   1.0696538218e+02   5.1931834236e+01    0.4950034    0.3145895  75.91  0.002717063    1.624    0.384
        97 -11.6622      9.6174     97.3031   1.1724586480e+02   5.4070889901e+01     1.163231    0.4885091  85.45  0.005763242    2.209    0.547
        98 -11.9652      7.0867     88.9493   1.1727787003e+02   5.6131059249e+01    0.7406372    0.5120751  12.94  0.003706103    2.003    0.501
        99 -12.5737     33.3928     93.4578   1.0960075076e+02   5.2979553260e+01     1.821666     1.085309 -86.12   0.01019635    1.522    0.343
       100 -12.3369     42.1093     85.2838   1.0556678725e+02   5.3981158001e+01    0.9145356    0.4029693  25.72  0.004115232    2.976    0.664
       101 -10.7523     17.2496    100.8836   1.1532838185e+02   5.2697831430e+01    0.3305017    0.2646665  68.66 0.0005613242    1.157    0.135
       102 -11.7673      2.4497    112.1381   1.2033224625e+02   5.1284293853e+01     1.241671    0.3871208 -88.92  0.004675911    2.807    0.644
       103 -11.6753      3.7349    105.7328   1.1957637826e+02   5.2595585445e+01    0.4092054    0.3061627  75.72  0.001873622    1.084    0.078
       104 -11.7205     22.1217     95.1236   1.1327049822e+02   5.3609784077e+01    0.4849279    0.3481747  12.05  0.001923374    1.975    0.494
       105 -12.2979     18.2962     90.3034   1.1390547480e+02   5.5021503685e+01    0.3098516    0.2335771 -73.05 0.0003994849    1.166    0.143
       106 -11.8093     22.6238    114.0284   1.1505137393e+02   4.9325408422e+01    0.8662204    0.3262113  17.83  0.003521256    4.794    0.791
       107 -12.6059     25.2781    107.5210   1.1368745730e+02   5.0536005535e+01    0.7546037    0.5075117 -39.60  0.002815872    2.096    0.523
       108 -12.1310     18.7386    106.1968   1.1540452412e+02   5.1387518562e+01     0.237917    0.2084288  86.40 0.0002599576    1.161    0.139
       109 -10.7853     56.0060    123.6545   1.0726381267e+02   4.3735434447e+01    0.4604944    0.3559589  21.61  0.002414798    1.740    0.425
       110 -10.7246     45.6660    120.4711   1.0956888102e+02   4.5630787129e+01    0.5077598    0.2527146  86.96   0.00199081    2.233    0.552
       111 -10.2793     18.6714    124.4629   1.1695209485e+02   4.7401643980e+01    0.2835327     0.147685 -79.53   0.00142404    1.608    0.378
       112 -11.8083    104.3355    122.0968   9.4776448040e+01   3.6987277118e+01     0.405296    0.3663801  53.27  0.001076024    1.102    0.093
       113  -9.4754     67.3076    124.2044   1.0442898405e+02   4.2175859089e+01    0.2797932    0.1827337  17.73  0.001430196    2.434    0.589
       114 -10.5547     32.9863    119.3275   1.1279049980e+02   4.7206095894e+01    0.2915661    0.2427983  76.73  0.001449538    1.074    0.068
       115  -9.1191    221.3013    120.6334   7.0680660405e+01   1.4192124655e+01    0.1264357    0.1031153 -56.67 0.0004358162    1.735    0.424
       116  -9.4032    148.0769    119.9702   8.4243429060e+01   2.9219974115e+01    0.2173827    0.1684096   6.15 0.0006061729    1.703    0.413
       117  -9.0151     71.7755    120.4198   1.0271486526e+02   4.2380240836e+01    0.1600353    0.1231075  28.40 0.0005345962    1.601    0.375
       118  -9.5220    210.3213    117.9944   7.1876110786e+01   1.6723706859e+01    0.2149108   0.08859546 -47.73 0.0007047784    4.272    0.766
       119 -10.3793    113.2580    115.9815   9.1402126397e+01   3.6656709573e+01    0.2488931    0.2054752  41.23 0.0002505143    1.237    0.191
       120 -10.5639    107.7820    111.9947   9.1934566160e+01   3.8448655367e+01    0.4570118      0.30946  82.00  0.001670102    1.992    0.498
       121 -10.9948    102.3506    109.0335   9.2698500703e+01   4.0019381287e+01    0.5982615    0.4854092  12.67  0.003251103    1.705    0.413
       122  -9.4331     79.4199    114.9375   9.9817324012e+01   4.2465229471e+01    0.2878219    0.1798007 -83.27  0.001447987    1.823    0.451
       123  -9.3718     50.0019    122.8390   1.0871863445e+02   4.4624305118e+01    0.2334714    0.1768906   4.74  0.001127654    2.143    0.533
       124  -9.3238     67.6791    114.3360   1.0284612335e+02   4.4263012548e+01      0.30026    0.2004478  84.84  0.001640397    1.575    0.365
       125  -9.7887     67.2092    110.6213   1.0237349640e+02   4.5143826950e+01    0.2716258    0.1869003  29.66  0.001501152    1.762    0.433
       126  -9.1050    126.9504    113.6848   8.7632842138e+01   3.4549884015e+01    0.1994335    0.1735039  50.67 0.0008747195    1.104    0.094
       127  -9.8394     48.7795    112.2065   1.0768330174e+02   4.7100428975e+01    0.2415412    0.1598193  41.44  0.001369159    1.554    0.356
       128 -10.3101     90.9804    103.7884   9.4606909163e+01   4.3064835260e+01    0.3672485    0.3093266   6.08  0.001680096    1.656    0.396
       129 -11.3132     79.6301    108.3134   9.8576654685e+01   4.3872438379e+01    0.6529675    0.3667792  44.04  0.002599865    1.767    0.434
       130 -10.6308     85.8801    103.7422   9.5985905891e+01   4.3901850139e+01    0.5279229    0.3798593  -8.69  0.002469329    2.624    0.619
       131 -10.0484    120.7569    109.0389   8.8089249290e+01   3.6649208043e+01    0.3639105    0.2795319  -7.33  0.001805061    1.964    0.491
       132 -11.0826    170.3490    110.3455   7.7397863873e+01   2.6235290583e+01    0.4097376    0.3627551  -4.35  0.001396855    1.174    0.148
       133  -9.6350     58.5062    108.2409   1.0440290273e+02   4.6813353032e+01    0.2246623    0.1149763 -73.00  0.000569676    1.884    0.469
       134 -10.5552    157.6451    106.3523   7.9047797714e+01   2.9625132595e+01     0.381741    0.2782908  -7.05  0.001442506    1.825    0.452
       135 -10.7289    143.8121    106.1087   8.2007618164e+01   3.2592907949e+01    0.3151032    0.2838621  68.54  0.001281872    1.154    0.133
       136 -11.9540    145.5078    100.4339   8.0232541477e+01   3.3275195628e+01    0.6331014    0.5479308 -32.65   0.00279437    1.203    0.169
       137  -9.9988     57.5219    102.4772   1.0375734128e+02   4.8232079272e+01    0.3381605    0.2309345 -66.63  0.001160268    1.325    0.245
       138  -9.9926     57.2736     97.9904   1.0307033468e+02   4.9280161844e+01    0.4144239    0.2009298  28.36   0.00188677    2.648    0.622
       139 -11.0696     89.8104     89.6002   9.1773869263e+01   4.6345243976e+01    0.6577886    0.3158065 -44.09  0.002742662    2.278    0.561
       140 -10.1223     81.2115     97.8666   9.6081970045e+01   4.5927650061e+01    0.2222379    0.1842773  50.14 0.0006008654    1.236    0.191
       141  -9.9342     77.1937     97.0687   9.7065828944e+01   4.6722324539e+01    0.2885593    0.2699544  45.71  0.001122823    1.207    0.171
       142 -10.6334     64.7388     99.2066   1.0109222793e+02   4.8028245609e+01    0.5105411    0.3561757 -31.83  0.002295265    2.114    0.527
       143 -10.6007     68.6837     95.4769   9.9226709307e+01   4.8324547442e+01    0.4117472    0.3054221  39.70  0.001941454    1.464    0.317
       144 -10.9403     82.3824     93.0565   9.4711686931e+01   4.6807687043e+01    0.5127478    0.3388937  56.23  0.002325217    1.600    0.375
       145 -10.5962     76.7051     92.8979   9.6332869892e+01   4.7727420284e+01    0.3958488    0.3048115 -32.43  0.001535891    1.686    0.407
       146  -9.3090     82.2981    102.5850   9.6741047454e+01   4.4718834118e+01    0.2087682    0.1492117 -43.30 0.0003038776    1.613    0.380
       147  -9.4258    120.9921    101.0210   8.6178778232e+01   3.8201840249e+01     0.218592    0.1789775  -0.91 0.0009491976    1.658    0.397
       148  -9.9943    210.6879     97.6310   6.6930236669e+01   1.9361792769e+01    0.3729236    0.2615801  24.62  0.001898249    1.490    0.329
       149  -9.0896     45.7572    105.7952   1.0765000411e+02   4.8878548672e+01    0.1682996    0.1226689  73.93 0.0006457785    1.272    0.214
       150 -10.7907    124.4740     93.6001   8.3472770432e+01   3.8982608839e+01    0.6266731    0.3319673  48.55  0.002137283    1.886    0.470
       151 -10.2696    117.5032     93.0143   8.5085228768e+01   4.0503297842e+01    0.3488062    0.2867772  18.46  0.001091135    1.521    0.343
       152 -10.7204    121.6690     89.0394   8.2987903935e+01   4.0463756358e+01    0.3812947    0.3142802  34.46  0.001530511    1.319    0.242
       153 -10.7871    120.7959     84.9133   8.2097419876e+01   4.1468077669e+01    0.4125094    0.2181181  44.78  0.001743248    1.934    0.483
       154  -9.7150    160.5960     93.7104   7.5209625935e+01   3.1159378221e+01    0.5267327    0.3045925  79.50  0.001679356    4.200    0.762
       155 -10.5528    152.2019     91.5053   7.6423534831e+01   3.3424547042e+01    0.4672117     0.390127 -75.44  0.002246146    1.444    0.308
       156  -9.1561    138.0542     93.2949   8.0110361200e+01   3.6196541351e+01    0.3290508    0.2135459  13.78  0.001285382    2.773    0.639
       157 -12.4321    102.0330     90.1622   8.8475993339e+01   4.4058207179e+01    0.5340562     0.500779  12.20 0.0004106607    1.258    0.205
       158 -10.1727    104.8454     76.3907   8.4000937512e+01   4.6424646426e+01    0.4187918    0.3829163 -83.79  0.002360803    1.114    0.103
       159 -11.2952    113.6564     83.6631   8.3624258301e+01   4.3176025458e+01    0.6372578    0.3511468 -40.90  0.002411128    1.872    0.466
       160 -11.0890    109.1490     80.6401   8.4006845012e+01   4.4695842856e+01    0.3977147    0.3387758 -14.83  0.001254282    1.439    0.305
       161  -9.4282    200.0108     87.9534   6.6202415395e+01   2.3068850526e+01    0.2199078    0.2043027   3.28   0.00048462    1.008    0.008
       162 -10.4997    183.3887     85.4908   6.8477935125e+01   2.7263818484e+01     0.719202    0.2884514 -42.07  0.002596248    2.648    0.622
       163  -8.6140    135.3222     86.3150   7.8877046166e+01   3.8107404763e+01    0.1488555    0.1173351   8.66 0.0007041189    1.660    0.398
       164  -9.6834     60.0964     83.3652   9.9389751244e+01   5.2262137329e+01    0.2721348    0.2089156 -77.64 0.0008670668    1.201    0.167
       165 -10.5684     67.1661     81.8287   9.6797049220e+01   5.1637971297e+01    0.4750194    0.4221981  -5.53  0.002853676    1.480    0.325
       166 -13.1472     52.5596     73.6035   9.9753780862e+01   5.5484890282e+01    0.5163581    0.2854597 -67.56  0.001212209    1.651    0.394
       167 -10.8112     58.2164     77.9733   9.8826933750e+01   5.3751362471e+01    0.3602717    0.2399023 -71.60 0.0004456857    1.402    0.287
       168 -10.9430     46.9041     74.3262   1.0186124176e+02   5.5996109531e+01    0.3058416    0.1652074 -65.01            0    1.593    0.372
       169 -11.1464     79.0470     83.0126   9.3375047886e+01   4.9574230441e+01    0.7803962    0.5082191 -74.99  0.002816935    1.732    0.423
       170 -11.1997     72.8736     78.7239   9.4248411529e+01   5.1498715661e+01    0.6460092    0.3722201 -41.97  0.003007366    1.963    0.491
       171 -10.4382    165.6745     83.4204   7.1340792583e+01   3.1733740431e+01    0.4022782    0.3458626 -51.80  0.001381881    1.250    0.200
       172 -11.2307    142.9850     84.0661   7.6447689786e+01   3.6833036281e+01     0.391061    0.3196828  38.75 0.0008378622    1.258    0.205
       173 -10.5025    127.5103     82.8755   7.9827553404e+01   4.0456339157e+01    0.3713478    0.2700522 -39.92  0.001754458    1.380    0.276
       174 -10.1599    127.3972     77.2233   7.8226252598e+01   4.1577090431e+01    0.4455123    0.2919451 -58.21  0.001400643    1.756    0.431
       175 -10.0205    123.7699     72.7873   7.7819010073e+01   4.3227054580e+01      0.41961    0.2713441  72.03  0.001757559    2.173    0.540
       176 -10.4581    119.9912     68.9879   7.7628474200e+01   4.4788193686e+01    0.2884229      0.25555 -67.72 0.0006199491    1.186    0.157
       177 -11.4001    123.8740     68.1469   7.6350378755e+01   4.4098358969e+01    0.6412374    0.4765178  25.81  0.002524969    1.663    0.399
       178 -10.4640    232.2165     76.5558   5.8285215738e+01   1.7330439743e+01    0.6577801    0.2602068 -41.31  0.002493149    2.780    0.640
       179  -9.4198     20.1677     71.5680   1.1081407809e+02   5.9223648512e+01    0.2128773    0.1310346 -23.37  0.001000132    2.539    0.606
       180  -9.6129      8.9510     76.2871   1.1538307556e+02   5.8917120575e+01     0.205467    0.1230735 -61.16 0.0006793061    1.499    0.333
       181 -11.8027     14.2659     74.6846   1.1334586333e+02   5.8932508099e+01    0.4798235    0.3118801 -75.74  0.001606439    1.219    0.180
       182  -9.9927     14.0263     67.4460   1.1243911412e+02   6.0637902589e+01    0.3655525    0.2688584  10.83  0.002362745    1.845    0.458
       183  -9.4265    170.6831     77.9418   6.8771101668e+01   3.1446207995e+01    0.2121909    0.1912804 -27.71 0.0005059118    1.094    0.086
       184 -12.6283     74.5687     50.1719   8.5261853368e+01   5.7525369991e+01     1.352419    0.7647511 -60.26  0.005998024    1.948    0.487
       185 -10.4479     98.9404     61.7552   8.1233164155e+01   5.0616625905e+01    0.5784733    0.2970412 -30.22  0.002001345    2.743    0.635
       186 -10.1831     94.2473     76.7166   8.7156271209e+01   4.8360071527e+01    0.4710172    0.3277474  39.37  0.001432619    1.571    0.363
       187 -11.7838     85.7070     73.6433   8.8886233271e+01   5.0543168925e+01    0.6463051    0.6035039  75.96  0.003344779    1.099    0.090
       188 -10.8207     79.4742     67.7128   8.9180109118e+01   5.2902675937e+01    0.6250435    0.5307293  59.77   0.00314369    1.265    0.209
       189 -11.0769     91.3400     62.5591   8.3821634683e+01   5.1912613394e+01    0.5210706    0.3505472  62.83  0.002006498    1.829    0.453
       190 -11.8466     89.3858     57.8783   8.2909963996e+01   5.3258916234e+01    0.7198893    0.6493056   8.08  0.003222373    1.297    0.229
       191 -11.6648      2.0086     71.3635   1.1727013429e+02   6.0465040793e+01    0.5630646    0.1514898 -74.80    0.0024124    2.700    0.630
       192 -12.3520      6.3823     62.0894   1.1457351557e+02   6.2371574413e+01    0.6581663    0.4366234 -41.13  0.002810707    1.749    0.428
       193  -9.5978    139.0565     77.2962   7.5406753607e+01   3.8965974037e+01    0.2109277     0.192915  53.59 0.0003574878    1.106    0.096
       194  -9.8487    192.5814     65.7399   6.1214885154e+01   2.7968295540e+01    0.2771335    0.2491651 -60.37 0.0007807464    1.247    0.198
       195 -12.0704    186.6392     70.5106   6.3634220658e+01   2.8736089141e+01    0.9582167    0.6436051 -33.32  0.003175429    1.438    0.305
       196 -10.0295    184.3707     61.7625   6.1406382099e+01   3.0565437646e+01    0.3150029     0.240484 -34.02 0.0008300535    1.270    0.213
       197  -9.6256    241.9806     75.2612   5.6667505029e+01   1.5378469076e+01    0.1864669    0.1670076   7.47            0    1.069    0.064
       198  -9.8767     66.5197     88.6733   9.8496360851e+01   5.0170970531e+01    0.3035482     0.238399  -4.12  0.001349516    1.953    0.488
       199  -9.4001     66.1786     74.1878   9.5295185883e+01   5.3520346979e+01     0.197055    0.1695697 -55.55 0.0004250501    1.121    0.108
       200 -11.5084     40.7524     71.1002   1.0334612748e+02   5.7434714021e+01    0.5300495    0.2712136 -59.56  0.002358812    1.645    0.392
       201 -11.2213     32.5283     72.0096   1.0645835271e+02   5.8053304181e+01    0.4802746     0.273769  33.65  0.002321829    1.996    0.499
       202  -9.1008    151.1921     73.6122   7.1538296775e+01   3.6810976276e+01    0.2206511    0.1359065  42.45 0.0006944345    1.692    0.409
       203  -9.7774    162.0184     70.9080   6.8420579376e+01   3.4674239785e+01    0.2882337    0.2593677  76.30  0.001133658    1.225    0.184
       204 -10.0798    172.4819     68.4875   6.5616688869e+01   3.2506526764e+01     0.350382     0.273427   7.82  0.001273301    1.470    0.320
       205 -10.1046    171.0275     65.9707   6.5124096696e+01   3.3256173518e+01    0.4224638    0.3649982 -11.43  0.002186568    1.174    0.148
       206  -9.3684    115.0450     69.4743   7.9103373310e+01   4.5753918417e+01    0.2236369    0.1465755  48.80 0.0007572217    1.577    0.366
       207 -11.4954    219.9979     66.3258   5.7210894366e+01   2.1327199182e+01    0.6352164    0.3955384  56.01  0.001684281    1.688    0.407
       208  -9.0903    208.2522     68.5598   5.9545391370e+01   2.3800852401e+01    0.2060799    0.1295947  44.24 0.0009465938    1.620    0.383
       209 -10.6806     59.3425     63.6898   9.4915756289e+01   5.6876448956e+01    0.6033982    0.2626014 -56.28  0.002612857    1.997    0.499
       210 -10.4892     57.3208     61.2730   9.4982603294e+01   5.7702944827e+01    0.4319849    0.2059742  32.43  0.001918916    2.525    0.604
       211 -10.4628     21.3008     65.5040   1.0941895125e+02   6.0555928914e+01     0.302617    0.2084513  76.45 0.0008057799    1.464    0.317
       212 -10.1505     25.9140     65.3338   1.0765266293e+02   6.0216670402e+01    0.2135119    0.1571461 -76.28 0.0003091651    1.117    0.105
       213  -9.3311     53.0785     65.8782   9.7733146363e+01   5.7205148516e+01    0.2817107    0.1657326  49.68   0.00141449    1.925    0.481
       214  -9.9813    106.0115     64.0620   7.9906972739e+01   4.8721960268e+01    0.3504746    0.2697391 -19.40  0.001714544    1.593    0.372
       215 -11.3884    234.2412     61.2260   5.3937835680e+01   1.8675897018e+01    0.5870588    0.4885526  81.64  0.003296039    1.489    0.328
       216  -9.5124    197.7099     62.3411   5.9377987086e+01   2.7178200007e+01    0.2960428    0.2300756 -67.73   0.00101245    1.612    0.380
       217 -10.6012     22.2956     36.7929   1.0265986278e+02   6.7156284023e+01    0.4738166    0.2676296  51.70  0.002491953    2.288    0.563
       218 -10.5342     53.4169     49.5969   9.3006803262e+01   6.0864698834e+01    0.4802438    0.3128548  79.25  0.002238854    2.402    0.584
       219  -9.7165    175.3545    246.8736   9.8368506665e+01   7.5436654092e+00    0.1800054    0.1007013  43.98 0.0009301709    1.332    0.249
       220 -11.7842     21.1951     46.8395   1.0574418795e+02   6.4930277979e+01    0.4605224    0.3141276 -56.28  0.001022151    1.246    0.197
       221 -11.3485     33.0494     58.7545   1.0356002507e+02   6.1107485789e+01    0.4115066    0.2717416 -25.21 0.0003044837    2.143    0.533
       222 -11.3104     26.8549     55.9691   1.0541133028e+02   6.2329887428e+01     1.039406    0.5361654 -54.29  0.005457131    1.665    0.399
       223 -11.1086     19.7551     55.0750   1.0811502054e+02   6.3120663949e+01    0.3580678    0.3142186  37.40  0.001108747    1.384    0.278
       224 -11.4533     41.0938     57.1581   1.0002086297e+02   6.0644918724e+01     0.563822     0.365977  82.97  0.001894464    1.942    0.485
       225 -11.4039     50.9538     61.1612   9.7296483084e+01   5.8558986869e+01    0.3344767    0.2795426 -82.45 0.0006668802    1.170    0.145
       226 -11.4641     46.0971     58.3261   9.8384502803e+01   5.9803046344e+01    0.5509849    0.2628098 -54.37  0.001310752    1.776    0.437
       227 -10.4309    159.1470     62.0731   6.6246694454e+01   3.6818728641e+01    0.5139589    0.2866816  40.15  0.002066822    1.986    0.496
       228 -10.9744    127.3186    241.6772   1.0528648232e+02   1.4479237198e+01    0.1937867    0.1640958  55.91  0.001743005    1.245    0.197
       229 -11.2675    113.6260     49.5945   7.2748589572e+01   4.9880756958e+01    0.5924419     0.382285  34.82  0.001732699    1.832    0.454
       230 -12.9773    116.3696     41.6938   6.9005770603e+01   5.0660421777e+01     1.118055    0.8224654  88.65  0.005074685    1.894    0.472
       231 -12.6247    119.6843     38.0013   6.6679903340e+01   5.0499491028e+01    0.8916243    0.6269311 -76.19  0.002954827    2.067    0.516
       232  -9.5799    147.2562     60.8662   6.8383562954e+01   3.9947128155e+01    0.3643541    0.1980086  54.37  0.001326788    1.868    0.465
       233  -9.4022    132.2655     45.4400   6.6432919891e+01   4.6214080339e+01    0.3727639    0.1323467  50.65 0.0009787329    2.784    0.641
       234 -11.0873    140.1024     43.5903   6.3949077253e+01   4.4561703247e+01     0.939425    0.4665356  31.70  0.002452713    3.149    0.682
       235 -10.6975    136.5673     56.5142   6.9363109584e+01   4.3286879483e+01    0.8266097    0.5325257  21.35  0.003175182    2.277    0.561
       236 -10.3962    134.7798     50.3876   6.7639480083e+01   4.4770501279e+01     0.488268    0.3517065 -85.68  0.002125473    1.961    0.490
       237 -11.5978    146.1555     47.2949   6.3971620360e+01   4.2445994931e+01    0.9497268    0.4291629 -22.22  0.003242389    2.694    0.629
       238 -10.2361    146.2281     43.0281   6.2417546436e+01   4.3091603923e+01    0.2945751    0.2245678 -17.72 0.0003397476    1.359    0.264
       239  -9.8588    105.5968     56.8790   7.7624822597e+01   5.0239020194e+01    0.5177972    0.2115196 -54.75  0.001626776    3.501    0.714
       240  -9.3013    161.6088     47.7780   6.1009240596e+01   3.8412793254e+01    0.4267139    0.2438126  76.61  0.001564445    2.411    0.585
       241  -9.3365    162.6997     43.9330   5.9475612645e+01   3.8690995639e+01    0.3213934    0.2759348  32.32  0.001426299    1.207    0.172
       242 -11.3211    155.9676     41.9651   6.0061930728e+01   4.0732508872e+01    0.4136481    0.4008423  81.58  0.001274694    1.088    0.081
       243 -11.2899    153.0615     36.0934   5.8490419697e+01   4.2336004744e+01    0.3604855    0.2895479 -44.39 0.0004197352    1.262    0.208
       244 -11.1380    157.3523     55.1248   6.4336875617e+01   3.8376623334e+01    0.6682717    0.5173746  71.65  0.003198805    1.455    0.313
       245 -10.9032    155.6000     49.7989   6.2884326999e+01   3.9651754514e+01    0.5059802    0.3280537 -12.23 0.0007324006    1.830    0.454
       246 -10.3324    188.0172     55.6978   5.8922853493e+01   3.0503438741e+01    0.2749616    0.2485199 -13.46 0.0004808513    1.065    0.061
       247 -10.0759     66.8877     54.5530   8.9490718462e+01   5.7822342193e+01    0.3560346     0.200601 -61.64  0.001068586    1.812    0.448
       248  -9.2494      2.0137     56.4340   1.1553940005e+02   6.3923900854e+01    0.1392112    0.1171564  26.86 0.0003434078    1.519    0.342
       249 -10.8508    244.8581     51.1294   4.9979798806e+01   1.7423451865e+01    0.2725597    0.2155493 -87.63 0.0008298222    1.616    0.381
       250  -9.5549    237.9526     54.4717   5.1658211296e+01   1.8601890821e+01    0.2649192    0.1971325 -55.17 0.0009213392    1.566    0.361
       251 -10.9364    240.2718     50.5017   5.0314375142e+01   1.8515049082e+01    0.4283048     0.315845 -15.87  0.001420524    1.222    0.181
       252  -9.8455     59.6470     24.0322   8.0454125850e+01   6.5304774674e+01    0.2832228    0.1707412 -44.97 0.0004335609    1.469    0.319
       253  -9.5695     60.4290     20.1128   7.8223692062e+01   6.5911191590e+01     0.325444    0.2336901 -76.88    0.0015225    2.313    0.568
       254  -9.4771    199.0543    244.5267   9.4596655155e+01   4.5870007504e+00    0.1588341    0.0689949  40.62  0.001036674    1.611    0.379
       255 -11.6607     60.5111     36.1926   8.5372318750e+01   6.2739041473e+01    0.4110589    0.2592479 -45.09   0.00106105    1.393    0.282
       256 -11.4298     56.8874     31.0693   8.4770331955e+01   6.4347415499e+01     0.430619    0.3546132   6.17  0.001763663    1.464    0.317
       257 -11.4407     48.5264     30.5199   8.8187014698e+01   6.5666306181e+01    0.5682521    0.3118548  27.04  0.002705885    2.379    0.580
       258  -9.7740    211.3640     52.9611   5.4589306311e+01   2.5039220719e+01    0.3386114    0.2119412  64.64  0.001555867    1.752    0.429
       259 -11.0986    201.9382     47.1336   5.4151570300e+01   2.8104870890e+01     0.656267    0.4257886 -31.12  0.003053496    1.436    0.304
       260 -10.8136    174.2060     48.1658   5.8840220937e+01   3.5093024252e+01       0.5757    0.4395424  78.31  0.002735528    1.517    0.341
       261  -9.8549    177.6391     43.1320   5.6582651457e+01   3.4890753871e+01    0.4641885     0.241466  54.81  0.001873308    1.901    0.474
       262  -8.7263    215.6457     49.3133   5.2944964180e+01   2.4435286568e+01    0.1543049    0.1050692 -56.19 0.0007045082    1.735    0.423
       263 -10.1780     90.8127     47.4559   7.8764393494e+01   5.5107709080e+01    0.3065555    0.2384059 -51.11 0.0007797126    1.238    0.192
       264  -9.5614      2.3412     48.6720   1.1431114468e+02   6.5711501909e+01    0.2164136    0.1920487   0.59  0.001601568    1.493    0.330
       265  -9.0151      2.5186     44.9950   1.1365588944e+02   6.6556565081e+01    0.2503627    0.1312356 -44.73  0.001118624    1.953    0.488
       266  -9.2897      5.9360     42.2401   1.1162880957e+02   6.7018550239e+01     0.419301    0.2354861  83.15  0.002306859    1.876    0.467
       267 -10.1817     14.2075     46.0272   1.0864656048e+02   6.5632900993e+01    0.4302545    0.1459825 -44.25  0.001770364    3.277    0.695
       268 -10.0092     17.8537     41.7622   1.0604365415e+02   6.6363733668e+01    0.3235103    0.2045714 -28.40  0.001832698    1.997    0.499
       269  -9.7910    208.6840     46.8590   5.3137468161e+01   2.6446296247e+01    0.3503879    0.1943287 -65.81   0.00130158    2.873    0.652
       270  -9.7159    205.5166     52.4596   5.5258381517e+01   2.6541911195e+01    0.2494705    0.1475194  62.08 0.0007868293    1.799    0.444
       271  -9.5005    234.1048     44.8811   4.9450245059e+01   2.0538354288e+01     0.220654    0.1780465 -46.32 0.0006701355    1.281    0.219
       272 -10.8475     97.7853     41.5864   7.4296843247e+01   5.4816407644e+01    0.6046435     0.397837  84.02  0.002139073    2.733    0.634
       273 -10.5363     92.4964     41.3125   7.5850657897e+01   5.5963474435e+01    0.4179049    0.3241235  41.47  0.001853718    1.393    0.282
       274 -10.8488    189.0871     41.2160   5.4152515984e+01   3.2147940672e+01    0.6257421    0.2361031 -22.53  0.001177437    2.668    0.625
       275  -9.4098     86.2225     30.9700   7.3574736392e+01   5.9150773294e+01    0.2695745    0.2141412 -19.46 0.0009124058    1.304    0.233
       276 -10.6300     80.7116     40.1050   7.9318401672e+01   5.8495905734e+01    0.6147692    0.4345051  48.65  0.003137807    1.568    0.362
       277 -10.9458     77.4110     34.2158   7.8063526651e+01   6.0255708470e+01    0.4196511     0.288709  47.74 0.0009727623    1.617    0.381
       278 -10.2756     81.7399     31.7330   7.5449888070e+01   5.9900804652e+01    0.4857675    0.2861241 -57.13  0.002091738    2.136    0.532
       279 -10.3407    232.0339     39.5501   4.8175608475e+01   2.1600065014e+01    0.4564527    0.2562506 -53.96  0.001871083    2.125    0.529
       280  -9.1915    163.2351    243.4147   9.9855435309e+01   9.5061072214e+00    0.1482266   0.06744027  46.54 0.0009529408    1.692    0.409
       281 -10.2750    176.8024     30.0822   5.2259978415e+01   3.6787052502e+01    0.4406086    0.2339608  55.82  0.001799476    1.853    0.460
       282  -9.6299     68.0019    240.4913   1.1460966396e+02   2.1910771947e+01    0.1459137   0.06848087  41.32  0.001025207    1.576    0.366
       283 -11.3629    176.6608     35.4056   5.4123194153e+01   3.6161324859e+01    0.8237081    0.6151438  60.41  0.002937639    1.369    0.270
       284  -9.6552    206.7858     36.9998   5.0375893858e+01   2.8091649682e+01    0.2409384    0.2224998  62.83 0.0007095509    1.155    0.134
       285  -9.6046    133.0965     36.8468   6.2970747136e+01   4.7382610337e+01    0.4162969     0.263422 -83.49  0.001571633    2.644    0.622
       286  -9.9295      6.2002     36.1210   1.1028324139e+02   6.8419352958e+01    0.2543057    0.1722112  62.61  0.001021297    1.716    0.417
       287  -8.9909      6.8158     30.7762   1.0876501011e+02   6.9612591627e+01    0.4782838    0.2818402  -7.38   0.00207698    2.389    0.581
       288 -11.0331    147.3819    237.1945   1.0170885069e+02   1.2307976375e+01    0.5241953    0.1616741  45.61  0.002771706    2.401    0.583
       289 -11.6027     26.4386     28.0848   9.7845926217e+01   6.8745797524e+01    0.4843399    0.4446907  65.97  0.002632728    1.311    0.237
       290 -10.7643    198.7648    232.6877   9.3263128533e+01   5.6644873954e+00    0.3374254    0.2082415  36.13  0.002546017    1.144    0.126
       291  -9.9523    247.5283    231.3053   8.6038116468e+01  -7.7913071224e-01    0.1427903   0.08667961 -21.70 0.0009589561    1.933    0.483
       292  -9.2421     94.5854     36.1972   7.3097312667e+01   5.6480700853e+01     0.244888    0.1846741  68.15  0.001081778    1.640    0.390
       293  -9.5084     23.7664    231.7563   1.2121735817e+02   2.7741151888e+01    0.1342724   0.06647538  56.98  0.001048521    1.329    0.247
       294  -9.5331    148.7918     31.9359   5.7756717912e+01   4.4041569065e+01    0.2684728    0.2059645   0.31 0.0003478963    1.449    0.310
       295 -10.3871    242.5511    231.1413   8.6707002527e+01  -1.2150084577e-01    0.2140996   0.09753358  49.15  0.001238951    2.807    0.644
       296  -9.7936    167.5143    237.5114   9.8589056996e+01   9.5206051627e+00    0.1028166   0.07226451  39.32 0.0002578608    1.024    0.024
       297 -12.0512    114.9728     24.8448   6.2371223691e+01   5.3703088158e+01    0.5703979    0.3312096  56.57 0.0009504122    1.779    0.438
       298  -9.4959    108.3709    230.1710   1.0738018489e+02   1.8358090819e+01    0.1200813   0.08662863  85.10 0.0004502074    1.672    0.402
       299  -9.3940    216.2126     32.7760   4.7950396110e+01   2.6184177255e+01    0.3603568    0.1824697  11.26   0.00125999    3.113    0.679
       300 -10.6257    144.3254     25.3553   5.6062316845e+01   4.6110693479e+01     1.009415    0.4730861  75.62  0.003423777    2.968    0.663
       301  -9.7887     15.0606    233.6191   1.2263053308e+02   2.8286029777e+01    0.1649358    0.1031282  75.99  0.001018549    1.330    0.248
       302 -10.8553    156.3537     25.1161   5.3765247729e+01   4.2917089566e+01    0.7041552    0.3868327  59.48  0.002903997    1.797    0.444
       303 -10.3058    157.2433     20.3887   5.1805656219e+01   4.3249519017e+01    0.8836984    0.2416424  55.34  0.002728603    3.179    0.685
       304  -9.1350    180.9972    228.2305   9.5459226425e+01   8.5779770009e+00    0.1444296   0.06380014  41.00 0.0008768284    1.636    0.389
       305 -10.0037    234.3520    222.9480   8.6766083356e+01   1.5910707146e+00    0.1408874    0.1004637  19.03 0.0004883018    1.097    0.088
       306  -8.9233     63.3202    222.3340   1.1434073544e+02   2.4968384436e+01   0.08191627   0.07500471  21.03 0.0003611102    1.701    0.412
       307  -9.5601    167.6776    221.3133   9.6768213188e+01   1.1212770115e+01    0.1014358   0.07024942  57.86  0.000703998    1.657    0.396
       308  -9.3134      9.8307    217.8146   1.2303124439e+02   3.1085452258e+01    0.1345872   0.06928525  61.87 0.0006039597    1.310    0.237
       309 -10.1075     68.5595     33.0395   8.0876244048e+01   6.2064800670e+01     0.423248     0.335526  48.00    0.0023628    1.436    0.304
       310 -10.7487    198.0805     29.3011   4.9045839683e+01   3.1220499391e+01     0.477819    0.4390703  -8.85  0.001924167    1.061    0.057
       311  -9.5741    199.7634     24.9818   4.7441172111e+01   3.1255612839e+01    0.2938637    0.2061603 -22.20 0.0007082025    1.349    0.259
       312 -10.3943    189.3076     28.0922   4.9794323971e+01   3.3676070808e+01    0.4944791    0.3036781   0.24  0.001737991    1.948    0.487
       313  -9.2273     35.9907     31.5168   9.4381666211e+01   6.7007161500e+01    0.1706847    0.1282611  35.69 0.0006196733    1.585    0.369
       314 -10.2972    230.6434     27.3262   4.4817759944e+01   2.3206181307e+01    0.4793581    0.2068657 -28.80  0.001600613    1.962    0.490
       315  -9.6891    221.6113     29.4553   4.6360926943e+01   2.5194969027e+01    0.2529364    0.2196417 -14.40 0.0005536958    1.083    0.077
       316 -10.2115     98.4543     28.0583   6.8377801110e+01   5.7056734382e+01    0.5603082    0.2737353 -48.65  0.001316974    2.354    0.575
       317  -9.2246     41.2261     28.3761   9.0677031161e+01   6.7067804340e+01    0.4060443    0.1070403 -45.51  0.001396272    3.381    0.704
       318  -9.3771     65.5058     28.5035   8.0095762788e+01   6.3471288965e+01    0.2504665    0.1387304  41.58  0.000971525    2.034    0.508
       319 -10.0524    250.4876     26.7326   4.2854393868e+01   1.8643010279e+01     0.266431    0.1419882 -20.26 0.0005956663    1.642    0.391
       320  -9.7246     86.0694     23.9415   7.0409156332e+01   6.0406869425e+01    0.2073015    0.1875301 -15.73  0.001173152    1.055    0.052
       321 -10.3241    165.3090    212.4009   9.6094543153e+01   1.2568934365e+01    0.2414836    0.1407145  50.30  0.001206756    1.561    0.359
       322  -9.5245    153.0693    207.8213   9.7601559894e+01   1.4947594076e+01    0.1693376    0.1231933  51.18 0.0008195199    1.240    0.194
       323 -10.1517     81.2142     19.3814   6.9847929815e+01   6.2163629747e+01    0.3883422    0.2242308  48.34  0.001079957    1.861    0.463
       324  -9.6638     61.0131    206.9798   1.1379090040e+02   2.7552276856e+01    0.1586214    0.1115942  58.72 0.0004486851    1.028    0.027
       325  -9.6108    238.7372    204.8277   8.3538323270e+01   2.4556072887e+00    0.1819622    0.1204442 -19.63  0.001334384    1.664    0.399
       326  -9.8666    161.5232     23.4695   5.2273236653e+01   4.1719045905e+01    0.2788251    0.2492587  19.19 1.691181e-05    1.149    0.130
       327  -8.9980     55.5374     24.5350   8.2460047490e+01   6.5859640605e+01    0.1354163    0.1179907 -43.80 -8.737031e-06    1.058    0.055
       328 -10.7643    242.7330     22.1540   4.2254883994e+01   2.0849926450e+01    0.3492745    0.2146365  58.34  0.001404943    1.764    0.433
       329 -10.2302     16.5627    203.2865   1.2144993053e+02   3.2758298843e+01    0.2652806   0.07953633 -84.36  0.001460756    3.249    0.692
       330 -10.3448      4.2991    204.7229   1.2360181440e+02   3.3611704500e+01    0.1688706     0.116537 -83.52  0.001452288    1.545    0.353
       331 -10.7494    245.4680    200.7843   8.1948955207e+01   1.8327327211e+00    0.2005826    0.1159446  35.68 0.0008082715    1.363    0.266
       332  -8.8008    207.4488    201.4436   8.7782156708e+01   7.3876929423e+00    0.1118643   0.08290259  27.93 0.0004573507    1.023    0.022
       333 -10.2649     38.5492     21.5392   8.9065949467e+01   6.8826688316e+01    0.3010731    0.1896521 -42.34  0.001081667    1.364    0.267
       334 -10.3519    234.3096    196.8945   8.2979338806e+01   3.7846441972e+00    0.3638862    0.1958111  25.72  0.001683237    1.573    0.364
       335  -9.4651    223.1924     22.3775   4.4093539261e+01   2.5527035580e+01    0.2394936    0.1976814 -39.29  0.000624012    1.143    0.125
       336  -9.1766    221.1132     19.1829   4.3339124036e+01   2.6361304141e+01     0.187382    0.1765816 -41.07            0    1.050    0.048
       337  -8.8622     83.5347    196.0048   1.0885247039e+02   2.6528734317e+01     0.136855    0.1001727 -79.39 0.0004698687    1.502    0.334
       338 -10.1570    250.0273    192.9266   8.0059243796e+01   1.8305997335e+00    0.1634567    0.1143652  19.94 0.0003104355    1.044    0.042
       339 -10.0647    169.7579    191.4026   9.2580589369e+01   1.4426380801e+01    0.3001459    0.1350263  34.58 0.0009651097    2.072    0.517
       340 -12.1120      4.7474    184.5560   1.2294633633e+02   3.6934530769e+01    0.5106112    0.3070061  58.19  0.003037821    1.176    0.149
       341  -9.8042     74.2976     19.4651   7.2377193788e+01   6.3522642867e+01    0.2471288    0.1773823  50.60 0.0007615816    1.570    0.363
       342 -10.0121    239.9070    184.6379   8.0181051816e+01   4.0511884418e+00    0.1806341    0.1257659   6.68 0.0005084273    1.263    0.209
       343 -10.0018    213.1997    180.9762   8.3695053888e+01   8.6087829833e+00    0.1931546    0.1145738   9.54  0.001084027    2.026    0.506
       344  -9.4946    249.8998    179.4491   7.7846639279e+01   3.0052824623e+00    0.2270245    0.1224611  -2.88  0.001255417    1.974    0.493
       345  -9.6394     28.1194    176.2872   1.1812818545e+02   3.6283224007e+01    0.1911174    0.1539869  83.05  0.001549592    1.218    0.179
       346  -9.6870    231.1226    175.4136   7.9945864355e+01   6.2976556321e+00    0.3710574    0.0896984  44.29  0.001490357    3.430    0.708
       347  -8.9016     57.3140    174.9829   1.1218916469e+02   3.3373701732e+01    0.1509634      0.11718  70.85 0.0004673784    1.057    0.054
       348  -9.7970    247.6449    173.9132   7.7216723836e+01   3.8459377583e+00    0.4111613   0.09909538  35.01  0.001490907    4.433    0.774
       349 -10.0341     51.7390    173.0834   1.1317351187e+02   3.4364864898e+01    0.2180531    0.1247959  84.14   0.00137277    1.682    0.406
       350  -9.9233    211.3471     18.8286   4.4198054855e+01   2.8878647863e+01    0.2420666    0.2195157  35.67 0.0002881128    1.163    0.140
       351  -9.9239     39.2651    173.4261   1.1573084483e+02   3.5671238807e+01    0.2053322    0.1323196  79.52 0.0008095177    1.314    0.239
       352  -9.1191    194.5902     18.8508   4.6045089745e+01   3.3276223994e+01    0.2281099    0.1413062 -23.55 0.0005137598    1.522    0.343
       353 -10.3362     35.5486    170.2416   1.1628117906e+02   3.6643707881e+01    0.3151052    0.1410179  81.62  0.001757608    2.235    0.553
       354  -9.9631      8.9151    156.2529   1.2106765800e+02   4.1758832297e+01    0.2248197    0.1436266 -80.66  0.001627598    1.442    0.307
       355  -9.4442    205.2441     17.4067   4.4385771133e+01   3.0605422033e+01    0.1999225    0.1410786 -87.68  0.000780249    1.616    0.381
       356 -10.5328    186.1546     15.1071   4.5781193416e+01   3.5932259628e+01    0.2890113    0.2355705  63.85 0.0003795464    1.253    0.202
       357 -11.7005      9.5883    166.9261   1.2138234237e+02   3.9687727556e+01     0.439864    0.2831778  82.39  0.002032775    1.234    0.189
       358  -9.0017    174.2847     15.6638   4.7493255656e+01   3.9113229179e+01    0.2054394    0.1328782  57.75 0.0005420067    1.533    0.348
       359 -11.1307     13.7578    159.0672   1.2017586005e+02   4.0811259484e+01    0.3945316    0.1996432 -81.13  0.002383571    1.738    0.425
       360  -9.6263    220.3341     12.5852   4.1422915210e+01   2.7186926799e+01    0.2662428    0.1422697  83.36  0.001136778    2.183    0.542
       361  -8.9962    197.9608    168.0095   8.4024509593e+01   1.2637454766e+01    0.1444636    0.1235106  17.71  0.000725557    1.077    0.071
       362 -10.0137    188.7145    164.9270   8.5088613776e+01   1.4632681967e+01    0.3408758    0.1893307 -21.35  0.001578381    2.365    0.577
       363 -10.8892    138.7188     33.0662   6.0249647169e+01   4.6514006069e+01    0.5535485    0.5049101 -81.33  0.001852003    1.209    0.173
       364 -10.1561     18.6076    165.0609   1.1946156293e+02   3.9247332916e+01     0.218612     0.187813  23.24  0.001754827    1.669    0.401
       365 -10.1801    205.0011    163.0149   8.1951806164e+01   1.2020064508e+01    0.2853032     0.148442  36.24 0.0009555928    1.679    0.404
       366 -10.5142     28.2913    162.7589   1.1732004198e+02   3.8773621939e+01    0.3324014    0.1477948 -83.15  0.001933564    2.058    0.514
       367  -9.3287     40.3111    161.3274   1.1467507498e+02   3.7823895265e+01    0.1706345    0.1237819  86.82  0.001064126    1.199    0.166
       368  -9.3460     79.5085    160.5232   1.0615672425e+02   3.3221709360e+01    0.2034307     0.105177 -82.73  0.001029579    2.395    0.582
       369  -9.8744    246.6222    159.5643   7.4772432471e+01   5.3589739512e+00    0.2245579    0.0946731 -10.12 0.0009600235    3.317    0.698
       370  -9.6111    215.2936    158.2087   7.9367564764e+01   1.0788793559e+01    0.2061588    0.1407618 -17.15   0.00109839    1.522    0.343
       371  -9.2770    223.9650    156.9898   7.7743996577e+01   9.4204471300e+00    0.1503665    0.1227197  13.51 0.0006280719    1.042    0.040
       372 -10.5494    104.6949    154.4602   9.9943680392e+01   3.0665792454e+01    0.3530444    0.2753954 -82.39  0.002239078    1.367    0.269
       373 -11.3703     11.0917    127.2744   1.1904351878e+02   4.7423223569e+01    0.4123064    0.2170885 -65.20 0.0007162268    1.866    0.464
       374 -10.7747     15.2516    147.8112   1.1927273627e+02   4.2876753256e+01    0.4425344    0.1803654  48.10  0.001675176    1.958    0.489
       375 -12.0146     12.8692    138.9030   1.1931353681e+02   4.4870389313e+01     1.793679    0.5194333  80.90  0.006923847    4.292    0.767
       376 -11.0109     21.2800    150.6841   1.1810034309e+02   4.1775160769e+01    0.1927992    0.1424129  75.10 0.0003652788    1.028    0.027
       377 -11.6569     24.0318    148.5210   1.1735212084e+02   4.1951942074e+01    0.2578565    0.2042857 -85.07 0.0005968184    1.237    0.191
       378 -10.8421     31.5107    153.1108   1.1599663330e+02   4.0324287025e+01    0.4012184    0.2426388  76.24   0.00263601    1.384    0.277
       379  -9.3189     74.9596    153.6868   1.0637583198e+02   3.5137379866e+01    0.2141801    0.1572003 -82.12 0.0008304695    1.332    0.249
       380  -9.7443     70.7188    151.5923   1.0708556441e+02   3.6107876976e+01    0.2826022    0.1451013  45.20 0.0009526226    1.701    0.412
       381 -11.7447      3.9148    147.1007   1.2174746189e+02   4.3938703726e+01    0.5768296    0.3260702 -88.49  0.003089565    1.439    0.305
       382 -11.3491      3.8410    142.3088   1.2155415384e+02   4.4895590794e+01    0.3900518    0.2496502  35.22  0.002788124    1.675    0.403
       383 -12.5177      3.6231    136.9659   1.2135873867e+02   4.5988797499e+01    0.2519472    0.1756558 -82.23 0.0003521971    1.291    0.225
       384  -9.1681     42.1662    148.6023   1.1325821130e+02   4.0118125122e+01    0.2107975    0.1493526  26.02  0.001349814    1.820    0.451
