#   1 NUMBER                 Running object number                                     
#   2 MAG_AUTO               Kron-like elliptical aperture magnitude                    [mag]
#   3 X_IMAGE                Object position along x                                    [pixel]
#   4 Y_IMAGE                Object position along y                                    [pixel]
#   5 X_WORLD                Barycenter position along world x axis                     [deg]
#   6 Y_WORLD                Barycenter position along world y axis                     [deg]
#   7 A_WORLD                Profile RMS along major axis (world units)                 [deg]
#   8 B_WORLD                Profile RMS along minor axis (world units)                 [deg]
#   9 THETA_WORLD            Position angle (CCW/world-x)                               [deg]
#  10 FWHM_WORLD             FWHM assuming a gaussian core                              [deg]
#  11 ELONGATION             A_IMAGE/B_IMAGE                                           
#  12 ELLIPTICITY            1 - B_IMAGE/A_IMAGE                                       
         1 -14.4460    193.3202     41.0225   4.5962043543e+01   3.1789997369e+01     1.120009    0.9034642  48.49  0.004243906    1.322    0.244
         2 -14.4282    219.6901      9.4615   3.5166219078e+01   2.9286108926e+01    0.8962585    0.8045653 -74.07  0.003849476    1.097    0.089
         3 -13.6923     43.0113      4.2157   6.9873150614e+01   6.9151687427e+01    0.5820352    0.3404247  31.87  0.003464257    1.523    0.343
         4 -19.1854      9.0279    101.1922   1.1527481956e+02   5.3554084481e+01     17.06004    0.8406277 -69.89   0.02675972   17.838    0.944
         5 -15.4478     63.2372    189.5473   1.1206694055e+02   2.7178016336e+01     3.012641     2.024635 -41.30   0.01598233    1.953    0.488
         6 -12.0492    193.7853    195.8375   8.3431003579e+01   4.3016746381e+00     1.002818    0.6038036 -67.66  0.003343277    5.115    0.805
         7 -12.3269    148.1025    187.3467   9.1786634224e+01   1.4115307500e+01     0.461869     0.320656 -62.39  0.002225961    1.780    0.438
         8 -11.5796     75.3995    248.6477   1.1540518098e+02   1.3555159603e+01    0.4901519     0.146334 -58.93  0.002183413    3.656    0.726
         9 -10.0893     44.1669    188.9595   1.1635350350e+02   2.9614376316e+01    0.2000025    0.1863381  19.43  0.001352787    1.385    0.278
        10 -17.2510     71.3481    147.6759   1.0409566316e+02   3.6051246200e+01     11.04358     5.966837  76.97   0.03887854    3.525    0.716
        11 -11.9797     72.0126    244.6817   1.1570767444e+02   1.4716459558e+01    0.4010733    0.1833531 -63.07  0.002161196    2.394    0.582
        12 -11.2763    151.6594    193.3569   9.2063547848e+01   1.2265738980e+01    0.3165206     0.247043 -76.97  0.001139586    1.757    0.431
        13 -11.8229    240.3484    177.8148   7.0910274866e+01  -5.7605328790e-01    0.1848332    0.1630971   0.47  0.001162695    1.129    0.114
        14 -11.6111    187.0814    175.5554   8.0815156554e+01   9.1811773562e+00    0.3705355    0.3114021 -34.51  0.001105256    1.208    0.172
        15 -11.0532     37.6339    176.5201   1.1660620361e+02   3.3174367407e+01    0.3651963    0.1824892  48.49  0.001843901    1.948    0.487
        16 -10.6127    148.5412    175.5390   8.9454660711e+01   1.6481899905e+01    0.2250407    0.1940652 -60.80 0.0004660105    1.295    0.228
        17 -11.5738    146.6670    172.1108   8.9222676823e+01   1.7561360388e+01    0.3531963    0.2652283 -71.17  0.001105032    1.732    0.422
        18 -11.4836     55.9878    174.7136   1.1201735862e+02   3.1513391888e+01    0.3349463    0.1957549  50.78  0.001176756    1.696    0.410
        19 -11.9297     46.0295    173.0802   1.1423890635e+02   3.3064415042e+01     0.386225    0.2930627  24.74  0.001853071    1.589    0.371
        20 -11.9655     93.4437    205.6736   1.0717280401e+02   1.9409806452e+01    0.2879182    0.2199095  21.11  0.001071121    1.574    0.364
        21  -9.4389    193.4735    170.4685   7.8406168358e+01   8.9309004935e+00    0.1457124    0.1327483   0.52 8.722725e-05    1.011    0.011
        22 -11.5366    137.6373    168.6534   9.0706299412e+01   2.0011600329e+01    0.3370535     0.281975  62.50  0.001732866    1.328    0.247
        23 -11.2015    240.4941    169.4776   6.9174906921e+01   7.2153030029e-01    0.1360744    0.1136953 -11.30 -2.061261e-05    1.002    0.002
        24 -10.5241    185.0307    168.4846   7.9775153145e+01   1.0916746256e+01    0.2647513    0.2094692 -54.64 0.0007722718    1.503    0.335
        25 -13.7029     95.3149    150.5576   9.8055399756e+01   3.1733917214e+01    0.7113395    0.6577532  10.21   0.00395827    1.207    0.171
        26 -12.6154    133.8623    145.3922   8.6754183356e+01   2.5951623523e+01     1.307039    0.3393532 -54.06   0.00305879    5.705    0.825
        27 -12.1386    112.9376    150.9589   9.3412445183e+01   2.8611969904e+01    0.4403784    0.3076416  81.89  0.001428001    2.102    0.524
        28 -11.0020    109.7916    147.8501   9.3611977022e+01   2.9910297623e+01    0.2329958    0.2074355  36.78  0.000357375    1.144    0.126
        29 -10.1946    174.8726    149.1424   7.7742785916e+01   1.6782299164e+01    0.2275715     0.215767 -85.08 0.0006333125    1.243    0.195
        30 -11.4414     38.4224    199.2102   1.1855642894e+02   2.7977340330e+01    0.2147967    0.1474919  61.37 0.0001969896    1.289    0.224
        31 -12.9957    106.5209    136.7440   9.2138157429e+01   3.3141885428e+01    0.5944887    0.3967153 -38.16  0.002666583    1.607    0.378
        32 -12.0563    105.9445    130.8483   9.0977595533e+01   3.4653290925e+01    0.4122976    0.3725417 -61.18  0.001272948    1.106    0.096
        33 -12.6975     94.7413    136.8298   9.5463711576e+01   3.5154165961e+01    0.3169209    0.2816279 -32.46 0.0006022471    1.183    0.155
        34 -11.7919    135.8062    128.7339   8.2336230359e+01   2.9335026826e+01    0.5635933    0.1230379 -48.56  0.001358578    4.899    0.796
        35  -9.7674     99.0880    130.5338   9.2858211734e+01   3.5939480770e+01    0.2132314    0.1494292  38.60 0.0004347719    1.477    0.323
        36 -10.4269    160.6007    127.8115   7.5930707640e+01   2.4254508819e+01    0.2296596    0.1464605 -52.15 0.0009522528    1.709    0.415
        37 -11.3206    101.8614    124.4510   9.0661044498e+01   3.6910362082e+01     0.312273    0.2628749  -9.34 0.0008145045    1.375    0.272
        38 -12.2306    120.3595    122.9356   8.5048874244e+01   3.3785555166e+01     0.446545    0.3321341 -10.57  0.001966798    1.776    0.437
        39 -12.0660    114.3579    128.8145   8.8143507933e+01   3.3578898569e+01    0.3408418    0.3011183 -24.15 0.0006668475    1.191    0.160
        40 -10.5342    109.9045    118.0292   8.6771295833e+01   3.6946916162e+01    0.2261583    0.2196304 -44.60 0.0003798287    1.027    0.027
        41 -10.7444    231.3034    113.7340   5.8419766327e+01   1.1766723501e+01    0.2524959    0.2276561 -10.69 0.0007246166    1.125    0.111
        42 -10.4848    167.7530    112.8636   7.0432718380e+01   2.5761231155e+01    0.3052378    0.2195487 -58.68  0.001343807    1.641    0.390
        43 -11.0742    135.0000    107.0043   7.6892093452e+01   3.4304966851e+01    0.4441366    0.0888513 -43.54  0.001050376    4.926    0.797
        44 -12.7519    118.4559    110.1754   8.2288368227e+01   3.7074615274e+01    0.6420147    0.4758806  64.52  0.002647281    1.723    0.419
        45 -10.3780    205.5468    110.2304   6.2011555018e+01   1.7788240391e+01      0.25943     0.212025  49.04 0.0006337344    1.303    0.233
        46 -10.4591     44.8163    198.0708   1.1708082485e+02   2.7512024093e+01    0.2003585    0.1375864  70.71 0.0009055583    1.323    0.244
        47 -14.0408    178.0414     54.0804   5.1961225302e+01   3.3720188227e+01     1.477559    0.8766506  36.74 0.0008069379    2.096    0.523
        48 -18.5184     31.3778    240.2448   1.2289461764e+02   2.0416071114e+01     6.072565     3.354248  37.64   0.02861433    1.736    0.424
        49 -13.6392    198.2476     35.2268   4.3765581890e+01   3.1344788819e+01    0.6351392    0.4887618  70.79  0.001474842    1.243    0.195
        50 -12.3717    198.1340     23.2973   4.0688572908e+01   3.2800212312e+01    0.3504942    0.2476763 -22.94  0.001429596    1.633    0.388
        51 -10.0386     34.1061    196.9032   1.1927970415e+02   2.8945795608e+01    0.1672474    0.1269644  69.48 0.0002860979    1.123    0.110
        52  -9.9984    189.5363     14.9921   3.9524074072e+01   3.5775520225e+01    0.1847839    0.1278391 -31.28 0.0005684763    1.550    0.355
        53 -11.2707     80.4034     15.2813   6.1040827806e+01   6.1407865542e+01    0.2567851    0.1697638  56.93  0.001380475    1.710    0.415
