#   1 NUMBER                 Running object number                                     
#   2 MAG_AUTO               Kron-like elliptical aperture magnitude                    [mag]
#   3 X_IMAGE                Object position along x                                    [pixel]
#   4 Y_IMAGE                Object position along y                                    [pixel]
#   5 X_WORLD                Barycenter position along world x axis                     [deg]
#   6 Y_WORLD                Barycenter position along world y axis                     [deg]
#   7 A_WORLD                Profile RMS along major axis (world units)                 [deg]
#   8 B_WORLD                Profile RMS along minor axis (world units)                 [deg]
#   9 THETA_WORLD            Position angle (CCW/world-x)                               [deg]
#  10 FWHM_WORLD             FWHM assuming a gaussian core                              [deg]
#  11 ELONGATION             A_IMAGE/B_IMAGE                                           
#  12 ELLIPTICITY            1 - B_IMAGE/A_IMAGE                                       
         1 -13.6234    213.1491     28.8377   8.1518362984e+00   2.8999869439e+01    0.8744545    0.7675895 -69.00  0.004112662    1.153    0.133
         2 -11.4274    227.1659      9.5749   2.8499327750e+00   2.8203882379e+01    0.2609694    0.1824425 -83.72 0.0007387334    1.154    0.133
         3 -10.5974     60.2511      2.7402   2.8639675085e+01   6.6269124945e+01    0.1766204   0.09135087  -6.80 0.0009015149    2.431    0.589
         4 -10.8626     47.6677    229.2793   8.5552863758e+01   2.0461156119e+01    0.2056908    0.1464664  74.10  0.001258384    1.209    0.173
         5 -14.1283    245.9324    237.2889   4.5892748816e+01  -1.0851825992e+01     2.170902    0.7395301 -33.70   0.01002623    2.840    0.648
         6 -10.3155     55.2405    193.2971   8.0330567003e+01   2.7632117509e+01    0.2021824    0.1515202 -67.76 0.0005936275    1.309    0.236
         7 -18.9125     20.4427     94.1061   7.5968388657e+01   5.5604249116e+01     14.90177     1.038683 -64.75   0.02745203   12.619    0.921
         8 -10.4504     42.5058    189.5410   8.2991020602e+01   3.0125395768e+01    0.1346314    0.1121764  78.66 0.0001892887    1.021    0.020
         9 -16.5432     68.4354    143.7119   6.9608787339e+01   3.8123972143e+01     4.540327      2.89791  68.59   0.01320658    1.987    0.497
        10  -9.8853     55.0435    180.9540   7.8907849225e+01   3.0640460789e+01    0.1546807     0.135311  69.59 0.0003213185    1.061    0.057
        11  -7.3809     50.2366    185.2674   8.0630655852e+01   3.0206286526e+01    0.3097097    0.1810797  23.48   0.00147066    2.160    0.537
        12 -10.3994     51.1744    181.7958   7.9987186217e+01   3.0931877505e+01    0.2286294    0.1692754  56.96 0.0008489121    1.275    0.216
        13  -9.3162     78.2966    184.2378   7.3444671274e+01   2.6551276971e+01    0.1265444    0.1123592 -16.02 0.0002344489    1.472    0.321
        14  -9.9363     73.9113    180.1273   7.3975172883e+01   2.8212091421e+01    0.3675925    0.1953578 -71.67  0.001589024    1.963    0.491
        15 -11.6467     61.5594    179.0120   7.6996092524e+01   3.0247036792e+01    0.4359837    0.3554586 -44.72  0.001507399    1.447    0.309
        16 -10.0603    175.0469    179.7021   4.9192656219e+01   1.0115224379e+01    0.2548592    0.2131262 -40.24 0.0007206473    1.208    0.172
        17 -11.9680    172.4816    174.4142   4.8698769353e+01   1.1700211311e+01    0.5449414     0.444829 -15.47  0.001320393    1.393    0.282
        18 -11.4822    179.5927    168.9178   4.6028582316e+01   1.1453461971e+01    0.6133302    0.5432372 -26.55   0.00296592    1.142    0.124
        19  99.0000     36.3120    206.9303   8.6090985722e+01   2.6787381007e+01      4.75378     2.763366  84.20   0.02334961    1.648    0.393
        20 -11.5663      1.4234    177.2715   9.1640258313e+01   3.7117225171e+01    0.1561794   0.09707867 -79.99 0.0009201954    1.311    0.237
        21 -11.7751    139.4874    171.3152   5.5743998541e+01   1.8839249104e+01    0.3136905    0.2258954  67.02 0.0009618867    1.695    0.410
        22  -8.2577     49.3150    226.3071   8.4954375174e+01   2.0889152540e+01      0.19493    0.1461687 -65.19 0.0005661743    1.474    0.321
        23  -9.8358    210.9421    198.7769   4.5502196868e+01   1.1554653723e-01    0.1983098    0.1633354   4.13 0.0004999877    1.174    0.148
        24 -11.2333     82.1769    194.9846   7.3981458072e+01   2.3385172841e+01    0.3472378    0.2448073  52.84 0.0005075599    1.322    0.244
        25 -12.1890    133.3668    145.4603   5.1863792809e+01   2.6058300634e+01     1.096565    0.3649546 -54.69  0.003207096    3.516    0.716
        26 -11.2695    112.2064    150.4207   5.8517774129e+01   2.9063195164e+01     0.355191    0.2228519  65.82  0.001408238    2.137    0.532
        27 -11.8126    108.9108    145.3818   5.8358990549e+01   3.0912863554e+01    0.3602992    0.3430369 -69.09 0.0006971585    1.038    0.036
        28 -12.1500     91.8775    148.3152   6.3717023879e+01   3.3257089660e+01    0.6374999    0.2951244  44.69 0.0003669185    2.185    0.542
        29 -12.7231     95.8302    144.4473   6.1821283028e+01   3.3530880128e+01    0.5575225    0.5069261 -74.25  0.001517472    1.074    0.069
        30 -12.4290     99.5058    140.9810   6.0055272338e+01   3.3729819814e+01    0.5861895     0.428958  82.51  0.002634538    1.737    0.424
        31 -10.5482    116.2916    148.6922   5.7054178313e+01   2.8699775434e+01    0.3305579    0.2354309  79.70 0.0007797645    1.879    0.468
        32  -9.8283    114.0050    145.9944   5.7096827650e+01   2.9793119964e+01    0.2216119    0.2138246 -27.12 0.0003217406    1.123    0.109
        33 -11.4469    106.3274    138.9454   5.7689745119e+01   3.2967897812e+01     0.425683    0.2773893  78.59  0.001416648    2.391    0.582
        34 -12.4356    106.4450    131.3392   5.5951860690e+01   3.4787630313e+01    0.5728129     0.486637 -82.79  0.002014463    1.282    0.220
        35 -12.2021     96.5800    130.7027   5.8656631600e+01   3.6776746233e+01    0.4177756     0.324218 -51.67  0.002041688    1.263    0.208
        36  -9.7032    149.2386    131.6486   4.4708879322e+01   2.5851062660e+01    0.2542767     0.210916 -80.45  0.000258564    1.380    0.275
        37 -11.6624    133.7408    128.5370   4.7850544290e+01   2.9901041292e+01    0.7035499     0.469375 -87.00  0.002305095    2.471    0.595
        38 -10.8032    115.2393    125.3077   5.2051915261e+01   3.4496414337e+01    0.2640959    0.2408359  -6.94 0.0006161764    1.251    0.201
        39  -8.8309    218.3298    124.7097   2.8967072020e+01   1.2432265964e+01    0.1416429    0.1069072 -75.27  0.000401954    1.623    0.384
        40  -9.8744    161.3153    128.3358   4.1071342983e+01   2.3923363080e+01    0.1576315    0.1259872  -1.19 0.0007047306    1.693    0.409
        41 -10.6044    102.8915    120.3425   5.4383717539e+01   3.8091542127e+01    0.2910123    0.2561185  10.13 0.0007604753    1.302    0.232
        42 -11.2212    160.8215    118.0847   3.8690858297e+01   2.6220443750e+01    0.4598735    0.3432803 -73.86   0.00142558    1.637    0.389
        43  -9.9224    110.2881    115.2833   5.0980570106e+01   3.7824235144e+01    0.2070537    0.1782999 -89.37 0.0007686438    1.312    0.238
        44 -11.7697    116.5818    109.2742   4.7643807186e+01   3.7899617141e+01    0.4506088    0.3910842  49.51   0.00134294    1.152    0.132
        45 -11.6751    119.4850    104.4424   4.5552375225e+01   3.8353381553e+01    0.3284405    0.3025094 -85.62  0.001714242    1.151    0.131
        46 -10.4743     89.0773    109.2480   5.5819991066e+01   4.3243438610e+01    0.3440467    0.1992618  53.31   0.00132487    2.060    0.514
        47 -10.0847     86.5060    105.5381   5.5685398090e+01   4.4554843001e+01    0.2465277    0.2227241  51.53 0.0006141413    1.159    0.137
        48 -10.3698    134.4285    105.7006   4.1894589224e+01   3.4816476814e+01    0.3059719    0.1496817 -49.29  0.001140111    2.110    0.526
        49 -10.8445     81.2474    104.5143   5.7110410439e+01   4.5693991184e+01    0.3801537    0.1953437  47.44 0.0007980333    2.177    0.541
        50 -11.9990    112.7016    100.2663   4.6334450548e+01   4.0689420991e+01     0.566129     0.418225 -69.65  0.001886895    1.667    0.400
        51  -9.6991    106.4271     95.2083   4.6762119877e+01   4.3067722417e+01    0.2074406    0.1437483 -59.40 0.0007334367    1.632    0.387
        52 -11.5781     90.2507    221.3829   7.5478958309e+01   1.6170414515e+01    0.5143061    0.2224253 -61.47  0.002231842    2.451    0.592
        53  -9.3144    152.2958     90.6821   3.3536142025e+01   3.3754253170e+01    0.1558401    0.1180763 -79.96 0.0001920835    1.609    0.379
        54 -10.4148     98.1481     88.3101   4.7299908076e+01   4.6175897877e+01     0.509389    0.3154781  77.14   0.00172325    3.718    0.731
        55  -9.7460     92.8254     85.2950   4.8087408376e+01   4.7829138500e+01    0.2221196     0.196057  71.02  0.001186567    1.316    0.240
        56 -11.9081     89.3046    213.6586   7.4740184422e+01   1.8004429421e+01    0.4006766    0.2465296 -48.37  0.001578944    1.947    0.486
        57  -9.3786    154.6731     87.2672   3.2082399066e+01   3.3842950814e+01    0.1527557    0.1166036 -87.46  0.000298226    1.573    0.364
        58  99.0000    121.0567    233.8784   7.0251620490e+01   8.7003311161e+00     11.27106     6.760633  89.26   0.04903553    2.907    0.656
        59 -10.9234     61.0358    219.6566   8.1804021151e+01   2.0795794566e+01    0.1191108   0.09117451  88.48 0.0002432193    1.218    0.179
        60 -13.0758    172.4168     67.7050   2.3277778464e+01   3.3025548475e+01    0.5295677    0.4856618 -84.87 0.0008527713    1.016    0.016
        61 -13.6625    188.8478     54.3602   1.7161381146e+01   3.1159683838e+01     1.125336    0.9173271  32.63  0.003956566    1.642    0.391
        62 -11.9833    194.5990     48.9279   1.5008145216e+01   3.0588680617e+01    0.3628651     0.352359  20.06  0.001149688    1.341    0.254
        63 -10.6456     70.8492    231.9737   8.0899940285e+01   1.6781186595e+01    0.1392126   0.08657011 -71.76 0.0005208949    1.675    0.403
        64 -11.3399     59.3989     26.5620   3.9327458471e+01   6.3790288367e+01    0.4382511    0.2017775  50.43  0.002006582    2.571    0.611
        65 -10.9015     67.6654    213.3485   7.9660616503e+01   2.1283616895e+01    0.1454803    0.1357403  63.82 0.0002465172    1.171    0.146
        66 -10.5746     60.6955     21.1802   3.6582478629e+01   6.4250280335e+01    0.2034603    0.1533489  43.94 0.0006807892    1.344    0.256
        67 -11.2899     53.8574    230.6246   8.4372771541e+01   1.9378414396e+01    0.2810786    0.1454603 -67.59  0.001255109    1.956    0.489
