#   1 NUMBER                 Running object number                                     
#   2 MAG_AUTO               Kron-like elliptical aperture magnitude                    [mag]
#   3 X_IMAGE                Object position along x                                    [pixel]
#   4 Y_IMAGE                Object position along y                                    [pixel]
#   5 X_WORLD                Barycenter position along world x axis                     [deg]
#   6 Y_WORLD                Barycenter position along world y axis                     [deg]
#   7 A_WORLD                Profile RMS along major axis (world units)                 [deg]
#   8 B_WORLD                Profile RMS along minor axis (world units)                 [deg]
#   9 THETA_WORLD            Position angle (CCW/world-x)                               [deg]
#  10 FWHM_WORLD             FWHM assuming a gaussian core                              [deg]
#  11 ELONGATION             A_IMAGE/B_IMAGE                                           
#  12 ELLIPTICITY            1 - B_IMAGE/A_IMAGE                                       
         1 -11.1481    199.5710     16.9505   3.3248546035e+01   3.3735188226e+01     2.220478    0.8242393 -62.09  0.007862731    3.500    0.714
         2 -13.6005    211.4183     80.1460   4.6427386498e+01   2.2346035744e+01     8.480824     4.155624 -67.22   0.03026514    3.549    0.718
         3 -12.4317    220.0591     40.9928   3.6571204848e+01   2.6360574013e+01     1.608274     1.091536  51.87  0.005274456    1.824    0.452
         4 -13.4334    247.3470     14.7651   2.9036759690e+01   2.4119175680e+01     9.131201     1.547327 -32.75   0.02676092    7.870    0.873
         5  -9.6300    170.6862     49.6572   4.4968731554e+01   3.6283823742e+01     1.067803    0.5910487  21.43  0.003088411    6.382    0.843
         6 -14.6327    241.9973     61.2141   3.8596581534e+01   1.9090252959e+01     3.424675     2.421999 -40.04    0.0209546    1.344    0.256
         7 -10.8350    156.6712     11.4362   3.6605657915e+01   4.4145681449e+01    0.3857747     0.285725 -12.52  0.001757571    1.767    0.434
         8  -7.8575    164.2271     10.2789   3.5361027990e+01   4.2488031294e+01    0.1623513     0.122992 -78.56 0.0003959023    1.240    0.193
         9 -12.1850    184.7058     96.3167   5.4651171904e+01   2.5319241000e+01     4.271932    0.7137343 -41.92   0.00371617    5.226    0.809
        10  -8.5097    208.0419      8.8844   3.0720676140e+01   3.2755617467e+01    0.1740386    0.1432126 -77.07 0.0004886901    1.056    0.053
        11  -9.0618    227.0309      7.4745   2.9002585574e+01   2.8932451828e+01    0.1853553    0.1399977 -55.79  0.001297714    1.187    0.157
        12  -7.8198    233.2056      6.1896   2.8334831283e+01   2.7827895113e+01    0.1648948      0.10048 -68.27  0.001052378    1.333    0.250
        13  -7.6915    201.4965      3.5418   3.0090205742e+01   3.4714895045e+01    0.1180594   0.09630435 -85.22 2.428964e-06    1.061    0.058
        14  -7.5775    153.5956    200.7221   8.4647340665e+01   9.5658219677e+00    0.1955896    0.1393969 -60.46 0.0009469398    1.675    0.403
        15  -9.2555     29.1867    198.3931   1.1445644500e+02   2.8452434081e+01    0.2243741    0.1893001 -84.02 0.0005909462    1.103    0.093
        16  -9.6448    191.4089    192.4027   7.4828584726e+01   4.8340821823e+00    0.6589944    0.3470725 -62.43  0.002202725    4.306    0.768
        17  -7.2577     76.5553    189.4083   1.0172016874e+02   2.4759983589e+01    0.1413291     0.130891  74.48 0.0001122069    1.011    0.011
        18 -10.2901    217.9340    185.7721   6.8320661809e+01   1.7905414912e+00    0.4842969    0.3406205 -29.15   0.00234235    1.265    0.210
        19  -7.3740     95.6939    188.7465   9.6710124544e+01   2.2022391895e+01    0.1379637    0.1145572 -13.62 0.0002666536    1.511    0.338
        20  -8.8283     31.9117    182.9548   1.1232930540e+02   3.1937984719e+01    0.1941717    0.1666026  88.18 0.0002904883    1.010    0.009
        21  -8.9900    249.5107    190.5059   6.3702058165e+01  -3.5805449790e+00    0.2031449    0.0980035 -30.51 0.0009982967    1.832    0.454
        22  -9.6287    224.2950    178.3991   6.5702246255e+01   2.1166457260e+00    0.4923503    0.1868382 -49.16  0.001808196    3.180    0.686
        23  -7.4425    127.8923    172.1542   8.5474577245e+01   2.0516647816e+01    0.2009008    0.1729405 -12.65            0    1.310    0.237
        24  -8.9064    188.4231    239.2420   8.3725137372e+01  -3.0191490676e+00    0.2654111    0.2317735 -83.70  0.001027872    1.920    0.479
        25 -12.2436    173.9616     82.8641   5.3207736437e+01   3.0196342297e+01     1.036839    0.8630666  32.84  0.001415718    1.430    0.301
        26 -10.3684    208.5139    233.6064   7.8842802084e+01  -4.9109476184e+00    0.2333323    0.1999997 -10.96  0.001556384    1.142    0.124
        27  -7.2974    171.6386    166.2762   7.3773161780e+01   1.3642533845e+01    0.1468319    0.1205844  78.99 0.0007007674    1.663    0.399
        28 -10.1670    241.5476    163.9198   5.9866986304e+01   1.9991485382e+00    0.3480307    0.1938691  44.46  0.001774492    2.178    0.541
        29  -8.4378    229.3544    159.3178   6.0965673758e+01   4.7373179983e+00    0.1402202   0.09815407  -7.85 0.0007046224    1.747    0.427
        30  -9.6684    175.5524    150.9138   6.9558028199e+01   1.6170872002e+01    0.2663556    0.2497224 -33.37 0.0003245886    1.014    0.014
        31 -10.9692     66.7329    141.4165   9.6618013362e+01   3.8453013372e+01     1.749553     1.007272  45.32  0.007614579    1.880    0.468
        32 -11.1465     53.0340    143.8410   1.0123784321e+02   3.9621802166e+01     0.839967    0.5091656 -77.67  0.002355789    1.762    0.432
        33 -11.0902     37.7649    148.9354   1.0661240221e+02   4.0027263356e+01    0.4987446    0.4072831  10.87  0.001456955    1.485    0.327
        34 -11.7215     45.9707    145.4295   1.0363784362e+02   4.0043906139e+01     0.921657    0.7131469 -74.67  0.002951318    1.195    0.163
        35 -11.4604    226.5226     75.0436   4.3273513359e+01   2.0044977406e+01     0.495537    0.4234128  49.83  0.001627431    1.445    0.308
        36  -8.2414    180.8397    147.9334   6.7753059090e+01   1.5759963344e+01    0.2255367    0.1974171 -14.03  0.000402686    1.189    0.159
        37  -8.4777    119.0121    147.0820   8.2570116825e+01   2.8236935920e+01    0.2206566    0.2140221 -50.94  0.001155351    1.008    0.008
        38  -7.8291    144.3145    146.6441   7.5873996680e+01   2.3372242532e+01    0.1618234    0.1261655 -89.74 0.0007044835    1.742    0.426
        39  -8.4407    178.5637    140.7312   6.6596913074e+01   1.7727907194e+01    0.3216446    0.1905525  38.63  0.001219291    1.843    0.457
        40  -7.5803    204.7981    138.8914   6.0969380779e+01   1.2933572075e+01    0.1976904    0.1052312 -39.80 0.0007343904    1.701    0.412
        41  -8.0508    230.4603    135.9704   5.5917798636e+01   8.7802462142e+00    0.2096091     0.117175 -40.49 0.0004061624    1.521    0.343
        42  -7.6250    226.0344    130.9837   5.5564735889e+01   1.0474600985e+01    0.1592692    0.1455848 -39.34            0    1.064    0.060
        43  -9.2449    183.4674    128.4848   6.2719467361e+01   1.9267952755e+01    0.2752202    0.2191572 -48.34  0.000790082    1.192    0.161
        44  -9.8383    185.0218    125.4914   6.1698151923e+01   1.9554774018e+01    0.4389699    0.3618765  61.87  0.002262667    1.361    0.265
        45  -8.0187    161.3074    128.9890   6.7621547543e+01   2.3820899733e+01    0.3118896    0.2001161  73.83  0.001163176    2.625    0.619
        46  -7.9070    136.0000    129.0193   7.3796414166e+01   2.9154021264e+01    0.2676767   0.08856919 -47.00 0.0008020389    2.940    0.660
        47  -7.6772     93.5390    126.5312   8.5187769790e+01   3.8014299027e+01    0.1550682    0.1482655 -46.64 0.0001090716    1.005    0.005
        48  -7.4448    124.8515    121.7683   7.4938134063e+01   3.3141697068e+01    0.2070832    0.1826235 -86.94  0.000297936    1.295    0.228
        49  -8.3051    135.0000    120.9437   7.2028047514e+01   3.1210432815e+01    0.2679172   0.08847608 -46.12 0.0008035107    2.950    0.661
        50 -11.1516    195.2922     87.1176   5.0544822826e+01   2.4641174164e+01    0.9024767    0.3919518  46.51  0.003510857    2.706    0.631
        51  -7.5367    219.2599    117.9422   5.3807667259e+01   1.4124236136e+01    0.1837108    0.1075412 -42.60 0.0006417604    1.486    0.327
        52  -8.5825     68.1164    114.8971   9.0565412435e+01   4.5029253626e+01    0.2114863    0.2008926 -56.03 0.0003552804    1.049    0.047
        53  -8.6546    135.1983    112.7955   6.9860494539e+01   3.2990425326e+01    0.3961175    0.1720941 -49.53  0.001372176    2.363    0.577
        54  -9.0137    205.2407    110.4466   5.4422316578e+01   1.8293825089e+01    0.4619644    0.2251615  46.08   0.00193753    2.334    0.571
        55 -10.9709    227.4630    106.4510   5.0023348582e+01   1.4607498168e+01    0.6876279     0.385336 -66.63  0.002386249    2.675    0.626
        56  -9.6100    126.2785    103.8456   6.9798597715e+01   3.6870871282e+01    0.3998976    0.2962019 -72.69   0.00176129    1.764    0.433
        57  -8.8374    148.6516    105.1917   6.4508584251e+01   3.1662691751e+01    0.2861867    0.2724113  33.32 0.0005583431    1.099    0.090
        58  -9.8495    135.1152    102.0175   6.6978341066e+01   3.5335851261e+01    0.6338863    0.2872746 -43.35  0.002321439    2.173    0.540
        59  -8.2274    102.9704    104.8769   7.6759812285e+01   4.1439067798e+01    0.3566608    0.2079959  15.86  0.001222499    3.040    0.671
        60  -9.8689    228.8879    100.8679   4.8602110813e+01   1.5302955420e+01    0.4733315    0.2459631 -59.45  0.001772544    2.330    0.571
        61 -10.0122    158.8537    101.1738   6.1110369873e+01   3.0189812228e+01    0.5451203    0.3288804  43.05  0.002331045    1.772    0.436
        62 -11.2008    173.3999     95.4497   5.6581405227e+01   2.8013920310e+01     1.160603     0.548071  41.20  0.004328349    2.606    0.616
        63  -9.6960    113.5087     96.4717   7.1278563374e+01   4.1169582423e+01    0.4074086    0.2197166 -31.72  0.001531467    2.266    0.559
        64 -10.3618     86.7158     97.1576   7.9745000001e+01   4.6232652341e+01    0.2569816    0.2385605   0.64 0.0002053529    1.085    0.078
        65  -9.4593    142.6938     95.8048   6.3382892204e+01   3.4924608324e+01    0.3670144    0.3058719 -87.11 0.0008688211    1.417    0.294
        66 -10.0262    123.8041     95.4273   6.8105836161e+01   3.9197122762e+01    0.4089883    0.2997804  13.93  0.001796521    1.840    0.457
        67 -10.7175    157.3566     92.5886   5.9145833064e+01   3.2216741092e+01    0.3623931    0.3009384 -34.51 0.0009326432    1.236    0.191
        68  -7.3954     98.2198     97.0221   7.6019802278e+01   4.4124812901e+01    0.1920214    0.1220843 -45.52            0    1.535    0.349
        69  -7.7721    135.5133     76.8942   5.9701049277e+01   4.0195633462e+01    0.2163419    0.1475813 -37.07  0.000492037    1.503    0.335
        70 -11.2850      5.5247    164.1959   1.1727389654e+02   3.8982555138e+01    0.6024765    0.4017761  48.20  0.002572274    1.549    0.354
        71  -9.3343    176.2832    233.3750   8.5260276639e+01  -2.7868548309e-01    0.2867511    0.2051788  34.67 0.0003891663    1.329    0.247
        72  -9.8388    180.4539     59.4390   4.5996116491e+01   3.2556711044e+01    0.6489135    0.1936166 -39.32  0.002284294    3.083    0.676
        73  -9.2289    177.3936    228.7973   8.4283118143e+01   3.5028516907e-01    0.2492516    0.2156942   5.15  0.000275794    1.017    0.017
        74 -10.9042    160.4905     51.8714   4.7273056514e+01   3.8383130402e+01    0.5462484    0.4912701 -75.33  0.002419029    1.078    0.072
        75  -9.8771    192.5413     52.6459   4.2516455824e+01   3.0784344192e+01    0.3292688    0.2484183 -69.32 0.0008619768    1.274    0.215
        76  -8.3293    188.0658     52.3377   4.3061330403e+01   3.1850757491e+01    0.2173507    0.1918746  65.89 0.0003565764    1.185    0.156
        77 -11.8625      6.8824    158.8314   1.1644042124e+02   4.0222544971e+01    0.7961181    0.5360857  53.55  0.004593452    1.530    0.346
        78  -7.4598    119.6136     53.5094   5.6326679129e+01   4.7765271898e+01    0.1371995    0.1339067  51.42 7.067224e-05    1.040    0.039
        79  -8.9370    178.0639    224.0769   8.3356505318e+01   1.0829393058e+00     0.234734    0.1817433 -25.17 0.0004136297    1.281    0.220
        80  -8.8736    151.0282     48.9037   4.8133761696e+01   4.1062989234e+01    0.2032767     0.186042  72.88            0    1.021    0.021
        81  -7.5696     66.9596    227.5268   1.0860551540e+02   1.7207735169e+01    0.1648151    0.1151156  -0.21 0.0007657494    2.391    0.582
        82  -9.1718    206.0274     43.5373   3.8657771016e+01   2.9040285808e+01    0.2935655    0.2355193  67.91  0.001118556    1.289    0.224
        83  -9.7906    147.1641     45.0839   4.7736245993e+01   4.2516568765e+01    0.2167166    0.1872499  36.78  0.001238308    1.270    0.213
        84  -9.5596    138.9490     42.7179   4.8605345954e+01   4.4791976590e+01    0.2232634    0.1936475 -13.98 0.0004305443    1.334    0.250
        85  -8.6868    192.4462     39.1675   3.9242532171e+01   3.2660116055e+01    0.3205748     0.204736 -34.22  0.001672878    1.662    0.398
        86  -7.9028    190.2216     36.0077   3.8747698113e+01   3.3575028549e+01    0.2203299    0.1485454 -38.59 0.0008969383    1.509    0.338
        87  -9.2287    119.8980     40.9534   5.2123755777e+01   4.9493136042e+01    0.2186408    0.2025153  47.32 0.0003505024    1.016    0.016
        88  -8.6650    166.4498     36.4742   4.2074132332e+01   3.9054457037e+01    0.2401132    0.1815398 -35.55 0.0006147589    1.424    0.298
        89  -8.2966    167.5154     33.5028   4.1117649638e+01   3.9172822607e+01    0.2186844    0.1942461 -79.15 0.0006365888    1.054    0.051
        90  -8.1619    166.6856     39.7027   4.2912061711e+01   3.8584477815e+01    0.2336167    0.1509316 -69.34 0.0006369145    1.758    0.431
        91 -10.0658    149.1257     30.8427   4.3210887416e+01   4.3863741480e+01    0.2956483    0.2723392 -58.00  0.001858025    1.145    0.126
        92  -7.6639    114.4060     26.4630   4.8473915878e+01   5.2527732501e+01     0.130506    0.1181911  52.21 1.351537e-05    1.020    0.019
        93  -8.0900    126.8509     17.8399   4.3093549672e+01   5.0548078825e+01    0.1695995    0.1445313 -77.01 0.0004487883    1.273    0.215
        94  -8.2892    246.8363    226.1427   7.0581446006e+01  -8.6808454123e+00    0.1736933    0.1431014 -16.06 0.0007074607    1.202    0.168
        95  -9.1391    174.9606     48.9998   4.4129238232e+01   3.5370700802e+01    0.2444827    0.2106121 -88.39 0.0005724181    1.077    0.071
        96  -7.2540    220.2557     11.7145   3.0353559729e+01   2.9867397426e+01    0.1184663   0.06925982 -64.70 0.0002013754    1.478    0.323
        97  -7.6289    188.1703    225.1865   8.1453927753e+01  -6.3486314943e-01    0.1637471    0.1472434  31.12 0.0003099518    1.265    0.209
        98  -7.6018    205.5857    221.8033   7.7387638640e+01  -2.6037459247e+00    0.1619817    0.1185896 -45.74 0.0002896687    1.595    0.373
        99 -10.3262    145.1294    217.6671   8.9462802791e+01   7.5034196126e+00    0.2555396    0.2211741 -47.07 0.0006931857    1.250    0.200
       100  -8.0072     97.0793    212.2156   9.9827243801e+01   1.6314491284e+01    0.1839539     0.178539   4.60 0.0003217983    1.154    0.134
       101  -8.9855    168.0667    203.7007   8.1939564691e+01   6.5182298913e+00    0.2388004    0.1893805 -31.06 0.0003751466    1.255    0.203
