#   1 NUMBER                 Running object number                                     
#   2 MAG_AUTO               Kron-like elliptical aperture magnitude                    [mag]
#   3 X_IMAGE                Object position along x                                    [pixel]
#   4 Y_IMAGE                Object position along y                                    [pixel]
#   5 X_WORLD                Barycenter position along world x axis                     [deg]
#   6 Y_WORLD                Barycenter position along world y axis                     [deg]
#   7 A_WORLD                Profile RMS along major axis (world units)                 [deg]
#   8 B_WORLD                Profile RMS along minor axis (world units)                 [deg]
#   9 THETA_WORLD            Position angle (CCW/world-x)                               [deg]
#  10 FWHM_WORLD             FWHM assuming a gaussian core                              [deg]
#  11 ELONGATION             A_IMAGE/B_IMAGE                                           
#  12 ELLIPTICITY            1 - B_IMAGE/A_IMAGE                                       
         1 -14.5974    248.6261    102.3987   4.2581761572e+01   1.2223902434e+01     3.934352    0.4991644 -39.82  0.009709141    7.490    0.866
         2 -15.2887    248.4850    172.4132   5.5955251899e+01   5.1428765669e-01     6.653302     1.058497 -44.59   0.01814276    6.128    0.837
         3 -14.4988    104.3857     66.5019   6.0317397935e+01   4.8726821959e+01      2.95072      1.87343 -78.56   0.01075843    3.630    0.725
         4 -12.5929    249.2687    128.3173   4.7489482998e+01   7.8476387750e+00     2.101301    0.2331169 -41.58  0.005150827    7.182    0.861
         5 -11.0735     12.8190     28.6210   8.3230458048e+01   6.9660613691e+01    0.5695173    0.1547317 -46.73  0.002378291    3.393    0.705
         6 -11.4859      3.5834     25.5476   8.7256898522e+01   7.0953158131e+01     0.468715    0.1561759 -42.73  0.002279533    2.454    0.592
         7  -9.9271     40.8404     14.1315   6.2618936479e+01   6.8052315318e+01    0.1662662    0.1371078  20.26  0.001152092    1.100    0.091
         8  -9.4415     13.8035    250.6253   1.1797816096e+02   1.8450471711e+01    0.1610077    0.0838777  44.84 0.0003566757    1.565    0.361
         9 -11.0960     87.7344    227.3037   9.9670367450e+01   1.4472234533e+01    0.3430245    0.2060337  16.07  0.001558054    2.141    0.533
        10  -9.9672    192.0092    226.0432   7.5936121147e+01  -8.6309618052e-01     0.206806    0.1681581  -3.79 0.0007985831    1.075    0.070
        11  -9.6509    171.0930    225.6687   8.0242223501e+01   2.2307650911e+00    0.1840789    0.1513441  16.49 0.0002907858    1.101    0.092
        12 -10.7961     98.9800    225.4594   9.6758190569e+01   1.3245424310e+01    0.3710655    0.2414268  32.92    0.0015052    1.422    0.297
        13 -10.0508     61.4747    223.9915   1.0552136397e+02   1.8789233264e+01    0.2838075    0.1533377  46.97  0.001369317    1.691    0.409
        14 -11.0878    125.9751    220.6040   8.9637312929e+01   1.0180582472e+01     0.280579    0.2326044  49.34 0.0006845996    1.247    0.198
        15 -13.7952    232.5961    210.9418   6.5597738442e+01  -3.7725153547e+00    0.6483561    0.4454834   9.81  0.003923647    1.482    0.325
        16  -9.5223     75.3519    219.7127   1.0171834536e+02   1.7915838675e+01    0.1471895   0.09329005  59.15 0.0004264471    1.666    0.400
        17  -9.0588    143.6844    217.3106   8.4970629923e+01   8.0814208296e+00    0.1376332     0.109182  63.91  0.000703199    1.636    0.389
        18  -9.6660    185.6707    213.5669   7.5073770528e+01   2.2957112886e+00    0.2325085    0.1192611 -44.19  0.001071841    1.936    0.484
        19  -9.2072    131.3425    214.3223   8.7377710470e+01   1.0670125123e+01    0.1485204    0.1078897  -9.49 0.0007050461    1.727    0.421
        20 -10.8757    217.7667    209.3197   6.7987048686e+01  -1.5521826656e+00    0.2766866    0.1545132 -31.49  0.001432076    1.626    0.385
        21  -9.4745     83.6647    220.3437   9.9780888680e+01   1.6607468139e+01    0.1501443   0.09660663  62.98 0.0007049974    1.765    0.433
        22  -9.6653     57.6510    206.3266   1.0451430638e+02   2.3424498327e+01     0.151927   0.09285446  62.47 0.0007049142    1.756    0.430
        23  -9.7471      7.0068    207.0000   1.1678948255e+02   2.8709734098e+01    0.1890027   0.06857241  25.20 0.0008081645    2.982    0.665
        24 -10.3022      9.0196    248.2280   1.1879338334e+02   1.9416648905e+01    0.1984959    0.1443643  84.25 0.0007016056    1.207    0.171
        25  -9.6090    167.3467    242.3118   8.3710758162e+01  -2.2099462378e-01    0.1370892   0.09126281  -3.43 0.0007046073    1.711    0.416
        26  -9.8192     67.3236    195.3247   1.0067006151e+02   2.4842639449e+01    0.3147388    0.1341138  49.77  0.001178346    2.572    0.611
        27  -9.9820     44.4498    194.1057   1.0649471304e+02   2.8036888279e+01    0.2962778    0.1482093  47.58  0.001319525    1.962    0.490
        28 -11.3538    225.0227    192.1555   6.3528713031e+01   3.9781261664e-01    0.2380205    0.1629644 -35.05 0.0007886857    1.258    0.205
        29  -9.2038    215.4640    193.4970   6.5514890944e+01   1.5329994174e+00    0.1327275    0.1131076 -20.64 5.521161e-05    1.026    0.026
        30  -9.6792     78.8050    193.6113   9.7406803113e+01   2.3652641405e+01    0.2192643    0.1211067  43.67 0.0009488568    1.758    0.431
        31 -13.0441    229.7895    186.2845   6.1597981773e+01   7.4469255779e-01    0.5968738    0.3564614 -27.44  0.003165322    1.574    0.365
        32 -10.5236     92.7303    182.8620   9.2001281305e+01   2.4208798637e+01    0.3310672    0.2119139 -62.30   0.00113833    1.602    0.376
        33 -10.5994     55.9403    187.6745   1.0268950379e+02   2.8253903713e+01    0.4101066    0.1850879  54.03  0.001560762    2.627    0.619
        34 -10.0269     35.2110    187.9515   1.0822771557e+02   3.0612362606e+01    0.2992677    0.1220738  51.35  0.001172334    2.649    0.622
        35 -10.1037    110.4203    185.6103   8.7759466263e+01   2.0653416351e+01     0.329858    0.2443309 -54.96  0.001598637    1.372    0.271
        36 -10.1535     12.7801    185.5016   1.1377949472e+02   3.3398673434e+01    0.3310642    0.1360946  66.65  0.001279265    3.056    0.673
        37  -9.3438     66.6632    185.3364   9.9474856311e+01   2.7433989193e+01    0.1573286    0.1034976  65.70 0.0007051697    1.749    0.428
        38  -9.5557     75.3696    184.6043   9.6997796383e+01   2.6397160921e+01    0.2998537   0.09447184  43.90 0.0009539809    3.243    0.692
        39  -9.6499      6.3365    184.6659   1.1533305202e+02   3.4142774430e+01    0.1407544   0.07973444  63.63 0.0005744608    1.743    0.426
        40 -10.5834     97.4233    187.8241   9.1568287131e+01   2.2240004703e+01    0.5867335    0.2197219  40.81  0.002070905    2.556    0.609
        41  -9.6351     27.4665    182.9608   1.0974104050e+02   3.2671041032e+01    0.2026722   0.09927146  77.71 0.0008096125    2.567    0.610
        42  -9.5593    211.7323    182.0637   6.4034796920e+01   4.1704790690e+00    0.1976485    0.1562356 -30.43   0.00114281    1.106    0.096
        43  -9.4170    173.8238    181.6493   7.1626483669e+01   1.0489581746e+01     0.285706    0.1023035 -44.23  0.001003963    2.673    0.626
        44  -9.9113     44.9571    182.5428   1.0500845172e+02   3.0891615429e+01    0.2079663    0.1350314  31.52  0.001029069    1.593    0.372
        45 -10.1227     60.8332    177.3970   9.9946675357e+01   3.0241193799e+01    0.3778189    0.1774078  49.15  0.001480795    2.329    0.571
        46  -9.9287     13.3483    176.9604   1.1288156580e+02   3.5481863970e+01    0.3502752    0.1623771  76.31  0.001448662    2.589    0.614
        47  -9.7772    205.3481    176.7614   6.4203749272e+01   6.1713656851e+00    0.2032212    0.1132114 -34.30 0.0007462716    1.697    0.411
        48 -10.5982     79.3726    176.6608   9.4649339183e+01   2.7823113112e+01    0.5011203    0.1944347  47.82  0.001679639    2.988    0.665
        49  -9.8332     24.3921    175.2329   1.0975956212e+02   3.4929483080e+01    0.1972068    0.1163503 -87.57 0.0009464366    1.675    0.403
        50 -10.2510      3.3706    173.6672   1.1520832325e+02   3.7097903871e+01     0.428549    0.1618573  75.81  0.001511015    3.721    0.731
        51  -9.7949     34.7806    173.6034   1.0672300603e+02   3.4308560746e+01    0.1970246    0.1168277  41.92 0.0008706444    1.698    0.411
        52  -9.8710     45.2457    172.4270   1.0364173444e+02   3.3455635642e+01    0.2000994    0.1226165  42.93 0.0009454729    1.646    0.392
        53  -9.4216    122.9952    170.6666   8.1659038674e+01   2.2067870119e+01    0.2622712    0.1063605  53.50 0.0007051869    4.366    0.771
        54 -10.4705     55.7003    170.0299   1.0032939182e+02   3.2807419273e+01    0.2827664    0.1852162  57.06  0.001320716    1.670    0.401
        55  -9.7226    206.3871    169.1965   6.2504402777e+01   7.4417340129e+00    0.2031013    0.1199074 -50.29 0.0009527511    1.741    0.425
        56  -9.4627    176.5903    169.1833   6.8507408752e+01   1.2597143138e+01    0.2234863    0.1282109 -34.34  0.000955223    1.803    0.445
        57  -9.3300     75.3403    168.6951   9.4472934877e+01   3.0459985943e+01     0.158022    0.1110792  65.89 0.0005664364    1.679    0.404
        58 -10.0062    101.2599    167.0683   8.6834340310e+01   2.6757503137e+01    0.5163818    0.1502349  45.02  0.001438807    3.956    0.747
        59  -9.5130     19.7654    166.5860   1.1011341177e+02   3.7562300736e+01    0.1863397    0.1151703  41.27 0.0009500064    1.670    0.401
        60 -10.3752     80.4308    164.2691   9.2238757593e+01   3.0835510262e+01    0.5029248    0.2702286  68.06  0.001637857    3.503    0.714
        61 -10.4635     38.1900    164.4082   1.0460032549e+02   3.6324196815e+01    0.2892236    0.1906798  60.78  0.001138213    1.659    0.397
        62 -10.0903     70.4701    163.5081   9.5009597871e+01   3.2506868093e+01    0.2768995    0.1952655  68.23 0.0008330059    1.695    0.410
        63  -9.9230     47.7213    164.1666   1.0178929209e+02   3.5310801136e+01    0.2404693    0.1730161  81.77  0.001184536    1.523    0.343
        64 -10.2625    211.5936    201.7607   6.7773425278e+01   6.2369095242e-01    0.1817709    0.1165362 -47.93 0.0008186941    1.681    0.405
        65 -10.4923    213.4903    162.4792   5.9851897930e+01   7.5415240100e+00    0.2526039    0.1143569 -33.73  0.001028381    2.275    0.560
        66  -9.7037    205.4734    160.1299   6.0840416448e+01   9.3331833255e+00    0.2689855    0.1226891 -38.54  0.001117837    2.029    0.507
        67 -10.3147     94.1024    161.2047   8.7730101493e+01   2.9435562037e+01       0.3865    0.1902624  46.07   0.00145795    2.178    0.541
        68 -10.1822     62.4685    161.1363   9.6972863847e+01   3.4235424780e+01     0.310096    0.1744282  48.14  0.001153147    1.923    0.480
        69  -9.8560     31.7055    160.5387   1.0598554403e+02   3.8002481930e+01    0.2525408    0.1576565  82.27 0.0008923542    1.802    0.445
        70 -10.0972      8.9359    160.2287   1.1249136649e+02   4.0069703038e+01     0.416459    0.1762594  73.52  0.001534966    3.349    0.701
        71  -9.2208    152.3184    160.7048   7.2232092583e+01   1.8935062598e+01    0.1498153    0.1226458  81.98 0.0003335324    1.609    0.379
        72  -9.6994     23.2548    159.5215   1.0832355216e+02   3.9068941556e+01    0.3426347    0.1592696  67.64   0.00128308    3.083    0.676
        73 -10.3898    107.8457    159.0040   8.3409593648e+01   2.7624744070e+01    0.5966235    0.2168759  46.10  0.001865752    3.122    0.680
        74 -11.2538     50.6963    155.7041   9.9628565323e+01   3.7164296738e+01    0.5610305    0.2663796  54.17  0.002005994    2.748    0.636
        75  -9.9104    120.9718    156.1857   7.9225333802e+01   2.5927131487e+01    0.2665336    0.1800665  65.03   0.00108695    2.031    0.508
        76 -11.1845     82.7594    155.2143   8.9884708947e+01   3.2802092270e+01    0.6161754      0.28565  49.90  0.002183876    2.633    0.620
        77 -11.4566     69.5816    154.0957   9.3627358920e+01   3.5077669725e+01    0.5912112    0.2966011  37.15  0.002289894    2.002    0.500
        78  -9.8474     92.2727    152.1971   8.6481293105e+01   3.2025118394e+01    0.3197006    0.2064532  45.15  0.001393129    1.609    0.378
        79 -10.2462    100.0489    151.3398   8.4040494732e+01   3.0909499507e+01    0.3793824    0.1787968  41.70  0.001340523    2.146    0.534
        80 -10.3391     29.2190    150.1770   1.0535910146e+02   4.0939156092e+01    0.4226069    0.2203949  81.25  0.001670301    2.668    0.625
        81  -9.3154     22.6467    151.3352   1.0750406027e+02   4.1240400315e+01    0.1478177   0.09351109  64.51 0.0007044665    1.792    0.442
        82 -11.1683     40.1110    147.8465   1.0165783684e+02   4.0437064269e+01    0.5824132    0.2909884  58.28  0.002242607    2.763    0.638
        83  -9.7244    189.2587    147.5657   6.1313149380e+01   1.4715880262e+01    0.3889678    0.1132142 -39.39  0.001177902    3.573    0.720
        84 -11.8115     56.9771    146.2176   9.6103253476e+01   3.8853861342e+01    0.6809433    0.3923009  61.36  0.002618753    2.381    0.580
        85 -10.9664    234.0469    146.5235   5.3231460414e+01   7.1168590468e+00    0.3391746    0.1600597 -41.90   0.00139831    1.772    0.436
        86 -10.7694     78.8432    147.2559   8.9512883038e+01   3.5460253271e+01    0.3631278    0.2236887  54.38  0.001290225    1.942    0.485
        87  -9.7478     13.4457    146.2758   1.0966544091e+02   4.3298460661e+01     0.231641    0.1453259  52.04  0.001183059    1.755    0.430
        88  -9.2867    149.3187    145.6229   6.9637130380e+01   2.2907237771e+01    0.1606589    0.1235694 -87.93 0.0002119226    1.812    0.448
        89 -10.5999    127.0164    144.3561   7.5007182816e+01   2.7605696175e+01    0.4947589    0.2805702  60.66  0.001762793    2.670    0.625
        90 -11.3942     89.6804    144.4900   8.5659263457e+01   3.4412746364e+01    0.5746891    0.3007343  41.84  0.002277559    1.956    0.489
        91 -11.8842     70.0558    140.3371   9.0865757691e+01   3.8569194226e+01    0.6463898     0.379764  73.33   0.00229107    3.084    0.676
        92  -9.4507      2.5131    141.9907   1.1249119835e+02   4.5148209982e+01    0.1942069    0.0937456  77.37 0.0008100375    2.573    0.611
        93 -11.5336    109.5518    146.4777   8.0280745709e+01   3.0410351514e+01    0.9066545    0.4063213  54.68  0.002755843    3.551    0.718
        94 -11.2142     82.0220    139.7016   8.6985855319e+01   3.6887058180e+01     0.371512    0.2549376  53.42  0.001626224    1.665    0.400
        95 -10.8980     23.4389    137.7851   1.0543932987e+02   4.4675984339e+01     0.571954    0.2866482  67.51  0.002205539    3.042    0.671
        96  -9.9541     49.4285    139.2070   9.7263752028e+01   4.1622786702e+01    0.2075122    0.1357048 -78.90  0.000825976    1.694    0.410
        97 -10.8360     39.5983    135.9644   9.9903444622e+01   4.3584067433e+01    0.3635646     0.254578  75.45  0.001245141    1.747    0.428
        98  -8.9741    197.0000    135.9785   5.7319856107e+01   1.5556276954e+01    0.2377963   0.07493913 -42.99 0.0007579481    2.879    0.653
        99 -11.3008    114.6296    134.2305   7.6058004994e+01   3.2419418977e+01    0.6226105    0.2959948  51.96  0.002149267    2.633    0.620
       100 -13.3986     85.4559    131.9148   8.4213992562e+01   3.8282842284e+01    0.9195603    0.6365436  55.68  0.003223125    1.710    0.415
       101 -12.5972     49.3326     83.7845   8.4787708809e+01   5.5110265878e+01    0.8990088    0.6057457 -72.08  0.004122508    2.119    0.528
       102 -14.4837    126.6523     92.3097   6.1927657637e+01   3.9148342352e+01     1.221086     1.057884 -84.12  0.006349017    1.325    0.245
       103 -14.0072     80.4224    112.3362   8.1162308093e+01   4.3901890765e+01     1.453294    0.8437633 -70.69  0.005365187    2.609    0.617
       104 -10.8445    160.0914    238.6731   8.4702705708e+01   1.4641327335e+00    0.2144244    0.1856617 -52.05  0.001083884    1.404    0.288
       105 -13.5903     96.6188     97.0022   7.1816030273e+01   4.4431945028e+01     0.926636     0.757412  39.53  0.003822248    1.217    0.179
       106 -14.8975     88.3376     86.6108   7.1458146697e+01   4.8196886328e+01     2.142452     1.157241  56.42  0.008206036    2.625    0.619
       107  -9.6079    164.0000    200.5250   7.7407313035e+01   8.2495839881e+00    0.3048413   0.07936057 -48.16 0.0009260682    3.865    0.741
       108 -13.2186    101.3062    128.6544   7.8601207637e+01   3.6282988062e+01    0.8731022    0.5814831  53.40  0.002973782    1.720    0.418
       109 -12.2585     74.0247    129.5966   8.7340288990e+01   4.0706351844e+01    0.5641125    0.3912643  62.08   0.00207225    1.861    0.463
       110 -10.5478     55.5016    129.9913   9.3528148383e+01   4.3240674338e+01    0.2296281    0.1398009 -62.57 0.0007866587    1.582    0.368
       111 -10.3274     12.6663    128.9567   1.0770752125e+02   4.7784590994e+01    0.4280203    0.2186965  79.35   0.00175559    2.756    0.637
       112 -10.8614    134.4056    132.8031   7.0378680965e+01   2.8817136570e+01    0.4955417    0.2572901  51.69  0.001864968    2.197    0.545
       113 -12.2928    120.4842    126.5472   7.2577190446e+01   3.3071510955e+01    0.7878563    0.3815483  55.10  0.002671254    2.813    0.644
       114 -13.0738     60.0707    123.2631   9.0591180586e+01   4.4338125764e+01     1.049306    0.6345308 -84.04  0.004108074    2.576    0.612
       115 -12.2996     44.2125    121.9614   9.5778548734e+01   4.6662729795e+01      1.16658    0.6397099  87.24  0.004087273    3.512    0.715
       116 -11.3708     28.7639    122.3444   1.0122507228e+02   4.8158648126e+01    0.8026252    0.4002768  70.18  0.002700145    4.133    0.758
       117 -11.0655    144.2695    120.5879   6.4932796285e+01   2.9476144772e+01    0.5393927     0.234208  44.62  0.001953965    2.350    0.575
       118 -11.1759    132.8859    119.7278   6.7568775731e+01   3.2065277158e+01    0.5493458    0.2865222  57.76  0.001976532    2.542    0.607
       119 -13.1203    110.9932    115.1755   7.2395655347e+01   3.7579565786e+01    0.7606547    0.5854813  76.64  0.002663647    1.737    0.424
       120  -9.9487      2.9118    116.7313   1.0932528722e+02   5.1475416006e+01    0.4059769    0.1593855  86.40  0.001257637    4.950    0.798
       121 -12.4541    124.2785    113.4161   6.8229240450e+01   3.5256184632e+01    0.6110384    0.3100813  45.46  0.002377985    1.988    0.497
       122 -10.5556     14.2736    110.2479   1.0431471034e+02   5.2364931790e+01    0.3975335    0.2259777 -84.51  0.001852881    2.072    0.517
       123 -14.2933    106.8234     84.2993   6.5059885823e+01   4.4969816049e+01       1.3504    0.8432835  51.01   0.00609189    1.639    0.390
       124 -12.0402     59.7932    108.8412   8.7394263837e+01   4.7929544986e+01     0.490829    0.2951013 -49.91  0.001859944    1.547    0.354
       125 -12.7806     46.0693    101.1885   9.0579417828e+01   5.1552847329e+01     1.200041    0.7577894 -86.78  0.005000853    2.661    0.624
       126 -11.1916    141.9848    105.9266   6.1768004627e+01   3.3052275990e+01     0.496066    0.2103566  56.32  0.001653163    2.957    0.662
       127 -11.4276     22.6317    101.4275   9.9572592674e+01   5.3880293116e+01    0.8907214    0.4863111  82.50  0.003374861    3.568    0.720
       128 -13.7374     69.1374    114.1702   8.5417762499e+01   4.5273303480e+01     1.621524     0.839758 -75.09  0.005105881    3.928    0.745
       129 -12.5806    130.3602    102.9707   6.3877387183e+01   3.6189353816e+01    0.6448098    0.3409964  54.10  0.002482464    2.073    0.518
       130  -9.8465    185.6183    203.0349   7.3184056539e+01   4.2847373618e+00    0.3086162     0.124752 -44.59  0.001239104    2.398    0.583
       131 -11.7780    141.9628     93.2550   5.8430362079e+01   3.5572686698e+01    0.5744883    0.2680529  51.91  0.002225074    2.158    0.537
       132  -9.4932    198.2219    203.0438   7.0611419990e+01   2.3557133631e+00    0.1835614    0.1015872 -40.60 0.0008791504    1.692    0.409
       133 -11.2585     34.7829     88.3155   9.1828896338e+01   5.5823887133e+01    0.7443639    0.3051891 -62.97  0.002882204    2.733    0.634
       134  -9.5475      4.5096     91.0232   1.0468474072e+02   5.7607179127e+01    0.1788244    0.1028907  82.28 0.0008104608    2.619    0.618
       135 -11.6497    143.3837     84.1926   5.5658277148e+01   3.6945652590e+01    0.4489447    0.2070537  54.05  0.001756795    2.166    0.538
       136 -10.7977     24.2990     80.0844   9.4111373188e+01   5.8695074225e+01    0.4489993    0.2586088 -74.38  0.002057062    2.402    0.584
       137 -13.3359     63.3492     72.8094   7.6026235189e+01   5.5342937481e+01     1.365963    0.4452958 -47.54  0.004839607    3.105    0.678
       138  -9.9253    159.6306    231.6454   8.3701916448e+01   2.8231856971e+00    0.2517734    0.1953348  70.07  0.001324047    2.039    0.510
       139 -13.1929    130.2851     76.5665   5.6570044802e+01   4.1274574029e+01    0.6511356    0.4282519  62.19  0.002958263    1.622    0.384
       140  -9.7979     89.0346    199.2505   9.5557774264e+01   2.0762770140e+01    0.2493822    0.1486398  57.70 0.0009406233    1.969    0.492
       141 -10.9048     42.7434     71.8154   8.3970792182e+01   5.8488879829e+01    0.4083381    0.1871461 -55.29  0.001735159    2.369    0.578
       142 -12.0688     51.5003     67.6881   7.9048885979e+01   5.8140781062e+01    0.8724456    0.3507748 -53.46  0.003353925    2.963    0.662
       143  -9.3060    126.6274    197.1833   8.5654424683e+01   1.5224465797e+01    0.2122951    0.1309065 -41.30 0.0009393417    1.724    0.420
       144 -10.3244     16.5325     69.3023   9.4746079121e+01   6.1691741263e+01    0.4545527     0.163282 -56.79  0.001941746    2.426    0.588
       145 -12.7349    123.2049     66.9844   5.5485837686e+01   4.4506449898e+01    0.4610545    0.3578471  76.04   0.00234213    1.485    0.326
       146 -11.5320    140.5464     67.6706   5.1706432355e+01   4.0434937007e+01    0.2973303    0.1783428  59.62  0.001371287    1.633    0.388
       147 -13.0898    111.3691     63.9326   5.7584068651e+01   4.7643209109e+01    0.5990356    0.4571149 -66.12  0.003045123    1.671    0.402
       148 -11.1682     37.6644     62.9630   8.3385779613e+01   6.0887095121e+01    0.5626996    0.2705733 -52.88  0.002571982    2.188    0.543
       149 -12.8520     73.8597     57.7415   6.7118215773e+01   5.6292412647e+01    0.7926523    0.4030193 -43.82  0.003567055    2.131    0.531
       150 -14.4706     64.4882     94.9486   8.2132020644e+01   5.0484025337e+01     1.477657     1.255158 -56.05  0.008051288    1.241    0.194
       151 -10.2653    172.9987    195.7491   7.4526518267e+01   7.7400094340e+00    0.2090368    0.1905114  57.02  0.001187611    1.344    0.256
       152 -10.2646     25.1290     57.8823   8.7456026611e+01   6.3260348492e+01    0.3538322    0.1660715 -47.27  0.001723121    1.896    0.473
       153 -11.2807    131.4306     58.3192   5.0996965515e+01   4.4001269669e+01    0.2504205    0.1708154  78.81  0.001094519    1.786    0.440
       154 -10.8892      7.6153     54.1323   9.4789146381e+01   6.5467568356e+01    0.6885883    0.1173942 -51.69  0.002522926    3.564    0.719
       155 -12.4456    120.3703     56.8072   5.3090488650e+01   4.6756620673e+01    0.4222713    0.3197298 -88.44  0.002148983    1.703    0.413
       156 -11.5385     63.0795     54.4453   6.9929201120e+01   5.8744810954e+01    0.4721659    0.2397891 -45.17  0.002162337    2.165    0.538
       157 -11.0724     54.1662     52.6829   7.2820451825e+01   6.0490063276e+01    0.6692591    0.2359653 -49.79  0.002383121    3.846    0.740
       158 -10.4345     44.1852     54.8203   7.7788504588e+01   6.1576749717e+01    0.3822855    0.2143703 -52.25  0.001855447    2.123    0.529
       159 -10.6775     45.0731     49.3846   7.5448210770e+01   6.2405601781e+01    0.2735935    0.2122305 -17.40 0.0004356229    1.193    0.162
       160 -14.1730     95.6033     71.3470   6.4452978247e+01   4.9710965610e+01     1.369919    0.6990552 -45.84  0.005801971    2.118    0.528
       161 -14.2862     94.8876    112.1562   7.6457454967e+01   4.1379390244e+01     1.120466     1.071324  75.62  0.004573531    1.141    0.123
       162 -10.7160     30.9220     49.3977   8.1873339833e+01   6.4228050219e+01    0.5860848    0.1789037 -49.66  0.002259589    3.343    0.701
       163 -10.1867     20.1713     50.9660   8.7591609107e+01   6.5066214117e+01    0.3217823     0.158297 -52.74  0.001611914    2.027    0.507
       164 -13.8517     83.4109     99.6586   7.6823252718e+01   4.6305117440e+01     1.119741    0.8620993  89.77  0.005026111    1.907    0.475
       165 -10.5821     16.7829     42.5198   8.6396338892e+01   6.6931673722e+01    0.4998619    0.1275705 -45.17  0.001991959    3.180    0.686
       166 -10.5976     58.0191     41.5894   6.7119420549e+01   6.1643630693e+01    0.3216377    0.1897066 -51.72  0.001541754    2.479    0.597
       167 -11.0786      5.0725     39.4434   9.1518405084e+01   6.8441334744e+01     0.602546    0.1559328 -54.66  0.002410018    3.531    0.717
       168 -13.9740     83.2706     72.3362   6.8737246303e+01   5.1950645493e+01     1.186684    0.7359926 -55.05  0.005287173    2.022    0.505
       169  -9.7376    113.9446     41.3413   4.9755473016e+01   5.0384785787e+01    0.1931679    0.1554412  51.60 0.0004200379    1.112    0.101
       170 -10.3594     36.8721     39.5103   7.5379941850e+01   6.5167023337e+01    0.3447432    0.1620068 -40.81  0.001696151    2.114    0.527
       171 -10.4317     45.2614     43.4852   7.3149419058e+01   6.3356593853e+01    0.4055863    0.1565154 -34.61  0.001691107    2.773    0.639
       172 -10.9998     27.3961     30.1377   7.6150932715e+01   6.7839289684e+01    0.5755699    0.2000006 -30.31  0.002226392    3.714    0.731
       173  -9.8557     49.6780     31.6996   6.6549516880e+01   6.4439026143e+01    0.3333386    0.1109915 -35.18  0.001361029    3.179    0.685
       174 -14.6054    111.9552     99.6080   6.7956701238e+01   4.0797603298e+01     1.567778     1.091593  60.60  0.006018861    1.709    0.415
       175 -12.0265    236.5505    229.9028   6.8176955325e+01  -7.2148398573e+00    0.3126866    0.2394444  -3.98  0.001244739    1.086    0.080
       176  -9.3992     40.7927     21.2561   6.5893310422e+01   6.7212193414e+01    0.1640201    0.1154534   9.01 0.0003002206    1.311    0.237
       177  -9.7855     19.7297     19.4907   7.5486328047e+01   7.0304847187e+01    0.2506336    0.1171426 -27.17  0.001298958    2.187    0.543
       178  -8.8178    118.6675     24.6846   4.3404430244e+01   5.1269319681e+01    0.1353663   0.08754259  36.97 0.0005779223    1.685    0.407
       179 -11.1916    162.6132    225.7299   8.2092454153e+01   3.4889806729e+00    0.4680682    0.2936833  22.44  0.001949177    1.563    0.360
