#   1 NUMBER                 Running object number                                     
#   2 MAG_AUTO               Kron-like elliptical aperture magnitude                    [mag]
#   3 X_IMAGE                Object position along x                                    [pixel]
#   4 Y_IMAGE                Object position along y                                    [pixel]
#   5 X_WORLD                Barycenter position along world x axis                     [deg]
#   6 Y_WORLD                Barycenter position along world y axis                     [deg]
#   7 A_WORLD                Profile RMS along major axis (world units)                 [deg]
#   8 B_WORLD                Profile RMS along minor axis (world units)                 [deg]
#   9 THETA_WORLD            Position angle (CCW/world-x)                               [deg]
#  10 FWHM_WORLD             FWHM assuming a gaussian core                              [deg]
#  11 ELONGATION             A_IMAGE/B_IMAGE                                           
#  12 ELLIPTICITY            1 - B_IMAGE/A_IMAGE                                       
         1 -14.4938    154.5123     57.7559   8.2145212321e+01   3.9178565137e+01     1.359236     1.148836  48.08 0.0009624852    1.147    0.128
         2 -14.9505    166.5731     42.9987   7.5545552717e+01   3.8368494490e+01     1.243044     1.105085  10.34  0.004106557    1.339    0.253
         3 -15.0044    184.4756      9.6802   6.3874557518e+01   3.7894926782e+01     2.030372    0.9641883  66.11  0.006801913    1.771    0.435
         4  -9.8150    150.8263    243.2561   1.2422775658e+02   2.5911724787e+00    0.1510596    0.1395036   6.71 0.0004736758    1.300    0.231
         5 -14.9678    100.4368    244.1427   1.3400875282e+02   1.0876679535e+01    0.7442855    0.6051367 -63.11  0.004887433    1.445    0.308
         6 -20.0166     62.3347    174.4296   1.3335057381e+02   3.1573464866e+01     18.24686     6.965363 -66.30   0.07479508    2.409    0.585
         7 -12.9600    143.7293    173.7944   1.1414991335e+02   1.7731824572e+01    0.9083437    0.6390025 -27.75  0.003860429    1.918    0.479
         8 -12.9114    204.6115    176.5273   1.0154034872e+02   4.6907135800e+00    0.5077891    0.4573139 -56.75  0.001766294    1.228    0.186
         9 -12.3744    126.6408    172.8024   1.1793316040e+02   2.1324053690e+01    0.5477329    0.3472627  64.16  0.001782444    1.874    0.466
        10 -11.3014     10.7643    174.6967   1.4472297887e+02   3.7225046891e+01     0.189858    0.1302362 -73.38 0.0003007958    1.202    0.168
        11 -12.4958    137.5047    171.0101   1.1504245361e+02   1.9602595438e+01    0.5370083    0.3012527 -47.45  0.002267234    1.839    0.456
        12 -11.5860    177.3912    169.7140   1.0577807123e+02   1.1644020356e+01    0.2942481    0.1443241 -49.35  0.001134358    2.145    0.534
        13 -11.2294     21.7945    238.8773   1.4754269779e+02   2.2627084908e+01    0.1641607    0.1128846 -78.85 0.0006671242    1.365    0.267
        14  -9.8172    139.1982    250.3790   1.2741730854e+02   3.3711660964e+00    0.1078915   0.09423058 -17.17 0.0002315059    1.579    0.367
        15 -12.8433    132.8099    168.5124   1.1565093290e+02   2.1101264044e+01    0.4546151    0.4262968  83.89  0.001334811    1.021    0.020
        16 -11.1916      7.1896    237.0880   1.4981247415e+02   2.4538582434e+01    0.1671496      0.10053  52.82   0.00117521    1.473    0.321
        17 -10.7277     14.3310    163.8208   1.4292885547e+02   3.9355490288e+01    0.2407201    0.1874352  43.48  0.001654235    1.508    0.337
        18  -9.5480      3.2005    164.3011   1.4537776409e+02   4.0169696186e+01    0.1088891   0.06614228 -63.34   0.00027132    1.446    0.308
        19 -11.6141     13.4393    233.8381   1.4860615293e+02   2.4516677431e+01     0.168723   0.09390961 -80.10  0.001103917    1.488    0.328
        20 -10.5206    136.7653    179.5459   1.1685583616e+02   1.7836506727e+01    0.2597125     0.143104  39.02 0.0005805859    1.851    0.460
        21 -10.3505    149.7406    229.9493   1.2251900321e+02   5.1291255103e+00    0.2114861     0.159003 -50.37  0.001203212    1.523    0.344
        22 -11.2332    174.2619    148.5466   1.0180090023e+02   1.6791364064e+01    0.4320994    0.2928927 -64.88  0.001641779    1.835    0.455
        23 -10.4031    110.7467    211.7692   1.2790019704e+02   1.5610363169e+01    0.1703431    0.1319039  83.31 0.0003249398    1.296    0.229
        24 -12.1702    152.5326    139.0735   1.0456496382e+02   2.3663092199e+01    0.3592205    0.2834155 -70.52  0.001035803    1.429    0.300
        25 -11.3187      5.9651    137.1611   1.4198954895e+02   4.6064246840e+01    0.2631644    0.1736865 -44.80  0.001330009    1.664    0.399
        26 -10.0225     13.7676    137.2329   1.4008160551e+02   4.5466569012e+01    0.1520415    0.1135733 -55.11 0.0002963224    1.287    0.223
        27 -13.8049     11.6811    206.0670   1.4706644325e+02   3.0333427631e+01    0.4496283    0.3346497  33.48  0.002501162    1.804    0.446
        28 -12.7396    106.0858    204.5430   1.2785981672e+02   1.7949520319e+01    0.4015436    0.3223557 -79.90  0.001718011    1.224    0.183
        29 -12.1236    160.5857    127.7571   9.9946720317e+01   2.4353132180e+01    0.4548146    0.3215974 -56.59  0.001633368    1.494    0.331
        30 -10.4509    153.2540    200.5874   1.1702095819e+02   1.0139765590e+01    0.2551022    0.1963985 -54.25 0.0009189679    1.395    0.283
        31 -10.2258    138.7436    200.3683   1.2012247950e+02   1.2954234351e+01    0.2172224    0.1834951  66.55 0.0006481775    1.153    0.133
        32 -10.6799    167.8966    112.8058   9.4507763112e+01   2.5831463523e+01    0.3652785    0.2451049  88.16  0.001398782    2.370    0.578
        33 -10.4535    141.5560    198.7227   1.1923003933e+02   1.2765837305e+01    0.2463853    0.2026369  72.62 0.0007508501    1.267    0.211
        34 -11.0908      7.0647    110.9952   1.3829747728e+02   5.1861173786e+01    0.1869348    0.1367291 -60.31 0.0005899291    1.084    0.077
        35 -10.7820    205.4530    110.1967   8.6205701151e+01   1.7499637697e+01    0.3263954      0.21749  44.99 0.0009867315    1.617    0.382
        36 -10.4964    112.6211    196.7668   1.2526815021e+02   1.8514326874e+01    0.2646709     0.214351   0.66  0.001354414    1.920    0.479
        37 -10.3503    103.4997    194.5956   1.2695270553e+02   2.0579248791e+01    0.3357216    0.2034617  28.36  0.001505928    2.212    0.548
        38 -11.4924    152.9437    192.9024   1.1571040577e+02   1.1780407625e+01     0.337235    0.2677649  76.36  0.001162139    1.453    0.312
        39 -11.0975      6.8882    101.9945   1.3696950337e+02   5.3853054909e+01    0.2128055    0.1667229 -14.40 0.0008020456    1.576    0.365
        40 -12.3806    209.4047    186.0755   1.0255080870e+02   1.9720411863e+00    0.5091983    0.2649428 -61.51  0.001679107    4.174    0.760
        41 -12.0314    153.1590    185.9774   1.1437484074e+02   1.3193566469e+01    0.3531342    0.2587726 -80.53  0.001306184    1.771    0.435
        42 -10.5763    145.8207     81.1522   9.0923995995e+01   3.7280527067e+01    0.2069473    0.1806854  10.48 0.0004578556    1.313    0.238
        43 -10.5295    160.3432    246.0544   1.2278290805e+02   4.7668493288e-01     0.259789    0.1223928 -48.66  0.001241862    2.525    0.604
        44 -11.7355    125.0859    243.7746   1.2927487829e+02   6.9081078887e+00    0.2717897    0.1550245 -57.91  0.001262612    2.014    0.504
        45 -13.0213    170.6822     35.1355   7.2631382859e+01   3.8387309716e+01    0.3935729     0.347105  32.75 0.0008111903    1.286    0.222
        46 -10.1681    109.0320    240.4119   1.3194973757e+02   1.0191799685e+01    0.1754982     0.161612  -6.74 0.0008551968    1.605    0.377
        47 -11.1163     13.5638     59.8391   1.2613187788e+02   6.2143273315e+01    0.1811811     0.170417 -45.28 0.0004343303    1.277    0.217
        48 -13.4512    193.1947    164.9384   1.0140263679e+02   9.2974037249e+00     1.747976    0.6449365 -54.27  0.002394698    4.426    0.774
        49 -10.6956    137.2280     31.1812   7.7621847694e+01   4.6934350016e+01     0.269843    0.1779402  71.83  0.001003355    1.657    0.396
        50 -12.9331    203.4870    166.0894   9.9549643561e+01   6.9281369921e+00    0.6765966    0.5255716 -25.74  0.001841166    1.361    0.265
