#   1 NUMBER                 Running object number                                     
#   2 MAG_AUTO               Kron-like elliptical aperture magnitude                    [mag]
#   3 X_IMAGE                Object position along x                                    [pixel]
#   4 Y_IMAGE                Object position along y                                    [pixel]
#   5 X_WORLD                Barycenter position along world x axis                     [deg]
#   6 Y_WORLD                Barycenter position along world y axis                     [deg]
#   7 A_WORLD                Profile RMS along major axis (world units)                 [deg]
#   8 B_WORLD                Profile RMS along minor axis (world units)                 [deg]
#   9 THETA_WORLD            Position angle (CCW/world-x)                               [deg]
#  10 FWHM_WORLD             FWHM assuming a gaussian core                              [deg]
#  11 ELONGATION             A_IMAGE/B_IMAGE                                           
#  12 ELLIPTICITY            1 - B_IMAGE/A_IMAGE                                       
         1 -15.2109    164.2722     54.0689   6.5925997322e+01   3.6761254379e+01     1.365483     1.150568 -21.90  0.003601295    1.210    0.174
         2 -15.4221    179.1566     25.9585   5.4103999847e+01   3.6599562928e+01     1.226228     1.008402 -69.92  0.003660871    1.274    0.215
         3 -14.7011    188.1116     12.6526   4.8630103763e+01   3.5636543476e+01     1.375883    0.5259063 -59.16  0.004248355    3.869    0.742
         4 -10.0752    153.1935    237.3567   1.0563461219e+02   9.7225289260e+00   0.09230026   0.07055773   7.34 0.0002745453    1.538    0.350
         5 -20.2833     74.0750    169.7469   1.1441261486e+02   3.1641779014e+01     12.90872     7.220524 -74.62   0.07035639    1.961    0.490
         6 -10.5545     15.3872    187.6707   1.2875103028e+02   3.4604685982e+01    0.1271993    0.1194002 -62.81 0.0003643957    1.533    0.348
         7 -10.9745    151.4498    229.8247   1.0512166807e+02   1.0877494976e+01    0.2653531    0.1305988  29.66 0.0006408059    1.808    0.447
         8 -11.1998    126.0735    228.7832   1.0963461875e+02   1.4556498969e+01    0.1552649    0.1379137 -81.25 0.0008611592    1.499    0.333
         9 -10.5641    135.7983    228.6100   1.0782893259e+02   1.3230061644e+01    0.1467469   0.09894971  41.24 0.0003336665    1.105    0.095
        10 -14.2965    245.4860    164.8348   7.9005746633e+01   4.2355817942e+00    0.6036923    0.5039049  21.79  0.004319903    1.241    0.194
        11 -14.4864    230.7382    168.7907   8.2050462802e+01   6.1040280694e+00    0.6294175    0.4030084  22.34   0.00383969    1.363    0.266
        12 -11.9505    119.4447    234.3251   1.1137691158e+02   1.4709627433e+01    0.1412346    0.1312382 -28.25 0.0009710974    1.502    0.334
        13 -10.4863     22.3782    223.2760   1.2861871500e+02   2.7758342195e+01    0.1539406   0.06811012  75.50 0.0005616411    2.074    0.518
        14 -11.6601    103.6539    234.4978   1.1427778704e+02   1.6770652584e+01     0.143452    0.1333613  24.00 0.0005687946    1.385    0.278
        15 -11.3508     22.6261    155.6643   1.2564437349e+02   4.0314280781e+01     0.280916    0.1348619  54.99  0.001575602    1.709    0.415
        16 -10.4802     17.9875    153.9515   1.2668203557e+02   4.1080046099e+01    0.1830244    0.1481207  43.56 0.0005353015    1.265    0.210
        17 -11.0844     18.2083    149.6368   1.2639459677e+02   4.1976342081e+01    0.2929674    0.1632915 -59.41  0.001431707    2.046    0.511
        18 -12.5208    233.9959    150.9962   7.8143368963e+01   7.6304207754e+00    0.2766002    0.1632037 -33.87  0.001095481    1.802    0.445
        19 -10.9708     49.1374    250.1123   1.2492200468e+02   2.0985852920e+01     0.234117   0.05795091  48.24  0.001280999    2.404    0.584
        20 -11.1947    186.4672    151.2435   8.6537547888e+01   1.6045063773e+01    0.3048124    0.1748719  35.42  0.001518642    1.593    0.372
        21 -11.2553     20.8747    215.0802   1.2862635686e+02   2.9249407375e+01    0.1402469    0.1078766  67.46 0.0009651564    1.166    0.142
        22 -10.9552    174.5323    148.8451   8.8425158434e+01   1.8648366314e+01    0.2441705    0.2103514  69.60 0.0007648961    1.497    0.332
        23 -11.4767      9.4940    214.5747   1.3072713722e+02   3.0363438455e+01    0.1538134    0.1105513  61.10 0.0006432793    1.074    0.069
        24 -11.1275    189.0578    147.1717   8.5230035636e+01   1.6165760346e+01    0.2315914     0.176531 -64.15 0.0009253788    2.079    0.519
        25 -11.5670    157.9597    144.9135   9.1118925306e+01   2.2449904479e+01    0.2141613    0.2015424 -88.28 0.0004313327    1.277    0.217
        26 -11.6895    138.8207    211.5702   1.0537205397e+02   1.5122622796e+01    0.3173689    0.1780367 -55.19  0.001882325    2.410    0.585
        27 -12.0531    160.4326    127.9991   8.7057809542e+01   2.4910034459e+01    0.3391031    0.2814502 -58.45  0.001271667    1.439    0.305
        28 -12.2162    154.8097    125.9903   8.7862452896e+01   2.6418404535e+01    0.4196177    0.1995231  57.89  0.001509652    2.930    0.659
        29 -10.0517    177.6656    128.3144   8.3490733032e+01   2.1336756833e+01    0.1358524    0.1140521  88.79 0.0007046405    1.687    0.407
        30 -12.6248    237.0888    125.3165   7.2338486406e+01   1.0189612685e+01    0.4008288     0.224749 -40.77  0.001366136    2.059    0.514
        31 -12.4754    150.4466    119.8330   8.7467668145e+01   2.8450585277e+01    0.3913123    0.2632967 -69.34  0.001564538    2.300    0.565
        32 -12.5834    167.5453    112.6503   8.1961878371e+01   2.6106737970e+01    0.4363802    0.3467027 -82.76  0.001501815    1.801    0.445
        33 -12.2314     16.4783    210.1909   1.2929674270e+02   3.0482362588e+01     0.167294    0.1171303  80.67 0.0009010247    1.314    0.239
        34 -11.2048    205.4881    110.2247   7.4027505811e+01   1.8367115647e+01    0.2605734    0.2336106  15.85 0.0006202431    1.039    0.037
        35 -11.1032     21.6859    107.7951   1.2237505679e+02   5.1158416258e+01    0.1753915    0.1679299   7.85 0.0004856801    1.324    0.245
        36 -13.0348     12.0696    206.2122   1.3001684996e+02   3.1561422893e+01    0.5507337    0.2844028  28.69  0.003628121    1.983    0.496
        37 -12.3624     25.3934     98.1964   1.2015008481e+02   5.3156992410e+01    0.3291149    0.2663185 -69.98  0.001374484    1.165    0.142
        38 -11.2645     80.3600    250.0569   1.1954465671e+02   1.7502746856e+01    0.1279238      0.11008  46.17  0.001124588    1.299    0.230
        39 -11.5498    143.9491    209.1629   1.0409840186e+02   1.4698549731e+01    0.2046577    0.1648697 -32.48 0.0006211828    1.598    0.374
        40 -12.4400      4.7145     89.5305   1.2646095668e+02   5.6635663326e+01    0.4278535    0.2365475 -21.59  0.002227142    2.680    0.627
        41 -11.2996    146.6565    206.2917   1.0322022699e+02   1.4694968498e+01    0.1709994    0.1215335 -57.16 0.0004812793    1.917    0.478
        42 -11.7576    162.0457     84.5775   7.5750966683e+01   3.2278726770e+01    0.3350385    0.2495814 -89.12  0.001365581    1.916    0.478
        43 -12.4568     15.1717    195.8527   1.2908357151e+02   3.3120487841e+01    0.1821886    0.1605762  74.69  0.001130008    1.310    0.237
        44 -11.8902     23.8025    190.8801   1.2713030660e+02   3.3239164061e+01    0.2050233    0.1564778 -68.24  0.001486605    1.618    0.382
        45 -14.4211    152.9372     67.3430   7.2569245173e+01   3.7497023860e+01     1.016961     0.873892  20.60  0.001044233    1.267    0.211
        46 -11.3303    117.7535    243.7320   1.1251072836e+02   1.3695512628e+01    0.0913712   0.06856953  23.60 0.0005143381    1.436    0.304
        47 -13.7675    169.7014     45.4692   6.2090148402e+01   3.6605199614e+01    0.5417413     0.522504  -1.56 0.0008209076    1.056    0.053
        48 -11.5139    130.8274    190.3796   1.0432535234e+02   1.9538397733e+01    0.2402133    0.1884925  31.54 0.0004460967    1.170    0.145
        49 -11.2263    141.1459     71.2391   7.6550937622e+01   3.9710434782e+01    0.2830462    0.2137559  76.65 0.0008814468    1.632    0.387
        50 -10.3609    142.5630    232.0232   1.0695785507e+02   1.1846748892e+01    0.1148134    0.1105175 -27.28 0.0003590265    1.413    0.292
        51 -11.7061     13.5744     59.9383   1.1963379014e+02   6.3304691345e+01    0.2029575    0.1765236  51.49 0.0004339889    1.278    0.218
        52 -11.0397    130.1690    238.1444   1.0979705258e+02   1.2766582685e+01    0.1284369    0.1133754   9.57 0.0007448658    1.409    0.290
