#   1 NUMBER                 Running object number                                     
#   2 MAG_AUTO               Kron-like elliptical aperture magnitude                    [mag]
#   3 X_IMAGE                Object position along x                                    [pixel]
#   4 Y_IMAGE                Object position along y                                    [pixel]
#   5 X_WORLD                Barycenter position along world x axis                     [deg]
#   6 Y_WORLD                Barycenter position along world y axis                     [deg]
#   7 A_WORLD                Profile RMS along major axis (world units)                 [deg]
#   8 B_WORLD                Profile RMS along minor axis (world units)                 [deg]
#   9 THETA_WORLD            Position angle (CCW/world-x)                               [deg]
#  10 FWHM_WORLD             FWHM assuming a gaussian core                              [deg]
#  11 ELONGATION             A_IMAGE/B_IMAGE                                           
#  12 ELLIPTICITY            1 - B_IMAGE/A_IMAGE                                       
         1 -11.8899    158.1672     30.8908   7.6028380442e+01   4.1981530375e+01    0.8511565    0.5434376 -28.90  0.003667296    1.626    0.385
         2 -12.0687    151.1331     29.2206   7.6754201532e+01   4.3976088221e+01     0.953633    0.5682124 -21.95  0.004035322    1.831    0.454
         3 -10.3208    119.9138      9.2548   7.5685909272e+01   5.3805733904e+01    0.4472701    0.3700041  19.15  0.002316838    1.196    0.164
         4  -9.0473    141.8223      9.0140   7.1439099366e+01   4.8496263551e+01    0.2325762    0.1400753 -52.37  0.001080203    2.030    0.507
         5  -9.2417    235.2651      4.5955   5.9281130044e+01   2.5571921386e+01    0.3120638    0.2227916 -26.54 0.0007924939    1.521    0.342
         6  -9.1549    164.4953      5.9929   6.6963160249e+01   4.3027325097e+01     0.196755    0.1373918 -21.49 0.0008998795    1.579    0.367
         7  -9.0940    173.1160      3.5114   6.5076547189e+01   4.1045549347e+01    0.2261936    0.1865139  33.69  0.001017811    1.338    0.253
         8  -8.3083    170.6688    233.2228   1.2143537954e+02   3.7504752353e+00    0.2452347    0.1889339  29.20  0.001122994    1.191    0.161
         9  -9.2509    248.3890    249.2392   1.1044032370e+02  -1.0077710550e+01    0.3469875    0.1993116  55.75  0.001668344    4.154    0.759
        10 -18.3138     97.6526    213.6316   1.3277082290e+02   1.8818761490e+01     5.203685     4.170744  56.99   0.01162911    1.059    0.055
        11  -8.8641     17.2109    156.8781   1.4372689796e+02   4.0552670742e+01    0.3958597    0.1477801 -49.77  0.001709215    3.654    0.726
        12 -10.7015    189.5758    155.0246   1.0394829922e+02   1.3058127930e+01    0.6308919    0.5077231  13.88  0.002479557    1.361    0.265
        13  -8.7119      6.4108    155.4473   1.4597788902e+02   4.1760332888e+01    0.3420735    0.1211081 -58.46  0.001680198    2.681    0.627
        14  -7.4252    194.2436    148.6423   1.0161749901e+02   1.3233158790e+01     0.140232    0.1138655 -67.70 0.0003469358    1.594    0.373
        15  -9.7108    172.6951    145.2209   1.0529451075e+02   1.8430529410e+01    0.3468613    0.3028622  88.40 0.0009073113    1.372    0.271
        16 -13.7389     84.5482    188.0088   1.3239666474e+02   2.5816352420e+01    0.7949557     0.432464  20.96  0.003136162    3.833    0.739
        17  -9.3067     44.0360    139.2969   1.3542773490e+02   4.1874735979e+01    0.3306225    0.1605811 -68.20  0.001191916    1.765    0.433
        18  -8.4788      6.3461    209.4084   1.4936954832e+02   3.0789620473e+01    0.3101495    0.1175771 -88.18  0.001713927    2.296    0.564
        19 -10.8999    101.3834    126.0927   1.1807202613e+02   3.6803334810e+01    0.9506218    0.5179809  56.15  0.003950941    2.216    0.549
        20 -10.4826     97.5483    135.4923   1.2101873243e+02   3.5319398283e+01    0.4956298    0.3395609  24.60  0.001754764    1.900    0.474
        21  -9.7706    102.0494    131.2265   1.1898866485e+02   3.5518722195e+01    0.4860997    0.2421843  49.89  0.001333096    2.155    0.536
        22  -9.9121     98.1773    131.2115   1.1999179732e+02   3.6190019192e+01    0.4285906    0.3049254  65.08 0.0006023555    1.602    0.376
        23  -9.6686     11.6943    206.6409   1.4829210373e+02   3.0815574569e+01     0.353927    0.2154135  48.70  0.001670111    1.491    0.329
        24  -8.7583    189.5197    136.1190   9.9709618899e+01   1.6522896477e+01    0.2435188    0.2013126  44.54 0.0002590172    1.203    0.168
        25 -10.4857    154.9534    130.0426   1.0571917042e+02   2.5276017329e+01    0.4267521    0.3303957  33.55  0.001762093    1.371    0.271
        26 -10.5873    160.1314    128.7006   1.0422276004e+02   2.4420218454e+01    0.4409666    0.3631922 -50.59  0.002220441    1.247    0.198
        27 -10.1593    235.5826    128.4196   8.9453084052e+01   8.0644724843e+00    0.2600524    0.2543491  -3.22  0.001208959    1.120    0.107
        28  -9.3198    177.7722    211.1040   1.1680260337e+02   5.8349104853e+00    0.4291149    0.2223727 -29.87  0.001640457    2.702    0.630
        29 -11.9433    126.2971    108.4372   1.0730835927e+02   3.5952784544e+01     1.308009    0.5817921 -48.45  0.004858443    2.240    0.554
        30 -10.2861    119.5488    111.2989   1.0979936025e+02   3.6707039429e+01    0.4781353    0.3236891 -14.03  0.001934133    2.436    0.589
        31 -11.2879    139.7194    119.2524   1.0669373345e+02   3.0812491779e+01     0.860584    0.5525747  86.16  0.003080222    3.062    0.673
        32 -10.7479    134.6498    118.6608   1.0779152751e+02   3.2012965881e+01    0.6315104     0.248625 -49.77  0.002168226    2.637    0.621
        33 -10.5420    135.7085    113.6807   1.0627749118e+02   3.2851120567e+01    0.5383878    0.3884215  79.89  0.001679423    1.949    0.487
        34  -9.3472    151.1609    121.8417   1.0460765158e+02   2.7791790600e+01    0.2324068    0.2100569 -82.92 0.0006381629    1.212    0.175
        35  -7.9798    164.8316    120.1623   1.0107405759e+02   2.5088282625e+01    0.2058696    0.1798207  12.54 0.0003516638    1.279    0.218
        36  -9.6119     88.8001    119.0664   1.1993693488e+02   4.0537287241e+01    0.3043054    0.2617685  79.47  0.001165083    1.230    0.187
        37  -9.5764     73.5570    118.4922   1.2404631443e+02   4.3000479020e+01    0.2876408      0.23983 -36.22   0.00152168    1.345    0.256
        38  -7.5751     46.3612    114.7386   1.3103606100e+02   4.7311852235e+01    0.2036925    0.1154891 -67.32 0.0002829782    1.540    0.351
        39  -8.0855     43.4469    114.4697   1.3182024282e+02   4.7688158157e+01    0.2222431    0.1532335  74.93  0.000122668    1.661    0.398
        40  -7.6617    182.1470    113.8275   9.5758466729e+01   2.2351970087e+01    0.2023256    0.1771048  14.61 0.0003174997    1.246    0.198
        41 -10.2695     25.3088    201.8000   1.4553787539e+02   3.0405902535e+01       0.4649    0.2424264 -69.72  0.002892096    1.792    0.442
        42  -9.2103    239.5579    109.8572   8.4471169990e+01   1.0189982646e+01    0.3196125    0.2526757  60.64  0.001735388    1.451    0.311
        43  -8.1639    186.1457    109.1176   9.3731702632e+01   2.2300904532e+01    0.2045378    0.1782839 -67.02 0.0003321687    1.284    0.221
        44 -10.6366     67.6902    107.3718   1.2340959365e+02   4.6399357064e+01    0.7326579    0.3250826  30.44  0.003044582    2.741    0.635
        45  -9.2863    117.6694    100.7097   1.0753227072e+02   3.9379628189e+01    0.2757577    0.2511511 -84.92  0.000580447    1.192    0.161
        46  -9.8446    159.0488    134.3160   1.0579594008e+02   2.3518659597e+01    0.4584638    0.2884014 -57.11  0.001775917    1.864    0.464
        47  -8.0024     80.0023    107.9922   1.1995296964e+02   4.4470238849e+01    0.2027256    0.1931497 -61.53 0.0004710219    1.050    0.048
        48  -8.8314    202.2451    171.6700   1.0493363824e+02   7.6499291747e+00    0.3143053    0.2357431 -78.91  0.001174436    2.334    0.572
        49 -10.9771    138.2334     70.4483   9.3248944925e+01   4.0890635058e+01    0.5252111    0.3875061 -42.70  0.001566616    1.362    0.266
        50  -8.5352    190.1833     66.1030   8.1170833090e+01   2.8776667760e+01    0.2085425    0.1974442  10.89 0.0002419399    1.138    0.121
        51 -11.5984    150.4081     47.9056   8.3151180377e+01   4.1635071365e+01     0.812015    0.6317609 -31.16 0.0007581835    1.310    0.237
        52 -11.0155    150.1758     60.5922   8.7330770063e+01   3.9712695911e+01    0.6577126    0.3953455 -25.91  0.002644757    1.823    0.451
        53 -12.1436    145.5777     57.6990   8.7418170509e+01   4.1311356445e+01     1.051862     0.911395  12.26  0.004917977    1.256    0.204
        54  -9.1449    130.6125     53.9285   8.9675910789e+01   4.5504691291e+01    0.3405109    0.2647142 -89.01 0.0003996005    1.740    0.425
        55  -9.7379    245.4492     53.1834   6.9959428817e+01   1.7362398765e+01    0.2347517    0.2246306 -27.83 0.0003915149    1.147    0.128
        56  -8.4834    249.2192     49.0592   6.8556753194e+01   1.7078529194e+01    0.2918904    0.1951058  39.24 0.0009630473    1.958    0.489
        57  -7.5876    221.6782     40.2995   6.9494267977e+01   2.4649196017e+01    0.1479163   0.09707927 -64.00 0.0004427151    1.625    0.385
        58  -9.0882      4.1430    218.6839   1.5018857645e+02   2.9267461948e+01    0.2248955    0.1813623 -82.02  0.001224664    1.421    0.296
        59  -8.1447      6.0176    171.1944   1.4719808814e+02   3.8442920239e+01    0.2038584    0.1140108  60.11  0.001303017    1.581    0.367
        60  -9.9120    148.2662    244.4873   1.2694454756e+02   5.7510405690e+00    0.2554745    0.2196519  -1.79 0.0007614143    1.537    0.349
        61 -10.6704    141.0830     30.7731   7.9250515639e+01   4.6302949403e+01    0.3262592    0.2763124  75.76 0.0002489876    1.258    0.205
        62  -9.6767    175.8136    220.2612   1.1859986970e+02   4.7813331517e+00    0.3535981    0.2571705 -48.91  0.002152862    1.690    0.408
        63 -10.1977    247.8590    228.7461   1.0727066383e+02  -7.8735314996e+00    0.3728025    0.2284836 -15.95  0.002355149    1.642    0.391
        64  -8.8429    245.5092    240.0699   1.0948346205e+02  -8.7477528345e+00    0.1518598    0.1000708 -20.39 0.0007235963    1.570    0.363
        65  -9.2916    169.0130    236.9936   1.2225444036e+02   3.4868297474e+00    0.3633532    0.2565129  82.50 0.0003203755    2.486    0.598
