#   1 NUMBER                 Running object number                                     
#   2 MAG_AUTO               Kron-like elliptical aperture magnitude                    [mag]
#   3 X_IMAGE                Object position along x                                    [pixel]
#   4 Y_IMAGE                Object position along y                                    [pixel]
#   5 X_WORLD                Barycenter position along world x axis                     [deg]
#   6 Y_WORLD                Barycenter position along world y axis                     [deg]
#   7 A_WORLD                Profile RMS along major axis (world units)                 [deg]
#   8 B_WORLD                Profile RMS along minor axis (world units)                 [deg]
#   9 THETA_WORLD            Position angle (CCW/world-x)                               [deg]
#  10 FWHM_WORLD             FWHM assuming a gaussian core                              [deg]
#  11 ELONGATION             A_IMAGE/B_IMAGE                                           
#  12 ELLIPTICITY            1 - B_IMAGE/A_IMAGE                                       
         1 -13.1283     17.4630      4.1004   1.1143034429e+02   7.2829896287e+01     1.213468    0.6879805  -7.55  0.007288988    1.945    0.486
         2 -13.5375      2.3258     11.8259   1.2333047358e+02   7.2732115039e+01     2.226374    0.5252432 -55.14  0.009398925    3.572    0.720
         3 -14.3494    199.1767     15.9312   6.6396617944e+01   3.3250589968e+01     2.841498     1.649113  30.01   0.01209489    2.558    0.609
         4 -10.4882    163.4247    248.8429   1.2568226265e+02   2.8543707630e+00    0.2287979     0.153284  56.81  0.001089421    1.497    0.332
         5 -11.1268    138.9652    250.2257   1.3013453411e+02   6.5590201695e+00    0.2586758    0.1351608  48.07  0.001509374    1.466    0.318
         6 -11.6708    123.8228    249.8748   1.3274571909e+02   8.9699465341e+00    0.5312942    0.1262653  43.10  0.002145516    3.139    0.681
         7 -11.5293     97.8817    249.3025   1.3718871215e+02   1.2945292734e+01    0.3877567    0.2259889  51.42  0.001860019    1.277    0.217
         8 -10.8196    101.4082    246.2362   1.3630517562e+02   1.2914513485e+01    0.2162279    0.1457777  74.65 0.0006913068    1.461    0.316
         9 -10.7985     88.8629    249.0979   1.3871514485e+02   1.4269575836e+01    0.2604226    0.1441017  67.62 0.0009001256    1.715    0.417
        10 -11.3821     81.2974    248.7916   1.3997552801e+02   1.5374903060e+01    0.3593818    0.1866254  61.97  0.002209312    1.630    0.386
        11 -12.1219     81.4184    242.8118   1.3947908950e+02   1.6336960778e+01    0.4123303    0.2662606  78.41  0.002784645    1.467    0.319
        12 -10.7741     65.9665    250.4593   1.4265922697e+02   1.7159206130e+01     0.328218   0.07424836  42.26  0.001454018    3.226    0.690
        13 -14.8026     33.8239    246.4931   1.4762307659e+02   2.1731959766e+01     8.585296     2.698886  32.01   0.03166144    6.831    0.854
        14 -10.9741    135.6572    243.1573   1.2993650817e+02   8.1186090815e+00    0.1777444    0.1228836  52.99  0.001155449    1.166    0.142
        15 -15.1429      3.3693    230.8821   1.5172094087e+02   2.7586887223e+01     6.916012    0.3597068 -74.15   0.02378553    7.691    0.870
        16 -12.7680     43.9242    231.0000   1.4507133341e+02   2.3231170049e+01    0.3193409     0.269764  85.29 0.0008120532    1.335    0.251
        17 -15.3447     20.0237    172.2154   1.4548598848e+02   3.7347264348e+01     6.607735      2.04976  88.27   0.02304155    4.874    0.795
        18  -9.0333    152.7048    212.9913   1.2289490088e+02   1.0011361767e+01    0.1649706    0.1511414  53.75 0.0003511895    1.105    0.095
        19  -9.6141     94.6337    216.5025   1.3462678650e+02   1.9015844025e+01    0.2456669    0.1450242  71.46 0.0009434448    1.781    0.439
        20 -10.0270    192.1776    193.2025   1.1200785109e+02   5.9963374460e+00     0.538237    0.2783102 -63.10  0.001659504    6.125    0.837
        21 -11.5278     68.4420    196.7266   1.3773898174e+02   2.6618961156e+01    0.3361772    0.2390352 -50.76  0.001584489    1.878    0.468
        22 -11.6023     73.5336    189.3893   1.3591839498e+02   2.7411055112e+01    0.2535166    0.2244382 -66.15 0.0006694398    1.362    0.266
        23  -9.5177    145.2989    244.6521   1.2838682916e+02   6.3539213985e+00    0.1178413      0.07832  65.59 0.0007036384    1.683    0.406
        24 -10.9677     82.4358    176.9921   1.3252043206e+02   2.8726776460e+01    0.2464614    0.2068897 -86.44 0.0004295606    1.111    0.100
        25 -13.2645     69.8690    174.6716   1.3500801257e+02   3.1032667529e+01    0.4574844    0.2768998 -47.28  0.001611507    2.180    0.541
        26  -9.3474    114.6611    174.6794   1.2501805026e+02   2.3971616719e+01    0.1303471    0.1111137  -4.16 0.0007050128    1.714    0.416
        27 -12.3856     49.7215    232.1564   1.4415434745e+02   2.2325949414e+01    0.3708396    0.2696784  75.82  0.001405378    1.100    0.091
        28 -12.1375     88.6654    167.4825   1.2981486485e+02   2.9832697111e+01    0.9344152    0.5235651  59.40  0.004496309    1.842    0.457
        29 -12.9333     67.5153    144.5140   1.3149324928e+02   3.8102198681e+01     1.157721    0.6252271  84.70  0.004939646    2.590    0.614
        30 -12.3095     58.1941    132.7683   1.3208492819e+02   4.2039186223e+01     2.067536    0.6171232 -74.24  0.004695367    8.513    0.883
        31 -14.0186     50.4705    221.2298   1.4326349663e+02   2.4209774962e+01      1.06321    0.5841432  62.16  0.005588072    1.452    0.311
        32 -10.0695    101.1245    151.5186   1.2431859513e+02   3.1336029309e+01    0.2915996    0.2801768  49.59 0.0007900653    1.182    0.154
        33  -9.2979    103.9735    147.2147   1.2285055503e+02   3.1809473907e+01    0.2264802    0.1795814 -20.80    0.0011422    1.842    0.457
        34 -11.9062     89.9521    150.9318   1.2694512516e+02   3.3313737136e+01    0.2677121    0.2483539 -48.89 0.0004970984    1.272    0.214
        35 -11.1793     44.6525    149.2674   1.3776533450e+02   3.9848928814e+01     0.278862    0.2264996 -16.08  0.001660689    1.930    0.482
        36  -9.0977    186.2906    239.6193   1.2044077523e+02   3.5832182581e-01    0.1118572   0.08677132  67.38 0.0007017586    1.744    0.427
        37 -12.4144     29.1841    138.8049   1.4032032777e+02   4.3821383513e+01    0.3932335    0.2387091  48.72  0.002334921    1.686    0.407
        38  -8.7513    192.3478    144.1578   1.0208307282e+02   1.4351305297e+01    0.1971883    0.1350122 -48.90 0.0004065599    1.605    0.377
        39  -9.8545    111.4853    136.8832   1.1897601424e+02   3.2785029262e+01    0.3416804    0.2464545 -25.12  0.001423529    2.033    0.508
        40 -10.4524     99.0165    134.0062   1.2158517943e+02   3.5668291089e+01    0.2751994    0.2262027 -38.09 0.0005742435    1.418    0.295
        41 -13.9006     10.1928    206.9885   1.4952110406e+02   3.1294334390e+01      1.08193    0.7947511  50.31  0.008477243    1.400    0.286
        42 -11.1174     50.3784    129.8819   1.3371002940e+02   4.3651775316e+01    0.2630512    0.2034639  78.75 0.0006668739    1.249    0.200
        43 -14.2383     57.9729    212.4064   1.4120726787e+02   2.4924369175e+01     2.367213    0.7039047  53.57    0.0103121    2.961    0.662
        44  -8.5440    117.3332    129.3128   1.1588625570e+02   3.3379682611e+01    0.1464426    0.1202965  -7.58 0.0007044981    1.681    0.405
        45 -10.8318     33.6300    228.8832   1.4669023537e+02   2.4801644626e+01    0.1902417    0.1433914 -85.17 0.0007255619    1.347    0.257
        46  -9.4637    108.1163    123.7796   1.1705532100e+02   3.6373584498e+01    0.2066267      0.18608  80.86 0.0003265923    1.106    0.095
        47 -10.9596    168.1993    113.2140   9.9719957330e+01   2.5749321720e+01    0.3826077    0.3225982 -82.59 0.0007751923    1.394    0.283
        48  -8.4177     81.6177    170.2739   1.3181450100e+02   3.0298663441e+01    0.1415014   0.08630919  67.04 0.0006998657    1.707    0.414
        49 -11.0568     44.0519    108.8496   1.3207464773e+02   4.9247039196e+01    0.3913276    0.1163111  42.83  0.001490484    3.689    0.729
        50  -9.3195    155.8070     76.3892   9.2170018524e+01   3.5824021089e+01     0.224761    0.1411652  43.60 0.0005028165    1.641    0.390
        51 -10.7312    249.2720    248.5069   1.1109291172e+02  -1.0281608502e+01    0.1846805    0.1441534   0.86  0.001423538    1.230    0.187
        52 -12.0932    108.1837    248.2119   1.3530868818e+02   1.1598250814e+01    0.5419288     0.256243  62.22  0.002844586    2.265    0.558
