#   1 NUMBER                 Running object number                                     
#   2 MAG_AUTO               Kron-like elliptical aperture magnitude                    [mag]
#   3 X_IMAGE                Object position along x                                    [pixel]
#   4 Y_IMAGE                Object position along y                                    [pixel]
#   5 X_WORLD                Barycenter position along world x axis                     [deg]
#   6 Y_WORLD                Barycenter position along world y axis                     [deg]
#   7 A_WORLD                Profile RMS along major axis (world units)                 [deg]
#   8 B_WORLD                Profile RMS along minor axis (world units)                 [deg]
#   9 THETA_WORLD            Position angle (CCW/world-x)                               [deg]
#  10 FWHM_WORLD             FWHM assuming a gaussian core                              [deg]
#  11 ELONGATION             A_IMAGE/B_IMAGE                                           
#  12 ELLIPTICITY            1 - B_IMAGE/A_IMAGE                                       
         1 -14.7702     68.4300    144.1217   1.0740960942e+02   3.7417749011e+01     5.397986     2.748343  71.25  0.003814203    3.463    0.711
         2 -14.4974    198.4093     37.1691   4.7878576251e+01   3.0900087355e+01     1.937201     1.480875  23.10  0.006773995    1.742    0.426
         3 -14.5558    209.3293     25.4995   4.3429976532e+01   2.9669608504e+01     1.492505     1.127935   2.64  0.003046996    1.856    0.461
         4  -9.2899    120.7887      8.6030   5.1401268613e+01   5.3589217035e+01    0.1889968    0.1233303  75.66 0.0009434232    1.703    0.413
         5 -10.6783     61.1103      7.3463   6.7420157092e+01   6.6220442693e+01    0.2026922     0.130223  25.05 0.0007282733    1.424    0.298
         6 -11.3797     42.5034      6.5170   7.4577585053e+01   6.9273301656e+01    0.2379635    0.1067759  38.99   0.00122359    2.211    0.548
         7 -12.5193    233.4852      2.5661   3.5666057111e+01   2.6543730158e+01    0.7558974    0.2906279  75.62   0.00341517    2.449    0.592
         8 -11.6481     60.6348      2.1238   6.4955094756e+01   6.6844712697e+01    0.5003471    0.1154013  44.06  0.001878828    3.584    0.721
         9  -9.8462    111.7548    217.5206   1.0789256275e+02   1.4542966158e+01    0.2017312    0.1729663 -75.84 0.0005842712    1.262    0.207
        10 -11.4488    140.1745    249.6051   1.0627874179e+02   4.5291256105e+00    0.3557601    0.2200286  46.44  0.002149149    1.316    0.240
        11 -12.8983     71.8708    174.3096   1.1103029781e+02   2.9781318374e+01     0.892957    0.4637883 -34.73  0.003156521    4.469    0.776
        12 -13.8732     46.8980    222.7377   1.2121187509e+02   2.2676344669e+01     1.555531     1.318685  18.59   0.00544032    1.810    0.448
        13 -14.5096     85.5597    229.6602   1.1446119569e+02   1.6220500399e+01     1.664933     1.255597  74.95  0.003326695    1.212    0.175
        14 -16.1304     60.5621    247.3285   1.2056346696e+02   1.6397540959e+01     9.325297     2.921468  30.06  0.008137842   10.316    0.903
        15 -11.2281    208.5563    196.5830   8.4847963538e+01   1.4349831950e+00    0.2399067    0.2093536   7.62 0.0006498311    1.021    0.021
        16  -9.8506    111.1673    197.1747   1.0528626403e+02   1.8679384424e+01      0.27305    0.1647881  19.24  0.001155361    2.780    0.640
        17  -9.5789     81.7258    194.9381   1.1143038984e+02   2.3766665843e+01    0.1887189    0.1581645  78.49  0.001166925    1.054    0.051
        18 -11.6251     73.9890    188.5695   1.1235801247e+02   2.6269322149e+01    0.5300496    0.2566548  69.52  0.002146207    2.910    0.656
        19  -9.2164     97.4788    191.0208   1.0744165598e+02   2.2203379093e+01    0.1852763    0.1282139 -63.43 0.0003970469    1.480    0.324
        20  -9.2100     94.6119    187.2583   1.0756069286e+02   2.3473160547e+01    0.1673816    0.1231531 -57.01 0.0002854785    1.437    0.304
        21 -10.4271    146.9136    183.3423   9.5136041804e+01   1.5179235037e+01    0.2603689    0.2219193  38.25  0.001301726    1.113    0.101
        22  -8.8645     97.2773    184.5883   1.0657477902e+02   2.3634889722e+01    0.1462881   0.09645059  77.77 0.0006799188    1.791    0.442
        23 -10.2053     99.4380    180.6402   1.0549403725e+02   2.4158173477e+01    0.2397712    0.2231589  57.32 0.0005783506    1.109    0.098
        24  -9.4367     41.0387    178.3136   1.1855459345e+02   3.2761557928e+01    0.1706663     0.135644  64.94  0.000364429    1.149    0.130
        25 -11.3876    139.6742    173.6015   9.4980273300e+01   1.8556480540e+01    0.7934197    0.3796588  58.20  0.002783445    3.058    0.673
        26  -9.5995     45.8238    165.8182   1.1612026450e+02   3.5085273497e+01    0.1939816    0.1583002 -71.56    0.0012173    1.172    0.147
        27  -9.8633     32.3621    165.1987   1.1920576987e+02   3.6694208228e+01    0.1899382    0.1267645 -65.35 0.0005849972    1.384    0.277
        28 -10.0119    159.8150    163.5273   8.8412131485e+01   1.6716017569e+01    0.2749023    0.1966537 -88.64  0.001172876    2.251    0.556
        29 -13.2181     82.7713    162.3515   1.0666866310e+02   3.0975225228e+01     1.711727    0.5355577  53.05 0.0003981287    5.114    0.804
        30 -13.8179     70.9688    157.5164   1.0886967673e+02   3.3842554443e+01    0.5940024    0.5476516 -36.31  0.001564802    1.331    0.249
        31 -12.2980     89.5489    155.3034   1.0380854977e+02   3.1587764805e+01    0.6201701     0.456131 -25.70  0.003008907    1.971    0.493
        32 -16.8347      8.5238    244.3355   1.2910474825e+02   2.2846471927e+01     10.48812       1.4941 -78.45   0.01575529    6.569    0.848
        33 -11.2391    133.5360    143.6135   9.0350971530e+01   2.6339832659e+01     1.167558    0.2930152 -54.26  0.002746311    5.731    0.826
        34  -8.7986    112.5304    150.5707   9.7086040601e+01   2.8773883231e+01    0.1477972    0.1390868  82.23 0.0001330766    1.024    0.023
        35 -10.5849    174.2846    148.6723   8.1970450014e+01   1.6762272149e+01    0.3554581     0.283692 -71.61  0.001331276    1.600    0.375
        36 -11.9522     41.5364    145.9223   1.1473468097e+02   4.0278104412e+01    0.4966473    0.2943273 -36.84  0.002407173    2.409    0.585
        37 -10.3385    143.3859    145.2052   8.8296533819e+01   2.3979516341e+01     0.225026    0.1443603 -58.29   0.00095673    1.734    0.423
        38 -11.0067     84.3597    143.7526   1.0310626348e+02   3.5170964351e+01    0.3303745    0.2394981  74.22 0.0009642974    1.571    0.363
        39 -12.4830     90.4824    140.3134   1.0082191505e+02   3.5024904041e+01    0.2872022     0.261328 -42.10 0.0004498707    1.197    0.164
        40  -9.4260     38.8779    137.8546   1.1434905496e+02   4.2501418858e+01    0.1840835     0.151643 -59.17            0    1.203    0.169
        41 -12.5313     44.9084    129.5270   1.1147572549e+02   4.3878919001e+01    0.4642453    0.3046533  53.00  0.002498265    1.668    0.401
        42 -11.4244    135.7867    128.4235   8.6271209140e+01   2.9303856524e+01    0.6704314    0.2064762 -50.85  0.001934067    3.535    0.717
        43 -11.2750     32.5448    131.4520   1.1518024783e+02   4.4675492469e+01    0.2505693    0.2191605 -22.46  0.001614891    1.472    0.320
        44 -10.2530    112.0894    130.4788   9.2934318220e+01   3.3568232919e+01    0.3145315    0.2508279  -3.80  0.000992105    1.701    0.412
        45 -13.6107     45.0865    203.8773   1.2005020567e+02   2.6717976890e+01    0.6064643    0.4903338 -71.40  0.001384598    1.342    0.255
        46 -11.0216    103.1903    140.2796   9.7427398147e+01   3.2874185641e+01    0.5366065    0.3476054 -26.83  0.002220708    2.350    0.574
        47 -10.9004    160.3110    127.4664   8.0087827656e+01   2.4196229020e+01    0.4259059     0.304884 -52.70  0.001922704    1.465    0.317
        48 -11.1145     99.2009    126.7031   9.5598039875e+01   3.6816758553e+01    0.2897246     0.248198  -9.30   0.00049229    1.445    0.308
        49 -11.3569    119.1404    123.2751   8.9351644283e+01   3.3883450885e+01    0.6160208    0.3915007 -11.52  0.002117709    3.304    0.697
        50 -13.2242     55.3017    146.3331   1.1121791573e+02   3.8591642900e+01     1.676603    0.8673744 -51.49  0.007876298    1.937    0.484
        51 -10.5148    105.9333    130.4397   9.4585100887e+01   3.4720226976e+01    0.4079783    0.2676888 -56.66   0.00186064    1.486    0.327
        52  -9.9777    108.1281    119.2372   9.1374758654e+01   3.6956248662e+01    0.2111356    0.2004575 -18.23 0.0003548637    1.134    0.118
        53  -9.9586    168.1620    113.1378   7.4627807516e+01   2.5394431752e+01    0.4011165      0.26748 -79.51  0.001420818    2.615    0.618
        54 -10.4904    134.6516    112.6005   8.2552067728e+01   3.3075588200e+01    0.3874875    0.1436967 -48.79  0.001234436    2.770    0.639
        55 -11.8233     40.7785    113.6280   1.1003745404e+02   4.8175055222e+01    0.2776868    0.2402564  44.07  0.001383453    1.326    0.246
        56 -12.1682     43.5516    109.1992   1.0838300579e+02   4.8955853346e+01     0.409386    0.3479114 -74.54  0.001331306    1.087    0.080
        57 -11.7661    118.1141    109.6133   8.6168330384e+01   3.7219607796e+01    0.6334841     0.479316  88.26  0.002826652    1.818    0.450
        58 -10.2819    205.4497    110.0992   6.6256155017e+01   1.7377793514e+01    0.3148467    0.2281392  44.76 0.0006401655    1.459    0.315
        59 -11.9685     32.4005    108.5284   1.1170845832e+02   5.0212847728e+01    0.3626242    0.2457488 -62.21  0.001783111    1.209    0.173
        60 -10.1719    134.6895    105.3927   8.0598449229e+01   3.4643339011e+01    0.5392283    0.1416877 -41.74  0.001449328    3.882    0.742
        61 -11.8968    194.1020    196.5942   8.7662623817e+01   3.9874621778e+00     1.189935    0.6168013 -62.31  0.003535504    6.361    0.843
        62 -10.9528    242.1177    100.8045   5.7945823490e+01   1.1012870238e+01    0.4299414    0.1104452 -44.94  0.001259532    4.099    0.756
        63  -9.6633     48.6322    171.1283   1.1606850619e+02   3.3524907829e+01    0.2872103    0.1762956 -29.02  0.001286291    3.259    0.693
        64 -11.3796     52.3667     93.1311   1.0214589314e+02   5.1795764325e+01    0.5867112    0.4043854 -69.30  0.002735224    1.474    0.321
        65 -10.4915     41.7443     91.9389   1.0544998253e+02   5.3249438095e+01    0.1994783    0.1909754 -10.99 0.0005171834    1.194    0.163
        66 -14.5044     29.6690    248.4618   1.2588100813e+02   1.9889012027e+01    0.7777937     0.520802  28.22  0.005317325    2.154    0.536
        67  -9.8849    157.8195     81.1900   6.7986039948e+01   3.4145393503e+01    0.2167767    0.1862867  16.01 0.0005685256    1.324    0.244
        68  -9.0701    184.6218     77.1864   6.1329014514e+01   2.8249176198e+01    0.2129893    0.1458886 -22.74 0.0005676298    1.657    0.396
        69  -9.5539     58.6516     67.3075   9.2879795704e+01   5.6768882822e+01    0.2260364     0.159596  44.02 0.0006795786    1.703    0.413
        70 -10.9369     13.4539     59.7350   1.0840304243e+02   6.2829988787e+01    0.2202488    0.1836037 -55.36 0.0004285232    1.113    0.101
        71 -16.6438      6.6666    208.7262   1.2772843155e+02   2.9763999954e+01     7.121478    0.9678031 -70.64   0.02684239    4.815    0.792
        72 -13.5344    188.8446     44.1923   5.1203932233e+01   3.2355683921e+01     1.169218    0.7063469  45.80  0.001060089    1.819    0.450
        73  -9.9903    172.3240    239.9520   9.8984307007e+01   8.8332815705e-01    0.2517277    0.1943987 -77.89  0.001513791    2.090    0.521
        74  -9.6551     43.4267    236.3341   1.2280915526e+02   2.0501031104e+01    0.1616536    0.1365563  78.36 0.0002731457    1.231    0.188
        75 -11.8335    147.2741     51.4287   6.0987791435e+01   4.1840350346e+01    0.5559084    0.3610951 -79.81  0.002219751    2.471    0.595
        76 -11.0535     11.5591     52.3764   1.0730910146e+02   6.4502869382e+01    0.2050726    0.1592019 -73.63  0.000897081    1.442    0.307
        77 -11.0503    149.0126     45.0222   5.8511777323e+01   4.2359627277e+01      0.33575    0.2604612 -71.94 0.0005693915    1.556    0.357
        78 -10.1348    113.3742    207.7530   1.0628332778e+02   1.6176044316e+01    0.2450789    0.1760584  66.54 0.0009137336    1.424    0.298
        79 -11.6311     20.6826     33.4997   9.7220555221e+01   6.7566278651e+01    0.3551922     0.179709  30.21  0.001838714    2.307    0.566
        80  -9.4764     21.0390     54.0947   1.0377062518e+02   6.3489866047e+01    0.1800536     0.146454  83.17  0.001137518    1.749    0.428
        81  -9.3612    189.6834     15.0153   4.2863628475e+01   3.5731867114e+01    0.1839891    0.1699401 -56.16 0.0005765405    1.116    0.104
        82 -14.3246     55.2256    192.8730   1.1692735350e+02   2.7831443544e+01     1.832908     1.422769 -89.74   0.01176503    1.119    0.107
        83  -9.9909     72.3958    230.2325   1.1702922424e+02   1.7953191626e+01     0.246464    0.2078637  27.89  0.001685033    1.577    0.366
        84 -10.3435    108.1054    203.8233   1.0687231085e+02   1.7820369035e+01    0.2076174    0.1618772  67.11 0.0005489846    1.228    0.185
        85 -10.1589     56.3609    224.1167   1.1954035903e+02   2.1235318188e+01    0.2005664     0.127621  57.51 0.0004000931    1.276    0.216
        86 -13.7157     16.5233    193.7102   1.2496655662e+02   3.1934468879e+01     1.065063    0.4192865 -74.38  0.002915644    2.122    0.529
