#   1 NUMBER                 Running object number                                     
#   2 MAG_AUTO               Kron-like elliptical aperture magnitude                    [mag]
#   3 X_IMAGE                Object position along x                                    [pixel]
#   4 Y_IMAGE                Object position along y                                    [pixel]
#   5 X_WORLD                Barycenter position along world x axis                     [deg]
#   6 Y_WORLD                Barycenter position along world y axis                     [deg]
#   7 A_WORLD                Profile RMS along major axis (world units)                 [deg]
#   8 B_WORLD                Profile RMS along minor axis (world units)                 [deg]
#   9 THETA_WORLD            Position angle (CCW/world-x)                               [deg]
#  10 FWHM_WORLD             FWHM assuming a gaussian core                              [deg]
#  11 ELONGATION             A_IMAGE/B_IMAGE                                           
#  12 ELLIPTICITY            1 - B_IMAGE/A_IMAGE                                       
         1 -13.8811    147.3785     61.7250   5.8386019599e+01   4.0046399810e+01     3.577805     2.000195 -14.24   0.01267064    2.948    0.661
         2 -13.3019    151.9428     48.1152   5.2998109792e+01   4.1097018060e+01     1.498998      1.07858  37.33  0.003191203    1.621    0.383
         3 -11.0369    168.4294     22.3009   4.1942522187e+01   4.0332628112e+01    0.4800635    0.3114229  -3.02  0.001001772    2.053    0.513
         4 -11.4776    167.0343     14.9813   3.9733670739e+01   4.1490486212e+01     0.443042    0.3764463 -59.68 0.0006855566    1.093    0.085
         5 -11.0231    177.6339     15.4020   3.8732865189e+01   3.8778706938e+01    0.4066852    0.3537705  40.78   0.00100068    1.340    0.253
         6  -9.7539    202.7625     10.4728   3.5093630984e+01   3.3229997629e+01    0.3265972    0.2203323  40.98   0.00171531    1.933    0.483
         7 -10.7681    162.4174      4.2307   3.6687737451e+01   4.3724705633e+01    0.5887564    0.3417068  42.22  0.002751743    2.069    0.517
         8 -11.5659    176.4834      5.1667   3.5678228314e+01   4.0086250711e+01    0.7770957    0.5637968  45.41  0.003632804    1.606    0.377
         9 -10.4296    172.0127      2.4179   3.5210131493e+01   4.1457162876e+01     0.458658    0.3441581  65.11  0.001993692    1.353    0.261
        10 -10.2366    120.4433      8.5839   4.3835190949e+01   5.4232485186e+01    0.2933677    0.2326868  39.11 0.0008229469    1.317    0.241
        11 -10.8206    153.2026      4.1251   3.7609968354e+01   4.6104698882e+01    0.4517897    0.2895413   1.10  0.001773532    2.013    0.503
        12  -8.2471    218.2092    224.4851   8.0799987304e+01   5.3026405399e-01     0.154493   0.08827997  28.16 0.0009962687    1.484    0.326
        13 -14.9342     75.3743    242.2988   1.0970253961e+02   1.6198732820e+01     2.482348    0.4386134  44.66  0.009502248    3.898    0.743
        14 -15.6575     58.6800    208.9437   1.1068735347e+02   2.4137860787e+01       1.6645      1.03915 -67.59  0.009173975    1.771    0.435
        15 -15.1592     80.7065    165.6824   1.0088057739e+02   3.0474225830e+01     1.985171     1.225096  -5.48  0.006396797    3.485    0.713
        16 -15.7477     69.9929    217.9704   1.0894332986e+02   2.1078049878e+01     1.128349    0.7128688 -83.52  0.005044974    1.818    0.450
        17 -15.4853    127.5109    195.3820   9.3827560429e+01   1.7446782768e+01     1.929545    0.5243337 -51.94  0.004308668    4.045    0.753
        18 -19.1942     98.2075    201.6170   1.0113902826e+02   2.0515508593e+01     4.970553     4.163423  47.81   0.02290372    1.048    0.046
        19  -9.7891    189.3645    188.2898   8.0079530104e+01   9.1992739445e+00    0.3011699    0.1903152 -42.39   0.00147374    1.764    0.433
        20 -11.4059     45.7063    126.1771   1.0552195184e+02   4.4629756318e+01    0.6029616    0.4688681 -43.84  0.001902878    1.458    0.314
        21  -9.2969     11.9983    186.6233   1.1993036336e+02   3.3510960799e+01    0.2816654    0.2282176  32.81  0.001964865    1.347    0.258
        22  -8.2002    205.0450    127.6884   6.5208018637e+01   1.6133259159e+01    0.1820984    0.1661786   8.25  0.000442818    1.102    0.093
        23  -8.2541    235.4465    125.4455   5.9953670005e+01   1.1168182222e+01    0.1276578     0.105602 -20.78 2.620437e-05    1.013    0.013
        24 -15.8447     83.3907    185.0459   1.0265149786e+02   2.5876338262e+01    0.9160678    0.6333954 -30.02  0.004792824    2.112    0.526
        25  -8.9938    191.1098    153.4349   7.3230689652e+01   1.4409271798e+01    0.3283807    0.2832349  63.12  0.001943385    1.560    0.359
        26 -10.9387     33.1291    120.8074   1.0892242197e+02   4.7340352469e+01    0.6414509    0.3390049 -38.97  0.002294101    2.519    0.603
        27  -9.1873     20.3053    153.9520   1.1599478131e+02   4.0234343260e+01    0.4224421    0.2415422 -29.93  0.001860001    2.928    0.658
        28 -10.4795    168.1174    113.6618   6.8837450170e+01   2.5819860325e+01    0.4055516    0.3301941 -72.69  0.001266931    1.557    0.358
        29  -9.7829    199.3524    181.4427   7.7046542279e+01   8.7135423602e+00    0.2916245    0.2561969 -15.03  0.001479654    1.166    0.142
        30  -9.4859     51.6220    111.1803   1.0115488295e+02   4.7785329828e+01    0.3024422     0.178586 -54.38  0.001288674    1.618    0.382
        31 -10.0710     51.0475    106.6016   1.0052067788e+02   4.9039444075e+01     0.292817     0.275188  70.98 0.0009247728    1.080    0.074
        32 -10.4268    134.9492    108.1101   7.4985867716e+01   3.3913180730e+01    0.5140182    0.2669786 -55.51  0.001944912    2.273    0.560
        33 -12.2306     74.1971    107.2557   9.2645077929e+01   4.5604919690e+01     1.175561    0.5101771  30.17  0.003869125    2.666    0.625
        34  -9.6920     67.7830    108.5973   9.5097579158e+01   4.6246388748e+01    0.3352011    0.2368733  56.29   0.00124876    1.523    0.343
        35 -10.5535     64.1407    107.8486   9.6184765592e+01   4.6966977518e+01    0.4616188    0.3245622 -27.10  0.001305423    1.896    0.473
        36 -10.0551    245.9569    106.3066   5.4383604634e+01   1.2088839871e+01    0.3739975    0.2178843   2.91  0.001697731    2.841    0.648
        37  -9.1273     14.6135    179.2596   1.1896816004e+02   3.4891571277e+01      0.33797    0.1535672 -69.52  0.001702566    2.155    0.536
        38  -9.4706     83.2244    100.1324   8.7945426797e+01   4.5877961548e+01    0.3761041    0.2215242  51.29  0.001102548    1.879    0.468
        39  -8.9904      1.9605    151.3000   1.2084423074e+02   4.2289749453e+01    0.3768145    0.1527402 -81.67  0.001791082    2.124    0.529
        40 -10.8170     91.0402     99.7610   8.5300594652e+01   4.4576562729e+01     0.382022    0.3379529 -84.54  0.001995393    1.187    0.158
        41  -8.8702     63.0462     95.9185   9.3945999601e+01   5.0156546282e+01    0.2358141    0.1735841 -29.30   0.00112748    1.660    0.398
        42 -10.0345    114.4209     94.3388   7.6729375368e+01   4.1220895274e+01    0.3555356    0.2696083  20.42 0.0009931461    1.663    0.399
        43  -9.3748     95.3722     95.1049   8.2677890146e+01   4.4871254535e+01    0.2467536    0.2126044  25.91 0.0004507702    1.284    0.221
        44 -11.0100    190.3129    175.8736   7.7705853807e+01   1.0946698333e+01    0.4667916    0.3537887  27.39  0.002753637    1.230    0.187
        45  -9.1756     88.0458     89.3321   8.3457160799e+01   4.7611810153e+01    0.2798138    0.2141276 -60.16 0.0003663499    1.305    0.234
        46 -10.4722    189.6330    171.7882   7.7080951160e+01   1.1694152767e+01    0.3542164    0.3022348  84.57   0.00172987    1.939    0.484
        47  -7.8840     35.2954     89.2846   1.0318763564e+02   5.5316505244e+01    0.1397551   0.09776079 -39.80 0.0002045721    1.543    0.352
        48 -12.3085    139.2163     75.4097   6.4566272536e+01   3.9556880386e+01     1.142493    0.8274789  53.47  0.005379362    1.422    0.297
        49 -10.1647     39.0093    243.9508   1.1686400263e+02   1.9901915617e+01    0.5568483    0.2458641  86.60  0.003164262    2.648    0.622
        50  -9.3025     13.2260     56.1832   1.0645308536e+02   6.5594493487e+01    0.2062214     0.155583 -47.90 0.0009130715    1.197    0.165
        51 -11.3665    247.0878     49.5625   4.1347406894e+01   1.9340455260e+01    0.7398828    0.4920582  16.36  0.003899096    2.413    0.586
        52  -8.6355    219.0047     43.8266   4.2548906411e+01   2.5755013199e+01    0.2260644    0.1311443 -66.57  0.001084484    2.006    0.501
        53  -8.5921    221.8229     40.1572   4.1332869330e+01   2.5606062431e+01    0.2041078    0.1510725 -49.41   0.00054496    1.174    0.148
        54  -9.2319     30.8168    247.8584   1.1858024136e+02   2.0065361477e+01     0.324951    0.1201418  62.73  0.001761752    2.506    0.601
        55  -9.4871    230.0981     63.0064   4.6207050765e+01   2.0947562534e+01    0.3367185    0.1451814 -52.83   0.00137718    2.701    0.630
        56  -9.2607    127.0340     28.7449   5.0811962489e+01   5.0211320435e+01    0.2469266    0.2053125 -27.67 0.0004521987    1.231    0.188
        57  -9.1248    168.3055    243.2411   9.2018915383e+01   4.4594148681e+00     0.403962    0.2006692  32.02  0.002270337    1.580    0.367
        58  -9.0122     25.7534    141.5561   1.1345302234e+02   4.2776026878e+01    0.3817075    0.2120867  -6.31  0.001543632    3.240    0.691
        59  -8.7754    220.5068     22.4923   3.6923342384e+01   2.7954765955e+01    0.1289783    0.1102748 -48.97 0.0008103658    1.034    0.033
        60  -8.4062    232.6204     20.1111   3.5448703010e+01   2.5633300066e+01    0.1722976    0.1370333 -34.96  0.001097714    1.148    0.129
        61  -9.5794    204.2352    200.5081   7.9436117040e+01   5.3261597700e+00    0.2693005     0.159457   7.82  0.001486922    1.900    0.474
        62  -8.3130    244.3441     14.7122   3.3430774896e+01   2.3819554409e+01    0.1308058   0.06880903 -55.32  0.000321883    1.649    0.394
        63  -9.2654    230.5962    212.1427   7.6900002883e+01   4.4654071780e-01    0.1962091    0.1739726 -37.28  0.001486592    1.788    0.441
        64  -8.7754    206.4493    193.1907   7.7828730178e+01   6.0103589814e+00    0.2028962    0.1448192  24.14 0.0005017408    1.251    0.201
        65  -8.0677     21.9897    244.2647   1.2009651105e+02   2.1516766519e+01    0.2249248   0.05151415  45.15  0.001123838    2.482    0.597
        66  -8.5924     47.9810    249.8051   1.1544416760e+02   1.8003845322e+01    0.1495028    0.1229734  32.29 0.0008556242    1.306    0.234
        67  -9.1069    184.7010    228.6426   8.7163247684e+01   4.2341412612e+00    0.2419867    0.2142944 -30.66  0.001850318    1.452    0.312
