#   1 NUMBER                 Running object number                                     
#   2 MAG_AUTO               Kron-like elliptical aperture magnitude                    [mag]
#   3 X_IMAGE                Object position along x                                    [pixel]
#   4 Y_IMAGE                Object position along y                                    [pixel]
#   5 X_WORLD                Barycenter position along world x axis                     [deg]
#   6 Y_WORLD                Barycenter position along world y axis                     [deg]
#   7 A_WORLD                Profile RMS along major axis (world units)                 [deg]
#   8 B_WORLD                Profile RMS along minor axis (world units)                 [deg]
#   9 THETA_WORLD            Position angle (CCW/world-x)                               [deg]
#  10 FWHM_WORLD             FWHM assuming a gaussian core                              [deg]
#  11 ELONGATION             A_IMAGE/B_IMAGE                                           
#  12 ELLIPTICITY            1 - B_IMAGE/A_IMAGE                                       
         1 -14.8356      3.5053    136.4228   1.4173123727e+02   4.5142283453e+01     5.088963    0.7345752 -78.46    0.0171788    5.592    0.821
         2 -13.5525    197.9834     27.2392   6.7252396072e+01   3.2151328598e+01     1.944396     1.446992  18.64  0.007548555    1.474    0.322
         3 -13.4420    213.4596      8.1120   5.9524669744e+01   3.0111752262e+01     1.073721     0.897899  39.78  0.003762672    1.246    0.198
         4 -11.8012      3.8599      4.5795   1.1992150435e+02   7.3567830581e+01    0.4771771    0.2819335 -52.05  0.003066964    1.267    0.211
         5 -10.7699    197.7649    246.6102   1.1599626130e+02   2.6495615202e+00    0.1690073    0.1193105  -3.40  0.001276581    1.690    0.408
         6 -11.4818    249.0544    247.9827   1.0835821375e+02  -4.4481729659e+00    0.3669421    0.2191689 -16.98   0.00278339    1.848    0.459
         7 -11.5293    139.2590    249.9697   1.2564917204e+02   1.0400825073e+01    0.3179299    0.1544302  42.53  0.002099937    1.478    0.324
         8 -10.8464    122.0117    250.0000   1.2839266590e+02   1.2684704142e+01    0.3326846   0.06172784  42.32   0.00141787    3.632    0.725
         9 -11.1434     99.4316    249.2182   1.3189704377e+02   1.5656509611e+01     0.266656    0.1771767  30.50  0.002011781    1.693    0.409
        10 -12.8097     33.3682    246.7685   1.4185173438e+02   2.3326567800e+01     1.195132    0.9209659 -24.42  0.009159409    3.292    0.696
        11 -11.5879     57.7003    212.3942   1.3615251070e+02   2.5994988167e+01      1.40849    0.1953538  52.44  0.003935982    9.328    0.893
        12 -12.8704     47.2726    216.3424   1.3817533114e+02   2.6487516316e+01    0.6734695     0.577012 -88.23  0.004669272    1.345    0.257
        13 -12.9785     32.2305    234.1605   1.4149374514e+02   2.5261330172e+01     0.230597    0.2060681  82.25 0.0007809511    1.454    0.312
        14 -13.9854     36.9357    227.6264   1.4046128835e+02   2.5782694902e+01    0.6592491    0.4063021  54.65  0.002374388    1.180    0.152
        15 -11.4444      5.0653    249.6744   1.4599392508e+02   2.5503253755e+01     0.931999     0.070447  36.00  0.004006564    6.327    0.842
        16 -10.8165      2.8605    245.9258   1.4620396039e+02   2.6215717767e+01    0.1830266    0.1296925  61.77  0.000811575    1.146    0.128
        17 -11.7094    151.8098    249.0168   1.2355629826e+02   8.8049530312e+00    0.4155125    0.1471086  35.99  0.002186398    2.409    0.585
        18 -11.1553     19.5612    243.5860   1.4375179104e+02   2.5081447241e+01    0.2152092    0.1212482  72.35  0.001827895    1.366    0.268
        19 -11.9527     12.4827    241.2486   1.4470185489e+02   2.6052915933e+01      0.24585     0.184484  75.61  0.002401489    1.233    0.189
        20 -11.8225    172.0690    248.2619   1.2024918871e+02   6.0815207939e+00    0.3645459     0.187061  45.95  0.002390539    1.569    0.362
        21 -10.2051     22.6225    237.2813   1.4307480355e+02   2.5712614970e+01    0.1544676    0.1310127 -15.88  0.001333088    2.491    0.598
        22 -11.3677     12.0262    232.5317   1.4448955845e+02   2.7372108483e+01    0.2132884    0.1340623  33.08  0.001765236    1.876    0.467
        23 -12.8936     89.7699    226.8725   1.3174721515e+02   1.9953327690e+01     1.600958          nan  46.26  0.004201862    9.651    0.896
        24 -12.5288    115.2965    231.7166   1.2786637780e+02   1.5952263747e+01    0.6493465    0.3207988  28.31  0.003517698    2.706    0.630
        25 -12.4014    124.4464    232.3725   1.2639164055e+02   1.4624313385e+01    0.6371827    0.1457938  39.54  0.002679626    3.487    0.713
        26 -10.8279     54.2987    228.8314   1.3774698941e+02   2.3797345903e+01    0.2483373    0.1457754 -79.66  0.001887155    1.781    0.438
        27 -10.2195     16.9630    226.9831   1.4354932250e+02   2.7772071807e+01    0.1459645    0.1002311  66.79 0.0008453969    1.031    0.030
        28 -10.1261    173.9540    222.7966   1.1690877151e+02   8.6867456326e+00    0.2901133    0.1993843  64.07  0.001823036    2.108    0.526
        29  -8.9182     91.7874    214.1021   1.3032193013e+02   2.1629026371e+01    0.2373101   0.09446884  57.27  0.001180074    2.717    0.632
        30  -8.8554    152.6732    213.0319   1.1936100305e+02   1.3157948355e+01    0.1456847    0.1247194  40.31 0.0003673643    1.082    0.076
        31 -12.3098     10.0526    207.0478   1.4389640742e+02   3.1542172942e+01    0.5180246    0.3103325  33.66  0.002952735    1.859    0.462
        32 -10.6753     59.8137    208.4601   1.3551325064e+02   2.6400431601e+01    0.3463377     0.112328  51.38  0.001814135    2.504    0.601
        33 -11.7586     59.3003    200.0051   1.3498985797e+02   2.7873785905e+01    0.2124142    0.1856122  75.45 0.0005696637    1.194    0.163
        34 -12.2822     21.1868    126.1163   1.3685189990e+02   4.6008623098e+01     1.080502    0.2022811  44.26  0.001689614    4.423    0.774
        35 -13.6080     11.0007    158.5185   1.4145918953e+02   4.0183934437e+01      3.64116    0.9856743  73.41   0.01123665    7.626    0.869
        36 -11.8595    237.8429    247.1248   1.0990670706e+02  -2.9015352356e+00     0.312974    0.2080858  14.63   0.00245084    1.228    0.186
        37 -12.1434      2.5237    183.7034   1.4426686566e+02   3.6154889289e+01    0.5074831    0.1419442 -79.39  0.002706815    2.988    0.665
        38 -13.1468     62.9191    176.6303   1.3234687574e+02   3.1631300618e+01    0.4091825    0.2464392 -47.63  0.001588353    2.277    0.561
        39 -10.8603     76.4309    178.2894   1.2979328747e+02   2.9680295212e+01    0.1971635    0.1733724  65.12 0.0003421099    1.096    0.088
        40  -9.3664     97.1235    174.1394   1.2510390010e+02   2.7673578535e+01    0.1894394    0.1233796  68.01 0.0007594337    1.656    0.396
        41 -12.0135     84.6453    168.8031   1.2705358667e+02   3.0385009619e+01    0.6636112    0.5591479  25.36  0.004517203    1.455    0.313
        42  -9.0380    195.0117    198.8219   1.0984585233e+02   8.3096090445e+00     0.223372    0.1262352 -56.32  0.001038428    3.759    0.734
        43 -10.3500     96.6969    153.2056   1.2238059644e+02   3.1714307115e+01     0.285093    0.2657084 -33.94 0.0008697967    1.303    0.232
        44  -9.4708     99.8731    148.8481   1.2101009210e+02   3.2104954450e+01    0.1844253    0.1747741  70.69 0.0003571965    1.063    0.059
        45 -12.0573     85.4365    152.2061   1.2476802060e+02   3.3512589549e+01    0.2497865    0.2237962 -49.88  0.001193494    1.300    0.230
        46 -12.1349     67.4373    143.5064   1.2773950895e+02   3.7635894171e+01    0.6146935    0.3544552  62.40   0.00248868    1.863    0.463
        47 -10.0765    109.2358    137.6057   1.1697713951e+02   3.2895870724e+01    0.3831231    0.2687151 -13.31  0.001640148    2.446    0.591
        48  -8.5285     79.0455    131.5214   1.2324574081e+02   3.8662336336e+01    0.1752569   0.09323093  59.59 0.0008042874    2.276    0.561
        49 -10.6557     29.8324    130.7502   1.3520526011e+02   4.4297781077e+01    0.2465652    0.1595038  59.66 0.0005750295    1.479    0.324
        50 -10.5257     96.0670    135.2477   1.1970403005e+02   3.5439699654e+01    0.2185921    0.1968199 -50.93 0.0003055507    1.190    0.159
        51  -8.8449    106.2608    124.2207   1.1519803024e+02   3.6126152200e+01     0.176133     0.171925 -24.58 0.0004298196    1.120    0.107
        52  -8.7428    168.1752    113.1766   9.8168202104e+01   2.6398482773e+01    0.1956564    0.1772999 -76.21 0.0007960891    1.368    0.269
        53 -10.5228     12.7428    196.0007   1.4299773160e+02   3.3171650530e+01    0.3588741    0.1078347  48.98  0.002107484    2.361    0.576
        54  -8.8784     41.1105     96.4621   1.2785711533e+02   5.0842335664e+01    0.1598482    0.1216103  35.40 0.0004243806    1.520    0.342
        55 -10.2936    158.0371     76.4931   9.0337288998e+01   3.5138788499e+01    0.2407062    0.2064964 -26.31 0.0005009767    1.133    0.118
        56 -12.0134     65.8825    191.4112   1.3308376077e+02   2.8603250330e+01    0.2155947    0.1894559  82.77 0.0004104302    1.180    0.153
        57 -11.2930      7.6735     52.1760   1.3140435417e+02   6.3313690993e+01    0.2479421    0.1565989  54.46  0.001445102    2.029    0.507
        58 -10.5611     81.0926    248.1190   1.3468806698e+02   1.8011979115e+01    0.1982471    0.1311188 -83.15  0.001615273    1.736    0.424
        59 -10.9374     46.6992    248.2648   1.3994183158e+02   2.1781542467e+01    0.2689523     0.105858  61.96  0.001515976    2.152    0.535
