#   1 NUMBER                 Running object number                                     
#   2 MAG_AUTO               Kron-like elliptical aperture magnitude                    [mag]
#   3 X_IMAGE                Object position along x                                    [pixel]
#   4 Y_IMAGE                Object position along y                                    [pixel]
#   5 X_WORLD                Barycenter position along world x axis                     [deg]
#   6 Y_WORLD                Barycenter position along world y axis                     [deg]
#   7 A_WORLD                Profile RMS along major axis (world units)                 [deg]
#   8 B_WORLD                Profile RMS along minor axis (world units)                 [deg]
#   9 THETA_WORLD            Position angle (CCW/world-x)                               [deg]
#  10 FWHM_WORLD             FWHM assuming a gaussian core                              [deg]
#  11 ELONGATION             A_IMAGE/B_IMAGE                                           
#  12 ELLIPTICITY            1 - B_IMAGE/A_IMAGE                                       
         1 -16.5064     31.7951    132.2474   1.2464944322e+02   4.4366641083e+01     4.375669     3.010667  43.19   0.02983066    1.537    0.349
         2 -12.5184      9.5965      5.2541   1.0647252343e+02   7.2824287305e+01     1.140523    0.7887902  23.55  0.008053483    1.790    0.441
         3 -10.2720    199.1299      3.1065   5.0839873580e+01   3.4351744258e+01    0.5612535    0.3422468  80.63  0.002599507    1.700    0.412
         4  -7.8112     89.9836      7.5121   7.2931864692e+01   6.1251256724e+01    0.1892457    0.1293301  48.52  0.000421047    1.503    0.335
         5  -7.4991    125.5150      9.6141   6.4723986008e+01   5.3017325511e+01     0.141974    0.1304678  29.03 7.969548e-05    1.027    0.026
         6  99.0000     10.2842    215.4200   1.3398562628e+02   3.0940259812e+01    0.2148569    0.1523952 -56.95  0.001763925    2.220    0.550
         7 -13.6222    248.6968    245.9447   9.8720904942e+01  -4.9490184750e+00     4.192698    0.9455704 -34.09   0.01898204    5.863    0.829
         8 -12.9907    238.9787    245.4587   1.0007752374e+02  -3.5604515743e+00    0.7853318    0.7297555 -26.49 0.0008062066    1.749    0.428
         9 -15.4641    105.7567    229.6976   1.1943905564e+02   1.7767361605e+01     1.315949     1.007389   9.78  0.008291752    2.457    0.593
        10 -14.7609     85.4029    213.3777   1.2146153628e+02   2.2961432707e+01    0.6815274    0.4153433  68.54  0.004630595    1.508    0.337
        11  99.0000     31.3483    209.5549   1.3035042320e+02   2.9880801720e+01    0.7206995    0.5517009 -71.25  0.006091002    1.606    0.377
        12 -15.1011     94.3460    220.8377   1.2057323330e+02   2.0618568737e+01     1.115929    0.6601862 -34.48  0.005462105    4.928    0.797
        13 -17.5880     61.4740    236.7507   1.2706122654e+02   2.2356128901e+01      4.98847      1.99549  41.26   0.03143888    2.056    0.514
        14 -10.6479     68.1211    213.4553   1.2443035850e+02   2.5138882790e+01    0.1460288    0.1119405 -89.94  0.001157971    1.284    0.221
        15 -12.4343     69.5438    208.5643   1.2381480986e+02   2.5758091143e+01    0.1816332    0.1469096  73.65  0.001455843    1.130    0.115
        16 -12.0457     76.8098    211.6954   1.2280533770e+02   2.4340185343e+01    0.1967447    0.1484074 -80.13 0.0007931354    1.402    0.287
        17 -12.0828     56.5502    192.1675   1.2484992648e+02   3.0106311724e+01    0.2902324    0.1474304  79.15  0.001211138    2.055    0.513
        18 -12.3696     62.5880    194.9955   1.2397497646e+02   2.8896549733e+01     0.304132    0.1610607  71.92  0.001612778    1.853    0.460
        19 -10.9799     51.0314    192.4551   1.2587554809e+02   3.0689214965e+01    0.1382594    0.1039199  67.90 0.0002049422    1.022    0.021
        20  99.0000     41.8796    198.7383   1.2793613396e+02   3.0604004579e+01    0.3778416    0.3109396  30.68   0.00302931    1.720    0.419
        21 -10.7955     49.2929    197.2498   1.2653185225e+02   3.0048908210e+01    0.3402123    0.2332691  25.02  0.001615493    2.204    0.546
        22 -12.0881     53.5324    197.5294   1.2579839343e+02   2.9521031015e+01    0.1761023    0.1386681  48.30 0.0001898413    1.332    0.249
        23 -12.7748     63.1791    210.7502   1.2507511114e+02   2.6173338435e+01    0.2957485    0.1114969 -59.23  0.001632903    3.145    0.682
        24 -11.3340     59.7234    210.4937   1.2564691443e+02   2.6624588526e+01    0.2545525    0.1996464 -58.93  0.001934664    1.764    0.433
        25 -12.9607     61.2957    202.4933   1.2479168110e+02   2.7767596121e+01    0.6905064    0.3575141  65.17  0.004377812    1.716    0.417
        26 -12.9178     67.4679    200.5619   1.2354597503e+02   2.7347554539e+01    0.3377631    0.2320995  19.50  0.002099771    2.590    0.614
        27  99.0000     47.0484    190.4860   1.2645479883e+02   3.1481610500e+01    0.5552905    0.3494579  21.40  0.003404208    2.733    0.634
        28 -11.9324     43.2985    190.4841   1.2713454563e+02   3.1891240140e+01    0.2804075    0.1535814 -77.02  0.001628134    1.709    0.415
        29 -10.9694     15.9399    210.1907   1.3288385804e+02   3.1268921807e+01    0.1099606   0.09014758  51.71 0.0009848836    1.440    0.306
        30 -10.5192     53.7866    208.2457   1.2650533554e+02   2.7681971846e+01    0.1217117   0.09172308  73.62 0.0002874063    1.083    0.077
        31 -12.1556     82.8561    197.9206   1.2053678955e+02   2.5828070936e+01    0.5471131     0.140375 -60.12  0.002413589    4.046    0.753
        32 -13.0528     76.5146    205.4595   1.2234341900e+02   2.5393620567e+01    0.3688893    0.1897366 -87.86  0.002160226    2.312    0.568
        33 -12.7945     78.6746    202.6961   1.2172293827e+02   2.5574116233e+01    0.2883836    0.1527967  46.85 0.0007743228    1.535    0.349
        34 -10.9073     21.8952    206.6428   1.3175911204e+02   3.1292661562e+01   0.08244728   0.04696094 -77.11 0.0005387458    1.686    0.407
        35 -11.3172     17.5047    206.0255   1.3244892038e+02   3.1809517696e+01    0.1074912   0.07063726 -63.45 0.0008273692    1.962    0.490
        36  99.0000      5.3911    206.5337   1.3442251371e+02   3.2813217531e+01   0.09452901   0.06363244  71.85 0.0007993617    1.025    0.024
        37  -7.9060    163.6850    201.3794   1.0623507655e+02   1.2953055222e+01    0.1885899    0.1494278  56.64 0.0006085744    1.241    0.194
        38  -9.0001     19.8154    193.7278   1.3147478163e+02   3.3681784443e+01     0.112613   0.07540124  74.04  0.000340715    1.084    0.078
        39  -9.5240     24.1471    191.5884   1.3061068917e+02   3.3645557347e+01    0.1380357   0.08117177  78.26 0.0006964352    1.342    0.255
        40 -12.5505     22.0080    197.9189   1.3131257670e+02   3.2752758624e+01    0.2519949    0.2448792 -50.64  0.002309009    1.730    0.422
        41  99.0000     26.7867    194.3988   1.3030544979e+02   3.2899825664e+01    0.1707607    0.1394414  69.47  0.001459235    1.217    0.178
        42  99.0000     75.9105    197.9225   1.2180185947e+02   2.6734843056e+01    0.2425977    0.1238861  32.60  0.001026975    2.395    0.582
        43 -11.6278     76.8322    192.4169   1.2113407526e+02   2.7563533080e+01    0.1729943    0.1384221  80.09 0.0002896677    1.120    0.107
        44  99.0000     35.4757    189.9688   1.2850890860e+02   3.2806710019e+01    0.2498666    0.1474143  76.75  0.001763504    1.397    0.284
        45 -13.5209     36.9637    184.2545   1.2786343134e+02   3.3675876380e+01    0.5408144    0.2031108  40.74   0.00309537    2.311    0.567
        46 -11.9831     42.5597    183.4659   1.2677292250e+02   3.3229327688e+01    0.1727261    0.1247687  61.37 0.0001244266    1.128    0.113
        47 -12.0706     61.8465    188.3901   1.2356627907e+02   3.0147758721e+01    0.1916221    0.1472322  66.70 0.0004121268    1.027    0.026
        48 -12.3336     63.0015    184.5007   1.2301446160e+02   3.0706037475e+01    0.1871069    0.1535477  78.71 0.0003924651    1.102    0.092
        49  -8.3587     92.9994    187.7028   1.1761733902e+02   2.6196498374e+01    0.1838041    0.1225039  71.93 0.0005253346    1.460    0.315
        50 -10.1144     82.7260    185.2547   1.1932385565e+02   2.8044595738e+01    0.1849308    0.1294986  66.12 0.0005387921    1.227    0.185
        51 -12.4190     53.2811    182.5199   1.2468808340e+02   3.2212469972e+01    0.1896761    0.1428618  70.36  0.001413191    1.028    0.027
        52 -10.7459     50.2965    180.2819   1.2507321749e+02   3.2961101312e+01    0.2179905    0.1517427 -59.37  0.001296709    1.733    0.423
        53  -8.0408     92.8412    182.0178   1.1702114630e+02   2.7221314034e+01     0.195471    0.1186945  59.88            0    1.492    0.330
        54 -11.5464     16.6903    182.4559   1.3143881740e+02   3.5960262414e+01    0.1149848   0.08770239  66.97 0.0003569475    1.135    0.119
        55 -10.7585      8.9428    182.0650   1.3279911727e+02   3.6708305818e+01     0.100561   0.03613153 -81.62 0.0003080232    2.348    0.574
        56  -9.0058     63.1226    179.9238   1.2258195930e+02   3.1525160521e+01    0.1158235   0.08821662  67.65 0.0008243725    1.048    0.045
        57  -7.6927     86.2084    178.6888   1.1794941848e+02   2.8750717654e+01    0.1102573   0.07440164  77.80 0.0002522749    1.468    0.319
        58  -5.4388     90.2826    175.3786   1.1676613007e+02   2.8784825679e+01    0.2292059    0.1495925 -42.85  0.001127387    2.233    0.552
        59  -8.1913     92.7840    171.0283   1.1574295730e+02   2.9229539430e+01     0.204345    0.1655636 -52.62 0.0007956443    1.503    0.334
        60 -15.2413     91.1710    237.1422   1.2241167082e+02   1.8655108379e+01    0.5207347    0.5096967  -8.46  0.004095978    1.662    0.398
        61 -11.8370     39.1997    172.6266   1.2660522515e+02   3.5588699300e+01    0.3655068    0.2268931  49.53  0.001679497    1.431    0.301
        62  -9.6689    175.0662    172.1691   9.9615887708e+01   1.5191791892e+01    0.3623708    0.2206059  47.76  0.000719927    1.463    0.316
        63  -7.9716    196.8687    171.3317   9.5452434370e+01   1.1282648779e+01    0.1768198    0.1409384  32.34  0.000432534    1.076    0.071
        64  -7.1186     48.4098    171.6198   1.2472291598e+02   3.4787538323e+01    0.1089488   0.08392999  73.16 0.0001634937    1.017    0.017
        65  -9.5515     23.8687    168.7899   1.2929833189e+02   3.7823141214e+01     0.210449   0.09962721  50.86  0.000868252    1.779    0.438
        66  -7.3057    155.4591    168.4884   1.0275648209e+02   1.9353121772e+01    0.1289626    0.1130631  41.00  0.000314671    1.049    0.047
        67  -7.2049     76.5792    167.5629   1.1864725271e+02   3.2129352344e+01    0.1176407   0.09500367  72.77 0.0001943025    1.031    0.030
        68  -9.1035     38.2957    166.0680   1.2627172555e+02   3.6929110825e+01    0.1395612    0.1039077  86.32  0.000296809    1.097    0.089
        69  -9.7670     98.8732    163.2702   1.1348893172e+02   2.9785635716e+01    0.3730861    0.3437736  87.18  0.001929607    1.137    0.120
        70  -9.6457    245.0721    163.2385   8.5718526971e+01   3.5108805344e+00    0.2048401    0.1770972 -15.46 0.0007524922    1.270    0.213
        71 -10.4846     21.1844    239.4786   1.3325358677e+02   2.6235142791e+01   0.08573472   0.07694515  11.72 0.0007749259    2.215    0.548
        72  -7.8935     71.2372    163.4171   1.1928825111e+02   3.3625359696e+01    0.1533502   0.09319042  53.66 0.0003217167    1.464    0.317
        73  -8.3133    244.8402    157.8700   8.4696779357e+01   4.1710738213e+00    0.1538296    0.1438673  -6.50            0    1.297    0.229
        74  -7.8587    232.2357    138.4109   8.2707644642e+01   8.9394813308e+00    0.1639128    0.1245036  51.59 0.0002439568    1.451    0.311
        75  -9.0130    162.9608    129.2213   9.3693700562e+01   2.4620469309e+01    0.2695086    0.2047342  44.59  0.001032075    1.241    0.194
        76  -8.5209    160.3373    126.7084   9.3695979472e+01   2.5609677545e+01    0.2594771    0.1688783  57.08 0.0006364328    1.634    0.388
        77  -8.7469    170.1087    158.1217   9.8059439299e+01   1.8306576692e+01    0.1997464    0.1650534  29.78  0.000420008    1.173    0.148
        78  -8.0348    110.4837    157.4908   1.1021125667e+02   2.9070548730e+01    0.1271575    0.1106493  67.70 0.0003638948    1.021    0.021
        79  -7.5369    213.5388    156.5364   8.9674349174e+01   1.0162072698e+01    0.1327636    0.1134149  22.77 0.0002725414    1.006    0.006
        80  -8.9634    196.5640    107.0530   8.1721414468e+01   2.1044989574e+01    0.2735545     0.206088  45.84 0.0005962939    1.290    0.225
        81  -7.7335    134.8074    105.6262   9.4551797362e+01   3.4837182631e+01    0.2031125    0.1326227  56.86 0.0009367727    1.650    0.394
        82  -8.0489    101.5399    156.5033   1.1197803213e+02   3.0670846968e+01    0.1973687    0.1509024  42.15  0.000606965    1.313    0.238
        83  -8.4417    104.9619    154.5057   1.1094726889e+02   3.0521531545e+01    0.2441616    0.2019129  64.11  0.000760242    1.088    0.081
        84  -7.6834    156.4430     93.5959   8.6448160663e+01   3.2479272012e+01    0.1474901    0.1410079  22.47  1.82785e-05    1.042    0.040
        85  -7.4754     95.2811     93.6368   1.0177243268e+02   4.4657953112e+01    0.1405853    0.1044623 -87.38 0.0006504328    1.678    0.404
        86  -8.0867    188.8137    153.8346   9.3644258223e+01   1.5351257208e+01    0.1785356    0.1566689  66.36  0.001061951    1.343    0.255
        87  -8.5081    229.8351     82.9974   6.9834481840e+01   1.6968473866e+01     0.240359    0.2032258  44.91 0.0006358931    1.209    0.173
        88  -7.9303    104.4881     82.5009   9.6387368447e+01   4.5390434714e+01    0.1403686    0.1331781 -53.53 0.0001760168    1.001    0.001
        89  -7.9578    181.9594     78.5242   7.6881667012e+01   2.9070055702e+01    0.2293822    0.1154713  34.38 0.0008098767    2.570    0.611
        90  -8.1530     81.7985     77.1435   1.0150483576e+02   5.0336783376e+01     0.205983     0.177451 -75.29 0.0006334665    1.210    0.173
        91  -7.6992    136.4928    154.2286   1.0417885049e+02   2.5237225234e+01    0.1671806    0.1247839 -71.61  0.000584585    1.588    0.370
        92 -11.5789    163.0717     51.1733   7.2244053676e+01   3.8086152678e+01    0.7840566    0.6184306 -14.02  0.003596754    1.333    0.250
        93  -8.5235    128.9918     51.7397   8.0186351184e+01   4.6223278805e+01    0.2346703    0.2025899 -29.38 0.0003453884    1.125    0.111
        94  -9.8966    171.8095     47.9272   6.9466634764e+01   3.6339008722e+01    0.4171767    0.2785309  20.96 0.0009088733    1.880    0.468
        95 -11.1989    177.6343     36.4243   6.4636383496e+01   3.6405589029e+01    0.6966765    0.6595942 -52.92  0.003653575    1.105    0.095
        96 -10.6138    177.0126     44.0431   6.7242990551e+01   3.5543547527e+01    0.4975265    0.3869197 -12.97  0.002427273    1.349    0.258
        97 -10.9005    170.6050     40.5078   6.7242293132e+01   3.7696238974e+01    0.6100079    0.4184333  83.07  0.002677152    1.858    0.462
        98  -8.1637    224.5197     33.9492   5.7101456019e+01   2.4542294725e+01    0.2200563    0.1369073 -23.99   0.00101995    1.554    0.356
        99  -9.7774    182.3762     29.2318   6.1483064039e+01   3.6058162780e+01    0.4196165    0.2973962  20.99 0.0009964088    1.638    0.390
       100  -9.6734     14.0441    231.9897   1.3402400434e+02   2.8024461133e+01    0.1230889   0.06069394  44.56 0.0009416939    1.653    0.395
       101  -8.1855     70.2553     14.3972   8.2858349265e+01   6.4002291908e+01    0.1575971    0.1264176  50.75 0.0003737894    1.540    0.351
       102 -10.3778      8.1924    220.8096   1.3450298513e+02   3.0275346156e+01    0.1116499   0.08338195  27.23 0.0009386408    2.090    0.522
       103 -11.2039     16.3623    216.7431   1.3309032396e+02   3.0171725467e+01   0.07771625   0.06023006 -35.05  0.000572676    2.861    0.650
