#   1 NUMBER                 Running object number                                     
#   2 MAG_AUTO               Kron-like elliptical aperture magnitude                    [mag]
#   3 X_IMAGE                Object position along x                                    [pixel]
#   4 Y_IMAGE                Object position along y                                    [pixel]
#   5 X_WORLD                Barycenter position along world x axis                     [deg]
#   6 Y_WORLD                Barycenter position along world y axis                     [deg]
#   7 A_WORLD                Profile RMS along major axis (world units)                 [deg]
#   8 B_WORLD                Profile RMS along minor axis (world units)                 [deg]
#   9 THETA_WORLD            Position angle (CCW/world-x)                               [deg]
#  10 FWHM_WORLD             FWHM assuming a gaussian core                              [deg]
#  11 ELONGATION             A_IMAGE/B_IMAGE                                           
#  12 ELLIPTICITY            1 - B_IMAGE/A_IMAGE                                       
         1 -13.4586     68.2161    144.1096   8.7699245892e+01   3.7674412799e+01     3.364743     1.828963  76.75   0.00501522    5.304    0.811
         2 -13.8560    230.3204     38.5563   2.7087813092e+01   2.5255882086e+01     1.246334    0.8817328  50.15  0.008000574    1.946    0.486
         3 -12.9948      2.3446     10.6140   7.6434867544e+01   7.2627716714e+01      1.72778    0.3386566 -46.10  0.005995397    6.250    0.840
         4  -9.2424     57.3024      3.3455   4.6975771983e+01   6.5685939224e+01    0.1257589   0.07058948  26.05 0.0007039382    1.685    0.407
         5 -10.1771     25.8952    213.7113   1.0886641319e+02   2.4748435896e+01    0.2270061      0.15764 -69.21 0.0007441441    1.359    0.264
         6 -11.0966     80.9508    249.1564   9.9698183600e+01   1.0145968538e+01    0.3713662    0.2919287 -84.70  0.001797277    1.411    0.291
         7 -10.3036     26.7687    249.8777   1.1141426783e+02   1.6531263085e+01    0.3536217    0.1715665  25.00  0.001778505    2.348    0.574
         8 -12.6587     44.8671    173.9656   9.9680464613e+01   3.2737587268e+01     1.154318    0.7184129 -18.95  0.001819269    2.355    0.575
         9 -11.8505     52.0271    168.3953   9.6836188363e+01   3.3371851213e+01    0.3680466     0.356756 -17.45 0.0007407352    1.123    0.109
        10 -15.2241     22.2907    240.6180   1.1170911047e+02   1.8979115049e+01     9.135772     3.056638  18.12   0.02752742    6.983    0.857
        11 -11.2684    106.0325    212.2511   8.8925329346e+01   1.4722087248e+01    0.5368036    0.3353709  13.80   0.00234029    2.008    0.502
        12 -12.7648     10.9719    199.0860   1.1117223154e+02   2.9674616469e+01     0.373261    0.3051887 -50.02 0.0007880482    1.383    0.277
        13 -10.2953     80.5309    210.7282   9.5148734684e+01   1.8843271664e+01    0.3370628    0.2352557 -86.62  0.001033177    1.686    0.407
        14  -9.6119    171.5829    240.4152   7.8039890935e+01  -1.0382420353e+00    0.2871641    0.2070069 -61.25  0.001159135    2.015    0.504
        15  -9.8878    192.5124    194.2642   6.5273081363e+01   4.6764418792e+00    0.6603059    0.3407411 -64.77   0.00175656    6.804    0.853
        16 -13.9422     20.0531    192.0146   1.0834820122e+02   3.0617257925e+01     1.088799    0.8237172  87.30  0.002683728    1.196    0.164
        17 -11.8672    237.9068    172.6122   5.2513526160e+01   1.9246405641e+00    0.3815902    0.2599264  29.38  0.002182338    1.727    0.421
        18 -10.2796    104.0650    172.2173   8.2556851850e+01   2.4830629975e+01    0.4633206    0.1668953  38.57  0.001529809    2.724    0.633
        19 -12.1913     77.2885    138.4870   8.3661472637e+01   3.7803306987e+01    0.4592401    0.3910685 -71.61 0.0006136852    1.261    0.207
        20 -12.7158     73.1747    153.2518   8.7934832446e+01   3.4580187156e+01    0.9317647    0.8688079  88.01  0.001507941    1.138    0.121
        21 -15.3162      5.0617    180.7613   1.1111756438e+02   3.4683079240e+01     10.18467     1.348815 -73.00   0.02793011    5.469    0.817
        22 -13.3681     49.9041    154.7333   9.5332381349e+01   3.7228265750e+01    0.8331996    0.4419179 -47.91  0.001614985    1.799    0.444
        23 -10.1880     90.1265    140.8410   8.0165167140e+01   3.5157195207e+01    0.3928194      0.33557 -21.15 0.0008446628    1.230    0.187
        24  -9.3641     93.9938    137.9394   7.8329152525e+01   3.5237579184e+01    0.3205979     0.227337 -19.34 0.0009395821    1.753    0.429
        25  -8.1880    145.3587    141.6308   6.4855811958e+01   2.4643526480e+01    0.1654496     0.126224  88.13 0.0007000464    1.917    0.478
        26 -12.3277    241.4266    142.4643   4.6107916663e+01   6.8086053453e+00    0.6248927    0.2957484 -34.03  0.002862394    2.061    0.515
        27 -10.5536    105.1818    130.3550   7.3164226440e+01   3.5117491910e+01    0.4410306     0.369487  23.20   0.00113346    1.240    0.194
        28 -11.0319    101.7482    238.2416   9.3638216570e+01   9.5626621455e+00    0.2918136    0.2298981  37.10 0.0009307506    1.150    0.131
        29 -11.0070     67.3012    126.2757   8.4238060385e+01   4.2384045215e+01    0.4825547    0.3332588 -63.78  0.002235172    1.518    0.341
        30 -10.7752     90.6240    126.2251   7.6628819134e+01   3.8721261310e+01    0.3277971    0.2695459 -14.74 0.0005346902    1.322    0.244
        31 -12.8426     48.0345    111.0143   8.7496106959e+01   4.8689882218e+01     1.235026    0.9546072 -49.70  0.002642954    1.175    0.149
        32  -9.5339    110.6077    167.3656   7.9785024874e+01   2.4941034771e+01    0.2646402     0.235105 -66.66 0.0006568328    1.188    0.158
        33  -9.3497    103.0096    118.7601   7.0928864877e+01   3.8281535491e+01    0.2409036    0.2100722 -35.35 0.0002852441    1.118    0.106
        34 -12.4213    244.8540    110.4610   3.9385542096e+01   1.1819138041e+01    0.7237308    0.2655689 -34.36  0.002754898    3.294    0.696
        35  -9.5751    204.8447    110.7223   4.5295073162e+01   1.9029958394e+01    0.3132021    0.2403932  39.10  0.001705689    1.555    0.357
        36 -11.0913     64.3930    159.5161   9.1741335909e+01   3.4151976535e+01    0.3212201    0.2734405 -46.62  0.001685412    1.137    0.121
        37  -9.2148    164.6147     97.7330   4.9670946656e+01   2.9827690357e+01    0.2069108    0.1315401 -51.07 0.0006864326    1.592    0.372
        38 -11.8977    242.9405     93.3650   3.6309136459e+01   1.4963152170e+01    0.4146561    0.2143429 -33.26  0.002037182    2.157    0.536
        39  -9.6389     41.5152     92.1635   8.5392503777e+01   5.3894645182e+01    0.2310999    0.1905998  10.73 0.0005603698    1.236    0.191
        40 -10.6067     52.8721     90.5742   8.0561287860e+01   5.2871859171e+01    0.4026618    0.2590678 -35.14  0.001195078    1.471    0.320
        41  -9.9139    165.5028     85.5093   4.6420337059e+01   3.1856431354e+01    0.1420467    0.1344678 -79.64 -2.214014e-05    1.012    0.012
        42  -8.9362    184.5917     77.2633   4.0998768671e+01   2.9065712445e+01    0.1811474    0.1293987 -30.49  0.000384072    1.594    0.373
        43  -8.4582     21.3416     77.6413   8.9926044318e+01   5.9082974255e+01    0.1251198    0.1016488  64.87 0.0007036154    1.826    0.452
        44 -10.3235    156.2921     68.5389   4.3831762122e+01   3.6758413159e+01    0.3596758    0.1057558 -42.69  0.001063959    3.384    0.704
        45  -9.2180    161.4732     67.5593   4.2602177384e+01   3.5741757457e+01    0.1371598    0.1274715  84.76 2.466316e-05    1.007    0.007
        46 -10.6735     13.6153     59.9327   8.8564810196e+01   6.3382669569e+01     0.271565    0.1971096 -29.55 0.0007063735    1.106    0.096
        47 -11.2908     11.1285     53.7645   8.7925374848e+01   6.4777464377e+01    0.3221035    0.1872921 -38.58  0.001172249    1.391    0.281
        48 -12.3586    208.6326     53.8450   3.2389213953e+01   2.7518990038e+01    0.8037848    0.4405656 -56.94  0.003991227    1.744    0.427
        49 -12.8990    215.6815     49.6938   3.0728391150e+01   2.6659854252e+01    0.9327999    0.5269807 -55.60  0.004745572    1.598    0.374
        50 -14.7471     24.9551    179.5605   1.0583305484e+02   3.3322348522e+01     5.262361     2.091625  72.06   0.01506574    5.433    0.816
        51 -13.3692     10.4764    206.6074   1.1186772745e+02   2.7900227723e+01    0.9432734    0.6314471   6.45  0.002813251    2.084    0.520
        52  -8.3320    122.3201     22.6291   3.7431946983e+01   5.0465384117e+01    0.1294669   0.09176521 -73.41 0.0007034198    1.798    0.444
        53  -8.9432    189.7994     15.1854   2.6173819502e+01   3.6193399734e+01    0.1790136    0.1329413 -77.20 0.0007112999    1.160    0.138
        54 -10.8806    116.4963     24.6906   3.9225904372e+01   5.1559339383e+01    0.2779364    0.2235595 -88.76 0.0004837752    1.428    0.300
