#   1 NUMBER                 Running object number                                     
#   2 MAG_AUTO               Kron-like elliptical aperture magnitude                    [mag]
#   3 X_IMAGE                Object position along x                                    [pixel]
#   4 Y_IMAGE                Object position along y                                    [pixel]
#   5 X_WORLD                Barycenter position along world x axis                     [deg]
#   6 Y_WORLD                Barycenter position along world y axis                     [deg]
#   7 A_WORLD                Profile RMS along major axis (world units)                 [deg]
#   8 B_WORLD                Profile RMS along minor axis (world units)                 [deg]
#   9 THETA_WORLD            Position angle (CCW/world-x)                               [deg]
#  10 FWHM_WORLD             FWHM assuming a gaussian core                              [deg]
#  11 ELONGATION             A_IMAGE/B_IMAGE                                           
#  12 ELLIPTICITY            1 - B_IMAGE/A_IMAGE                                       
         1 -11.6398      3.6061     16.3802   8.1685430846e+01   7.7432364592e+01    0.4468567    0.2967348  59.06  0.001841746    2.118    0.528
         2 -12.4361    132.6505     19.1280   2.5521609741e+01   4.9228921878e+01    0.4332125    0.2921205  43.42 0.0004677732    1.724    0.420
         3 -11.1378     77.3025     10.0809   3.2325699844e+01   6.4741219911e+01     1.060544    0.2501407  48.07  0.003099463    4.249    0.765
         4 -10.4825     72.4911     10.4491   3.3941697168e+01   6.5907402690e+01    0.2571838    0.1866158  19.01    0.0010173    1.623    0.384
         5 -11.4548     76.6876     15.8492   3.5729823096e+01   6.4227958043e+01    0.5810065    0.3596752  -7.17  0.002281287    2.118    0.528
         6 -11.1725     73.1782     16.3638   3.7126471218e+01   6.5031132942e+01    0.4215613     0.293293  86.79  0.001054041    1.789    0.441
         7 -11.8205     31.3804     13.4091   5.5426955019e+01   7.4482023578e+01    0.3932099    0.3334078 -74.75 0.0005554241    1.633    0.388
         8 -12.1531    238.0985     17.6883   1.6156113896e+01   2.5148297231e+01    0.2361245    0.1557594 -42.71 0.0003005711    1.124    0.110
         9 -10.9070    194.2064     17.0308   1.8609440769e+01   3.4263318693e+01    0.2722913     0.240784  13.32 0.0008034888    1.490    0.329
        10 -11.0968     19.4705     16.5739   6.6861754366e+01   7.5747761078e+01    0.3498598      0.33352   2.58  0.002262264    1.110    0.099
        11 -10.8359     11.1635     14.5687   7.3116666494e+01   7.7149474854e+01    0.3569068    0.1906282 -27.01  0.001384467    2.234    0.552
        12 -10.6003    103.1530     17.0208   2.9686687526e+01   5.7270030904e+01    0.2093955    0.1938781 -79.04  0.000327509    1.044    0.043
        13 -11.6162    129.8129     12.1576   2.3239410412e+01   5.0723022827e+01     0.471972    0.2219066 -46.10  0.001995346    2.036    0.509
        14 -11.9029    154.7518      9.2236   1.9439209569e+01   4.4543154272e+01    0.3334989     0.251993 -54.35 0.0007989432    1.179    0.152
        15 -11.3863     60.4829     13.9536   4.0276170091e+01   6.8376919963e+01    0.4348897    0.3417488  38.85  0.001888433    1.251    0.201
        16 -12.2624    177.1043     10.4409   1.7977381607e+01   3.8914404110e+01    0.3566734    0.2770942  46.30  0.001233464    1.608    0.378
        17 -10.7882    164.8965     11.8468   1.9387479235e+01   4.1740510426e+01    0.1959355    0.1875933  65.98 0.0006967573    1.222    0.181
        18 -10.5128    138.5307     11.5883   2.1947205741e+01   4.8489324696e+01    0.2615566    0.0988084 -37.58  0.001027918    2.318    0.569
        19 -12.1960    145.7761      7.9752   1.9867713449e+01   4.6960378324e+01    0.5523015    0.3338186 -18.82  0.002685416    1.824    0.452
        20  -9.8482    241.3255      9.0432   1.4067227014e+01   2.5422344449e+01    0.1627475    0.1118769 -42.82 0.0004031774    1.079    0.073
        21 -10.9654    213.2396      7.9339   1.5081768408e+01   3.1063220359e+01     0.303371    0.1689125 -14.44   0.00156361    2.188    0.543
        22 -11.1438     37.1127      7.8871   4.7526677711e+01   7.4263632582e+01    0.3335324    0.2775178  83.25 0.0008226969    1.642    0.391
        23 -11.9154      9.4109      8.0166   7.0440938423e+01   7.8664394606e+01    0.3116872    0.2657984  31.37  0.000843395    1.293    0.227
        24 -10.9331     11.1824      3.2292   6.4700334844e+01   7.9350469550e+01    0.3337327    0.2467068 -45.52  0.001630495    1.367    0.268
        25  -9.4907     65.2556      8.6424   3.5181000729e+01   6.7887074285e+01    0.1393394    0.1016454 -56.95 0.0001924471    1.614    0.380
        26  -9.4359     91.6197      7.1693   2.7310093520e+01   6.1341522723e+01    0.1742689     0.134707   2.09 0.0003039613    1.514    0.339
        27 -10.9777    231.8462      5.9219   1.3750474664e+01   2.7519198303e+01    0.3282486    0.1506498 -86.76  0.001165012    2.366    0.577
        28 -10.3732    223.1445      5.0724   1.3919492647e+01   2.9314007933e+01    0.2708256    0.1555745 -14.90  0.001420205    2.080    0.519
        29 -10.8638    171.7946      4.8115   1.6668334382e+01   4.0737186359e+01     0.251224    0.1183698 -45.46 0.0009880962    1.777    0.437
        30 -10.8271    168.0585      1.9540   1.6047546572e+01   4.1908629338e+01    0.2231361    0.1646294 -66.86 0.0003106526    1.181    0.153
        31 -11.1703    164.3040      4.7882   1.7201649387e+01   4.2572708735e+01      0.25312    0.1997393 -57.34 0.0005296831    1.091    0.083
        32 -10.6643    202.1773      3.3489   1.4465314661e+01   3.3870637653e+01    0.2813111    0.1562562  55.02 0.0009401112    2.286    0.562
        33 -11.0524    179.0095      3.9149   1.5923339743e+01   3.9092921527e+01    0.2001885     0.165362 -59.91 0.0003078033    1.004    0.004
        34  -9.8866    106.0104      4.0100   2.3196035576e+01   5.7820403572e+01    0.1643079    0.1420908  81.20            0    1.069    0.064
        35  -9.7890     73.4718      1.5208   2.8357680458e+01   6.6550971713e+01    0.1372461    0.1266962  57.02 0.0001978027    1.015    0.015
        36 -11.6497     27.4751      3.0813   4.9982173724e+01   7.6789943702e+01    0.2766898    0.2485478 -50.94  0.001090917    1.350    0.259
        37 -10.8923    126.0760      2.9121   2.0062787545e+01   5.2577598235e+01    0.2107994    0.1970652 -89.48 0.0007765045    1.067    0.063
        38 -10.0317     90.9069      1.9600   2.4775936965e+01   6.1997079965e+01    0.1988309    0.1694558  39.38            0    1.225    0.184
        39  -9.7749    183.5318      1.4573   1.4942052653e+01   3.8257168276e+01    0.1275572    0.1099972 -60.36 8.816165e-05    1.064    0.060
        40  -9.2936    155.5112      1.4787   1.6795612077e+01   4.5068253259e+01    0.1347582    0.1183031 -69.34 0.0001654658    1.030    0.030
        41 -10.3135     34.4382      1.4001   4.3850464440e+01   7.5662242294e+01    0.4287271    0.1305599  56.48  0.001479596    3.695    0.729
        42 -10.3048     17.2482      3.2171   5.8612112718e+01   7.8496137505e+01    0.2408946      0.14964 -36.24  0.001300589    1.560    0.359
        43 -10.8910     35.5742    161.1380   9.3156314179e+01   3.6747835861e+01    0.2432742    0.2254047   9.37  0.001478646    1.274    0.215
        44 -10.2633    109.8902    249.8826   8.3321864469e+01   1.0190397800e+01    0.1723341    0.1292612  14.14 0.0007825318    1.240    0.194
        45 -11.6502     89.4024    249.4033   8.7438704696e+01   1.2571184175e+01    0.3106418    0.1902961  27.13   0.00108869    1.297    0.229
        46  -9.5252     72.2731    250.3717   9.1036399781e+01   1.4293965944e+01    0.1021592   0.08017271 -10.93 0.0007001567    1.680    0.405
        47 -10.2835     12.0098    250.7560   1.0340242557e+02   2.0118994886e+01    0.1625121   0.08657228  32.38 0.0004057784    1.423    0.297
        48 -12.5452      6.4360    244.8334   1.0438936695e+02   2.1620529494e+01    0.4777451    0.2948834  53.83  0.002038507    1.215    0.177
        49 -12.2039     14.4310    244.7504   1.0275369302e+02   2.0950473112e+01    0.3235302    0.1900288  65.37  0.001659129    1.508    0.337
        50 -12.1366     22.5502    248.6904   1.0121037374e+02   1.9541157164e+01    0.4014799    0.1883238  38.06  0.001420416    1.471    0.320
        51 -10.9608     17.3558    247.2772   1.0222694548e+02   2.0251335758e+01    0.1677098    0.1339566  26.80 0.0007990378    1.306    0.234
        52 -10.9898     37.0003    165.9591   9.3156941200e+01   3.5403643745e+01     0.236699    0.2040967  59.93 0.0005480639    1.005    0.005
        53  -9.9384     10.3119    162.3103   1.0071760508e+02   3.8781544820e+01    0.1251944   0.09549399 -45.80 0.0004596919    1.627    0.385
        54  -9.2014     66.2860    161.7200   8.4152308008e+01   3.2915722906e+01    0.1446363   0.09739818  60.16 0.0003997239    1.518    0.341
        55 -11.5274     21.0068    156.9215   9.7211445077e+01   3.9227023246e+01    0.4551415    0.3270439 -10.74  0.002241306    1.902    0.474
        56  -9.7712    216.4531    154.5201   4.8776954678e+01   1.0612294031e+01    0.1224506    0.0992721 -16.48 4.564688e-05    1.013    0.013
        57 -10.9476     10.8737    153.0013   1.0006131093e+02   4.1070433962e+01    0.3315523    0.1927339  25.23   0.00114531    1.728    0.421
        58  -9.7032     21.0353    147.9938   9.6552930339e+01   4.1508962369e+01    0.1657872    0.1422033  71.87 0.0003419686    1.016    0.016
        59  -9.9994    234.2387    146.9554   4.4698872775e+01   9.1769335874e+00    0.1601856   0.08087559 -32.91 0.0008796811    1.610    0.379
        60 -10.7288      7.7608    145.6205   1.0062869851e+02   4.3196503970e+01    0.2473592     0.154798  39.60  0.001302791    1.464    0.317
        61  -9.9436    187.6622    144.0916   5.1512637713e+01   1.6663946098e+01    0.1833559    0.1503507 -19.65 0.0004667605    1.095    0.087
        62 -10.3860      9.3594    136.8913   9.9593041756e+01   4.5359597329e+01    0.2989634    0.1164785 -80.78  0.001204413    2.331    0.571
        63 -11.3104      2.8193    135.1326   1.0168852048e+02   4.6270126568e+01    0.4242242    0.1568767 -82.99  0.001700741    2.424    0.587
        64 -12.7296    241.9410    133.6899   4.1085182607e+01   9.8955746610e+00    0.3654715    0.2210517 -14.17  0.001391704    1.684    0.406
        65 -10.2020     20.7175    134.5507   9.5556400714e+01   4.5075062055e+01    0.2527075    0.1421001  72.51 0.0007324742    1.759    0.431
        66 -11.7618     36.4871    131.3144   8.9745468835e+01   4.4402812283e+01    0.4644497     0.260673 -59.15 0.0009177191    1.752    0.429
        67 -10.7643     54.4916    132.4094   8.3702343401e+01   4.1939936789e+01    0.5892908     0.140507  28.55  0.001686457    4.133    0.758
        68 -10.7149     73.6165    129.0531   7.6764971272e+01   4.0049704159e+01    0.3173114    0.2750773  70.14  0.001300752    1.151    0.131
        69 -10.1842     56.7146    126.8305   8.2046578732e+01   4.3118658599e+01    0.2385855    0.1973361  16.98 0.0002248956    1.375    0.273
        70  -9.8653     22.2142    125.9772   9.4221128048e+01   4.7252191342e+01    0.1974467    0.1662628 -89.95 0.0003396844    1.077    0.071
        71 -11.2247     15.3623    125.3115   9.6639363438e+01   4.8003980376e+01    0.4260071    0.1897566  26.59   0.00182202    2.205    0.547
        72 -11.5799     10.7843    122.4391   9.8072184438e+01   4.9124803135e+01     0.356307    0.2378677  70.39  0.001324119    1.382    0.276
        73 -11.7894    243.7393    121.8452   3.8499190376e+01   1.1221166963e+01    0.2207792      0.11779 -29.56 0.0008589354    1.483    0.325
        74 -11.0590     19.8284    120.9197   9.4585665302e+01   4.8834735277e+01    0.3498394    0.1947206 -77.33  0.001605736    1.643    0.391
        75 -11.5053     24.3574    118.3935   9.2608178599e+01   4.9128357649e+01    0.4816927    0.2720694  89.07   0.00163461    1.765    0.433
        76 -11.8831    249.6478    117.7076   3.6965017368e+01   1.0919799976e+01    0.2992988    0.1476796 -33.30  0.001004167    1.543    0.352
        77 -12.2819    248.7013    112.0679   3.5933526550e+01   1.1794161442e+01    0.3724532    0.2552767  22.71   0.00172922    1.881    0.468
        78 -10.8383      1.4049    118.5971   1.0127362780e+02   5.0764669884e+01    0.2538327    0.1176786 -82.51 0.0002575978    1.900    0.474
        79 -11.1720     52.3674    115.1244   8.1557147649e+01   4.6846899685e+01    0.4485727    0.2240531 -81.05  0.001117321    2.485    0.598
        80  -9.9673     42.4905    116.4836   8.5479899388e+01   4.7738903730e+01    0.1477658    0.1381989 -83.35 -0.0003473563    1.048    0.046
        81 -11.9836     23.4465    106.7831   9.1531065101e+01   5.2408954413e+01     0.754067    0.3960289 -14.68  0.002423376    3.098    0.677
        82 -11.0815     15.9026    115.1589   9.5496917584e+01   5.0729790991e+01    0.2738564    0.1831487 -80.72 0.0006710787    1.353    0.261
        83 -12.1100     14.4223    110.2441   9.5583158986e+01   5.2193246809e+01    0.5073822    0.3468677  55.86  0.002296456    1.418    0.295
        84 -10.9570    182.6391    114.2858   4.5810182288e+01   2.2606356442e+01    0.2486988    0.2178433 -15.48 0.0006663666    1.121    0.108
        85 -10.0407     71.7811    115.3628   7.4637934687e+01   4.3885364365e+01    0.2111089    0.1483251  22.68 0.0006039708    1.647    0.393
        86  -9.9673     94.6946    112.0754   6.6322297788e+01   4.0671891193e+01    0.2245348    0.1972557 -53.39 0.0006450846    1.131    0.116
        87 -11.6937     55.1593    108.5483   7.9245434345e+01   4.8230916842e+01    0.6012012    0.2531519 -57.61  0.001822616    2.202    0.546
        88 -11.3712      2.4782    106.8454   1.0008390749e+02   5.3897185438e+01    0.4678889    0.2515838 -71.11  0.002211262    1.647    0.393
        89 -12.0396    248.5678    105.5399   3.4611364790e+01   1.2669201683e+01     0.252441    0.2045829 -66.05  0.001744525    1.646    0.392
        90  -9.7301    111.8399    105.8637   5.9623050528e+01   3.8743488597e+01    0.1989213    0.1740006  76.10 0.0009922932    1.243    0.195
        91 -10.8213     37.7960    102.3344   8.4934582717e+01   5.2168271084e+01    0.4013074    0.2229063  65.63  0.001606539    2.206    0.547
        92 -10.2404     34.0654     97.8202   8.5689923538e+01   5.3830026807e+01    0.3651161    0.1931135 -50.08  0.001531666    1.903    0.475
        93 -11.3498     62.2679     98.9635   7.4405159088e+01   4.9715259869e+01    0.4634512    0.3354186 -35.08  0.001688392    1.630    0.387
        94  -9.0364    144.6446     99.3070   4.9552435333e+01   3.3143933693e+01    0.1549052    0.1181205 -80.84 0.0007041876    1.721    0.419
        95 -10.9057     21.4426     98.3906   9.1223476043e+01   5.4907781733e+01    0.2542687    0.2195892 -88.14 0.0005549951    1.054    0.051
        96 -10.5696     41.2163     96.8437   8.2461746675e+01   5.3264448004e+01    0.2286572    0.1931173  76.80 0.0006025846    1.188    0.158
        97 -10.8907    241.3943     96.2396   3.3447026084e+01   1.5005083085e+01     0.181934    0.0866708 -39.01 0.0009531937    1.652    0.395
        98  -9.9215    104.4448     94.9879   5.8791565363e+01   4.2774568385e+01    0.2715225    0.2024239  70.25 0.0007041238    1.613    0.380
        99 -10.3023    227.1605     93.1584   3.4396447944e+01   1.7780574505e+01    0.1793795    0.1504896 -19.58 0.0004020423    1.159    0.137
       100 -10.0535      1.4809     92.9393   9.9409796821e+01   5.7757910671e+01    0.2113087    0.1217516 -82.27 0.0005879527    1.522    0.343
       101 -11.5354    249.5728     91.6992   3.1622735088e+01   1.4316985056e+01    0.2343423   0.09429593 -29.11 0.0009931554    2.053    0.513
       102 -10.0505     56.4239     90.7818   7.4717958299e+01   5.2785998568e+01    0.2195407    0.1347065 -50.35  0.000532538    1.602    0.376
       103 -10.1961     38.3104     90.6404   8.2438719158e+01   5.5309994839e+01    0.2815381    0.1271097 -65.54  0.001083423    2.045    0.511
       104 -10.7259     83.8417     89.3703   6.3853864144e+01   4.8312145940e+01    0.3666971    0.2901092  56.80  0.001748378    1.323    0.244
       105  -9.6337     10.4899     90.5639   9.5077039115e+01   5.7900906741e+01    0.1408023    0.1260954 -82.73 0.0001586499    1.014    0.013
       106 -10.3742     65.4046     87.2238   7.0132292287e+01   5.2248480397e+01    0.2938437    0.2229423  82.66  0.001345891    1.584    0.369
       107  -9.9292     47.5910     88.2199   7.7816435325e+01   5.4761254761e+01    0.2039743    0.1332795 -53.56 0.0002825602    1.465    0.317
       108 -11.2722     22.0147     87.0014   8.9190914399e+01   5.8005064713e+01    0.2930072    0.1922165 -74.84  0.001414854    1.399    0.285
       109 -11.2484    158.3372     90.3523   4.4238157303e+01   3.1850510688e+01    0.4575394    0.2821934  32.58  0.001950868    2.182    0.542
       110 -10.2522     10.1016     86.3267   9.4729602440e+01   5.9093862637e+01    0.3391067    0.1350468  47.32  0.001214225    2.670    0.626
       111 -10.1676     54.1542     85.9235   7.4410893866e+01   5.4411748053e+01    0.2134131    0.1946156  81.35  0.001124191    1.107    0.096
       112  -9.7263     38.8822     86.1681   8.1203711010e+01   5.6454599165e+01    0.1982727    0.1675074 -32.95 0.0003902009    1.302    0.232
       113 -10.3040    107.1710     84.7528   5.4932345834e+01   4.4484108472e+01    0.2223938    0.2044136  89.54 0.0003719334    1.119    0.107
       114 -11.0336    247.4832     84.5050   3.0305783268e+01   1.5573387041e+01    0.1215829   0.09216253 -34.93 0.0002203116    1.013    0.013
       115  -9.9429     15.9756     83.6611   9.1528278276e+01   5.9418532012e+01     0.190054    0.1764541  35.89 0.0004476373    1.170    0.145
       116 -11.5705     30.4580     81.6658   8.4144848345e+01   5.8643986354e+01    0.3291174    0.2964947 -33.79 0.0005849205    1.189    0.159
       117 -10.0416     74.7248     81.9975   6.4968285399e+01   5.1870607196e+01    0.2299271    0.2031621 -52.91   0.00116411    1.108    0.098
       118  -9.9136     68.8801     82.3245   6.7332971924e+01   5.2873652208e+01    0.2036713    0.1965315  49.70 0.0002978051    1.070    0.065
       119  -9.3796     62.4494     82.4508   6.9966692225e+01   5.3970164252e+01    0.1529303    0.1466637 -69.95 8.397827e-05    1.011    0.011
       120 -10.3836     42.1787     82.1937   7.8752209863e+01   5.7103691787e+01    0.2069852    0.1678311  70.94 0.0003898549    1.328    0.247
       121 -10.6847      7.4417     81.0629   9.5343607904e+01   6.0701696170e+01     0.367234    0.1936428 -46.27  0.001066553    1.912    0.477
       122  -9.8837    119.7810     80.7909   5.0185023484e+01   4.2472351753e+01    0.2081061    0.1766535 -85.02 0.0003239106    1.304    0.233
       123 -10.4190    111.9052     78.1433   5.1481362642e+01   4.4834013512e+01    0.2272339    0.2215161 -13.21 0.0004750209    1.113    0.101
       124 -10.6514     88.0849     77.3694   5.8647689530e+01   5.0281932467e+01    0.2753841    0.2165176 -58.21 0.0001861005    1.278    0.218
       125 -10.7171     99.8962     76.6284   5.4533602821e+01   4.7879221933e+01    0.2903247    0.2215416 -54.21  0.000463006    1.306    0.234
       126 -14.4578     16.6456     67.5071   8.8249316004e+01   6.3760870269e+01    0.8225613     0.572414 -84.69  0.001259977    1.431    0.301
       127 -12.5334     12.4568     47.6635   8.6003897576e+01   6.9280843900e+01    0.6349979    0.3562059 -80.84  0.001456663    1.944    0.486
       128 -13.1522      4.5392     66.4039   9.4832699506e+01   6.4842780283e+01     1.522708    0.5872492 -85.26   0.00573884    2.663    0.624
       129 -12.2139      5.2078     47.9444   9.0994255022e+01   6.9680456933e+01     1.141694    0.4586318 -63.88  0.004865094    2.039    0.510
       130 -11.2139     44.6864     74.8020   7.5615310665e+01   5.8712427626e+01    0.2565958    0.2409241  57.17 0.0003425552    1.102    0.093
       131 -11.7337    167.7311     73.4376   3.7793931094e+01   3.2691295770e+01    0.2578609    0.2212873 -49.14 0.0002811447    1.064    0.060
       132  -9.6266     61.6357     73.1869   6.7461662480e+01   5.6432267688e+01    0.2156423    0.1353238 -45.65 0.0003793937    1.595    0.373
       133 -10.6020     53.9817     72.0071   7.0459178041e+01   5.8019266113e+01    0.2229469    0.2163699  89.52  0.001222797    1.036    0.035
       134 -12.1298     50.2321     68.2889   7.1005421618e+01   5.9550619236e+01    0.4713353    0.2946085 -66.06 0.0005235184    1.694    0.410
       135  -9.8909     77.9781     69.6484   5.9665337162e+01   5.4153148655e+01    0.2103262    0.1959807  52.85 0.0002972472    1.089    0.082
       136 -10.9200    122.8840     67.3721   4.5031570322e+01   4.4388670856e+01    0.2862223     0.213772 -44.07 0.0005497049    1.293    0.227
       137 -10.0602    139.6831     66.0793   4.0807471392e+01   4.0550076319e+01    0.2535824    0.2040928  76.69  0.001182842    1.329    0.248
       138 -11.9067     30.1012     62.3497   7.9480567867e+01   6.3817396688e+01    0.6428518    0.5134512  50.78  0.003408245    1.361    0.265
       139 -11.7159    156.0504     63.4258   3.6849408243e+01   3.7056987248e+01    0.2666262    0.2263464 -48.22 0.0003016978    1.083    0.077
       140  -9.8611    106.4324     63.9982   4.8217870235e+01   4.8993440479e+01    0.2246289    0.1495859 -42.11 -6.904693e-06    1.477    0.323
       141 -10.0960     84.2154     64.1856   5.5397488482e+01   5.4046632517e+01    0.2163837    0.1812509 -83.01  0.000618087    1.360    0.265
       142 -10.6976    237.6641     63.3111   2.6567765926e+01   1.9937826405e+01    0.1286864   0.07397824 -53.74 0.0006955743    1.683    0.406
       143 -10.5799    202.1452     62.4764   2.9983440425e+01   2.6861330537e+01    0.2277741    0.1590859 -33.75  0.001257361    1.248    0.199
       144 -10.7488     76.8631     62.1499   5.7352853118e+01   5.6064252180e+01    0.2695423     0.238927  26.43            0    1.236    0.191
       145  -9.8971     73.3275     61.7285   5.8571377764e+01   5.6891739367e+01    0.2482883     0.174486  64.59 0.0004768529    1.724    0.420
       146  -9.5721    168.8342     62.6318   3.4504406747e+01   3.4173138611e+01    0.1758754    0.1340329  85.78 9.612428e-05    1.468    0.319
       147 -10.1538    115.3176     59.7709   4.4291064730e+01   4.7650910652e+01    0.3743356    0.2535911  24.66  0.001269331    2.204    0.546
       148 -10.1392    115.7864     56.3297   4.2926566796e+01   4.8161036317e+01    0.2222264    0.1993389 -89.93 0.0003178623    1.129    0.114
       149 -11.1281     46.4527     60.2710   7.0131053456e+01   6.2124281637e+01    0.4042031    0.2699993 -42.70 0.0007395707    1.508    0.337
       150  -9.6061     46.4901     55.4371   6.8334094039e+01   6.3282319463e+01    0.2053605    0.1436001  22.45 0.0005295555    1.632    0.387
       151 -10.3074     98.2837     60.0808   4.9193270569e+01   5.1697047536e+01    0.2507661    0.2050446  44.56 0.0006499126    1.271    0.213
       152  -9.7914    127.1832     58.8348   4.1101476091e+01   4.4890291016e+01     0.194612    0.1769831  24.82 0.0002243856    1.277    0.217
       153 -10.8538     58.6474     59.0055   6.3791379001e+01   6.0361410100e+01    0.3435796    0.2559946  36.57 0.0007583105    1.393    0.282
       154 -10.6098    231.2287     57.7685   2.5871296376e+01   2.1798901473e+01    0.1986046   0.09218706 -21.37 0.0008847292    2.457    0.593
       155 -10.2110     80.8896     55.8250   5.3374304592e+01   5.6539928511e+01    0.4638592    0.3041397  -4.13  0.001659429    3.088    0.676
       156 -11.1736     74.7208     56.2094   5.5864709118e+01   5.7798056653e+01    0.2746947     0.247425 -11.54 0.0006749697    1.248    0.199
       157 -12.8335     37.9372     49.9103   7.0826513219e+01   6.5898033588e+01    0.7664166    0.5835498 -46.53  0.003984162    1.249    0.199
       158 -12.6202    105.2963     52.5428   4.4268121571e+01   5.1433563436e+01     0.400936    0.3255633  74.36 0.0002009307    1.298    0.230
       159 -10.9017     18.3217     42.3609   8.0311041017e+01   7.0102191030e+01    0.6399615    0.1857378 -48.37  0.002228018    3.033    0.670
       160  -9.9948     14.1046     34.1997   8.0325933836e+01   7.2467163909e+01    0.2053998    0.1914677 -55.84 0.0006665468    1.078    0.072
       161 -10.9476     18.1510     31.1887   7.5938387567e+01   7.2770526098e+01    0.4192773    0.3648168  25.96  0.002197109    1.221    0.181
       162 -10.5339     24.1348     41.8595   7.6166774420e+01   6.9609614036e+01    0.2675743    0.2277503 -41.52 0.0007281262    1.096    0.088
       163 -13.2665     27.0661     37.1625   7.2219200213e+01   7.0353265680e+01    0.5469218    0.4145606  55.94  0.001446536    1.615    0.381
       164  -9.9874    154.9057     52.5393   3.3656555446e+01   3.9054422684e+01    0.2137469    0.1436082  67.38  0.001017733    1.555    0.357
       165 -11.2644    128.8815     50.3339   3.7743662466e+01   4.5900878535e+01    0.4719648    0.3048408 -21.42  0.001740992    1.867    0.465
       166 -10.8665    132.4757     49.4846   3.6703812951e+01   4.5128077116e+01    0.4126063    0.2091711 -57.15  0.001530711    2.438    0.590
       167  -9.6955     78.3945     50.6493   5.2166591599e+01   5.8141303840e+01    0.2369913    0.1837575 -83.80  0.001098325    1.654    0.395
       168 -11.0744     33.4801     43.8011   7.0975735081e+01   6.7965693614e+01    0.5037625     0.250052 -33.45  0.001424563    2.663    0.625
       169  -9.4912     88.6836     50.3132   4.8405221448e+01   5.5849897801e+01    0.1568743     0.119472 -78.78 0.0003613861    1.643    0.391
       170 -11.4927     51.7886     46.6106   6.1995003551e+01   6.4392942493e+01    0.4781534    0.2759511 -55.90  0.001799852    1.851    0.460
       171 -11.0864     82.9178     47.5049   4.9187532021e+01   5.7725178382e+01    0.2909064    0.2092339 -58.80  0.001339873    1.554    0.357
       172 -10.6361     69.0978     48.0585   5.4707625499e+01   6.0681847495e+01    0.2138331    0.2136109 -15.86 0.0003559481    1.010    0.010
       173  -9.5740     56.9242     50.6266   6.1222564411e+01   6.2570285902e+01    0.2574942    0.2034288 -67.36 0.0009922987    1.427    0.299
       174  -9.4966    143.3666     45.7712   3.3383191758e+01   4.2946088126e+01     0.193964    0.1397861 -21.31 0.0004774174    1.567    0.362
       175 -10.3032    112.3369     45.3671   3.9639912852e+01   5.0910090163e+01     0.237064    0.2218664  29.66 0.0007829599    1.191    0.160
       176 -11.4563     27.7406     51.3756   7.7369764012e+01   6.6873526971e+01    0.9821927    0.5550457 -81.94  0.003988718    2.492    0.599
       177  -9.6472    120.4456     45.6131   3.7840768396e+01   4.8806491927e+01    0.1472317    0.1423284  63.37  0.000795525    1.090    0.082
       178 -11.4262     44.6337     43.2284   6.4245378537e+01   6.6380084251e+01    0.3403566    0.2701187 -70.10  0.001056642    1.468    0.319
       179 -11.4949     44.8412     38.1196   6.1721337496e+01   6.7440506689e+01    0.2661071    0.2397105  76.03  0.001482781    1.305    0.233
       180 -10.7453     96.3239     42.3452   4.2676864312e+01   5.5433158200e+01    0.3625874    0.2408457  41.69   0.00101195    1.645    0.392
       181 -11.0343     72.5570     42.3928   5.0760220956e+01   6.1040572961e+01     0.380844    0.2570446 -55.97  0.001729245    1.672    0.402
       182 -10.7667     67.0184     42.0146   5.2838414931e+01   6.2321442544e+01     0.313445    0.1993571 -40.72 0.0009086307    1.572    0.364
       183 -11.0737     89.2940     41.4349   4.4414567771e+01   5.7311496332e+01    0.2714267    0.2551847  38.68 0.0003731548    1.107    0.097
       184 -11.2130     83.0126     36.1888   4.4069953261e+01   5.9717495038e+01    0.5047653    0.3429238  -3.68  0.002134857    2.232    0.552
       185  -9.9356    130.5258     40.9604   3.4028450140e+01   4.6936451748e+01    0.2293747    0.1464221 -29.30  0.001031236    1.620    0.383
       186  -9.5284    110.4812     41.5098   3.8564154600e+01   5.2004665417e+01    0.1530704    0.1413031 -74.75 0.0008096756    1.056    0.053
       187 -10.4173     53.9963     36.7740   5.6239594319e+01   6.6015342406e+01    0.2556145    0.2054734 -71.97 0.0007062551    1.551    0.355
       188 -12.0973     57.6412     34.0988   5.3110528328e+01   6.5792837597e+01    0.4984692    0.3227155 -28.70 0.0004642583    1.733    0.423
       189 -10.0188    236.1490     39.8138   2.1329982833e+01   2.3073285902e+01    0.1515211    0.1284009 -21.50 0.0003571027    1.303    0.233
       190  -9.5610    226.4995     40.4933   2.2196955508e+01   2.4817197465e+01    0.1267531    0.0984539 -45.13 0.0002858064    1.008    0.007
       191  -9.5732    148.1695     38.9684   3.0294798163e+01   4.2710784470e+01    0.2133354    0.1464185 -74.12   0.00100829    1.580    0.367
       192 -10.0531    159.4675     38.1045   2.8374953952e+01   3.9999297072e+01    0.2139917    0.1758123  77.93 0.0004673487    1.235    0.190
       193 -11.9790     75.2173     34.8141   4.6142567425e+01   6.1794012934e+01    0.5055894    0.3965349  -4.28  0.001024112    1.591    0.371
       194 -10.0016      1.4844     37.0597   9.1076930998e+01   7.2634413233e+01    0.2021905    0.1156828 -68.00  0.001011457    1.538    0.350
       195 -10.2406    248.1485     36.1658   1.9721577329e+01   2.1328733256e+01    0.1646103    0.1348492 -32.84    0.0004415    1.189    0.159
       196 -10.2227    193.7426     35.6842   2.3758773179e+01   3.2221345849e+01     0.337221    0.1266311 -52.08  0.001169952    2.603    0.616
       197  -9.8111    128.5727     35.7880   3.2482652422e+01   4.8187484387e+01     0.207466    0.1282412 -44.24 0.0009317581    1.552    0.356
       198  -9.8292     94.6352     36.2664   4.0519601480e+01   5.6848361049e+01    0.1542753    0.1139767 -78.91 0.0002795899    1.650    0.394
       199  -9.7102    135.2045     34.9827   3.1004660854e+01   4.6580100026e+01    0.2561713     0.138751 -55.13  0.001053678    1.982    0.495
       200 -11.6550    111.3105     34.6802   3.5592226790e+01   5.2831003262e+01    0.2970538    0.2541461  89.43 0.0005785462    1.174    0.148
       201 -10.4020      8.9967     34.5004   8.4410076528e+01   7.2813849184e+01    0.2319707    0.1605285 -40.67  0.001258329    1.338    0.253
       202 -10.9344      7.7820     30.8253   8.4067408851e+01   7.3788068258e+01    0.3320582     0.249298  62.10  0.001228083    1.651    0.394
       203 -10.3764    177.5781     33.2754   2.4703711525e+01   3.6234738552e+01    0.3765547    0.1306643 -26.34  0.001371783    2.911    0.656
       204  -9.7077    140.2004     33.8018   2.9757997743e+01   4.5450017976e+01    0.1815172    0.1645846  43.11 0.0002220932    1.256    0.204
       205 -10.0052    122.7632     33.0371   3.2533491987e+01   5.0083381705e+01    0.2810732    0.1800674  50.54  0.001284562    1.634    0.388
       206 -10.1436     32.6701     32.9052   6.6448609098e+01   7.0518752284e+01    0.5062505    0.1810556  47.93  0.001600565    4.225    0.763
       207 -10.7409    221.6316     31.7531   2.0450781685e+01   2.6795784312e+01    0.2220686    0.1548929 -47.15 0.0001890485    1.131    0.116
       208  -9.7134    129.3235     32.2924   3.1033033733e+01   4.8473252537e+01    0.1469592    0.1110992  34.58 0.0002651244    1.614    0.381
       209 -10.9143     49.4316     29.1396   5.4518694492e+01   6.8359438950e+01     0.413527    0.2256844 -36.19   0.00128824    1.890    0.471
       210 -10.2371      1.4063     30.9541   8.9437059672e+01   7.4147165271e+01    0.1882135    0.1147762 -68.07 0.0003495177    1.481    0.325
       211 -10.7569    101.4804     28.6936   3.5339245042e+01   5.6229094897e+01    0.3945186    0.2443987 -58.65  0.001208117    1.876    0.467
       212 -11.2017    156.8029     28.2485   2.5528919724e+01   4.1929019257e+01    0.2267224    0.2115003 -67.96 0.0002643836    1.069    0.064
       213 -10.9996     79.4346     28.4594   4.1507529792e+01   6.1813491642e+01    0.3337552    0.2572536  -1.90 -1.216348e-05    1.612    0.380
       214 -10.6917    238.1591     27.8798   1.8469531793e+01   2.4049535125e+01    0.1830667    0.1180383 -48.29 0.0002694478    1.197    0.164
       215 -10.8470    197.9195     28.0329   2.1311240915e+01   3.2209472777e+01    0.2421078    0.1738074  82.50 0.0007390151    1.475    0.322
       216 -10.9414    112.3308     26.9293   3.2145530380e+01   5.3637821438e+01    0.4158702    0.2617698 -23.11  0.001694016    1.751    0.429
       217 -10.4272     61.6886     25.7477   4.6773454624e+01   6.6376089578e+01    0.3815024     0.181261 -18.59  0.001192245    4.149    0.759
       218 -10.5056    226.5040     24.8009   1.8453716483e+01   2.6611535208e+01    0.3762524    0.1030073 -35.87 0.0007727573    2.421    0.587
       219 -11.1123    215.1349     25.3074   1.9313380539e+01   2.8843013013e+01     0.283243    0.2012613  68.58  0.001734054    1.630    0.387
       220 -10.5221    224.3386    248.8526   6.2698180094e+01  -1.9670277595e+00    0.1694264   0.08120754 -39.24  0.001093803    2.629    0.620
       221 -10.4261     11.0463     24.2831   7.8531942800e+01   7.5047394860e+01    0.2701464    0.1691291 -36.71 0.0007333971    1.529    0.346
       222  -9.9806      6.9552     25.2220   8.2558769863e+01   7.5170911166e+01    0.2749102     0.153419  39.43  0.001109807    2.060    0.515
       223 -10.7541      2.1954     25.6232   8.6985925690e+01   7.5389685650e+01    0.2636431    0.1980192 -33.99 0.0008953111    1.235    0.191
       224 -10.3925      2.4186     22.5076   8.5596479972e+01   7.6110596030e+01    0.2389817    0.1797819  -7.47 0.0005677776    1.367    0.268
       225 -10.5637     22.3677     24.0231   6.9027727001e+01   7.3845855078e+01    0.2379636      0.18908   9.38 0.0005616672    1.310    0.237
       226 -10.0169    159.4619     23.5075   2.3667897629e+01   4.1827257374e+01    0.1401216    0.1249518 -62.89 0.0008093148    1.021    0.020
       227 -10.7004    219.0055    247.5051   6.3345037315e+01  -1.3234591807e+00    0.1536184   0.09563165 -33.48  0.001150645    1.840    0.456
       228 -10.1198     54.3864     23.1694   4.8590521263e+01   6.8382026397e+01    0.2516758    0.1713242  61.19 0.0007410728    1.667    0.400
       229 -10.9865     58.9766     21.0342   4.5228393303e+01   6.7717913558e+01    0.2604492    0.2064035  52.55 0.0004480366    1.243    0.195
       230  -9.7421    155.8127     21.7867   2.3515472228e+01   4.2943328272e+01    0.1943309    0.1426093 -61.45 0.0003891866    1.261    0.207
       231  -9.9468     93.9865     22.2726   3.4233649867e+01   5.9025624598e+01    0.2066977    0.1764078  65.81  0.000307494    1.124    0.111
       232 -10.1520     82.9856     21.9816   3.7096070593e+01   6.1864125842e+01    0.2255297    0.2152572  57.53  0.001000423    1.020    0.020
       233 -10.2020     16.1607     22.0350   7.2965145355e+01   7.5023946868e+01     0.214021    0.1646793 -29.98  0.001225363    1.240    0.194
       234  -9.6688    206.8627     20.8489   1.8743238465e+01   3.1072642592e+01     0.180678    0.1165744 -52.84 0.0003542949    1.281    0.219
       235 -10.9255     28.2403    245.2232   9.9915098650e+01   1.9618081787e+01    0.2515387    0.1390495 -72.63  0.001600091    2.177    0.541
       236 -10.7520     72.8447    244.8920   9.0534295637e+01   1.5126903111e+01    0.2745904    0.1673488  20.89  0.001384579    1.538    0.350
       237 -12.7275     75.8148    238.1874   8.9406004986e+01   1.5924463611e+01    0.4895268    0.4473118  -9.20  0.003463896    1.345    0.256
       238  -9.7110    134.7098    237.6521   7.7091832616e+01   9.1042685538e+00    0.1140878    0.0772801  -3.68 0.0007026614    1.663    0.399
       239 -11.2117     65.8982     20.5909   4.2127965841e+01   6.6203583830e+01    0.4554335    0.2510546  71.79  0.001063739    2.495    0.599
       240  -9.7621     34.6347     20.7965   5.8235827409e+01   7.2616990713e+01    0.2892337    0.1778159 -68.03 0.0006204492    3.108    0.678
       241 -10.0872    181.3622     19.8813   2.0413520132e+01   3.6911528182e+01    0.1860267    0.1496336 -41.29 0.0004746805    1.131    0.116
       242 -10.0353    161.6889     20.6635   2.2507273671e+01   4.1595557301e+01    0.1357373    0.1045162  33.30 0.0007044744    1.685    0.406
       243 -10.1678     87.1577     20.1161   3.4962195018e+01   6.1053581031e+01     0.210425    0.1873535  41.26 0.0003036812    1.149    0.130
       244 -10.9396     28.6262     19.6934   6.1689900862e+01   7.3812382315e+01    0.3364984    0.2455625  -9.13  0.000189076    1.609    0.379
       245 -11.3256     18.1651    236.4171   1.0172291066e+02   2.2115128252e+01    0.4645393   0.08469544  44.17  0.002035957    2.849    0.649
       246 -10.2216     35.4053    238.7627   9.8134227751e+01   2.0077901199e+01    0.1349027    0.1031328 -69.65 0.0009534822    1.631    0.387
       247 -10.8206     30.2902    233.9637   9.9023847970e+01   2.1443628710e+01     0.288095    0.1058938  76.39  0.001288553    3.494    0.714
       248 -10.7552     41.6715     18.7796   5.2562084592e+01   7.1686202673e+01    0.3268465    0.2680708  49.99    0.0011448    1.283    0.221
       249 -10.2441    108.4903     17.5524   2.8868773882e+01   5.5799460012e+01    0.2479205    0.2040587  -7.65  0.001313953    1.404    0.288
       250 -11.1938    183.1922    234.2055   6.7526976482e+01   3.9243999883e+00    0.2154981     0.126837  24.79  0.001322166    1.392    0.282
       251 -10.8482     87.0463    233.2348   8.6575509815e+01   1.5483586064e+01    0.2091158    0.0985774  47.23  0.001085584    1.985    0.496
       252 -10.5080     15.1355     13.8175   6.8870919613e+01   7.6848788598e+01    0.2271072     0.173876  20.61 0.0003603853    1.318    0.241
       253 -10.8893    165.1899     16.8080   2.0929403207e+01   4.1149919388e+01    0.1791405    0.1563769  51.05 0.0004365136    1.350    0.259
       254  -9.7218    166.6724    232.6625   7.0320009585e+01   6.0200723498e+00    0.1177764   0.07273311  -1.18 0.0007051792    1.728    0.421
       255 -10.5295    232.9978     15.7094   1.5957580985e+01   2.6318398380e+01    0.2167699    0.1397769 -19.41  0.001301919    1.670    0.401
       256 -10.5411     51.0089     15.1395   4.5199214348e+01   7.0341130404e+01    0.2443826    0.2055897 -27.84 0.0008638471    1.207    0.172
       257 -10.0962    185.3832     14.2612   1.8475857890e+01   3.6573521293e+01     0.168791    0.1480386 -68.62 0.0004916621    1.087    0.080
       258 -10.3574    160.0292    235.5026   7.1926871547e+01   6.4138738268e+00    0.1718364   0.08997393  26.69 0.0005229654    1.550    0.355
       259  -9.8707    151.5132    228.4914   7.2671014846e+01   8.4132856215e+00    0.1164949   0.09254558  16.67 0.0002676065    1.016    0.016
       260 -10.2759    191.3735    226.5132   6.5036315828e+01   3.9678059976e+00    0.1907741    0.1550811 -12.45  0.001424158    1.230    0.187
       261 -10.4166      3.6756    225.9075   1.0455014897e+02   2.5331436929e+01    0.1557345    0.1313357 -81.42 0.0009696541    1.436    0.303
       262  -9.7501    230.0000    221.9335   5.8074815952e+01   3.3554533644e-01    0.1541054   0.04947842 -34.62  0.000793024    2.878    0.652
       263 -11.3517     14.9153    222.1673   1.0196420448e+02   2.5100838514e+01    0.3389534    0.1214745  28.30  0.001278106    2.218    0.549
       264 -10.0472    211.9683    218.5225   6.0407544050e+01   2.6444872565e+00    0.1674025    0.1190793 -17.07  0.001040826    1.218    0.179
       265  -9.4817    108.4973     10.5043   2.5734087193e+01   5.6551150886e+01    0.1424897    0.1314297 -86.97 2.638513e-05    1.010    0.010
       266  -9.6830    176.3544    218.7135   6.6620974923e+01   6.7637608057e+00     0.104683   0.08440061  43.78 0.0007022559    1.670    0.401
       267 -10.4028     50.6902    218.0303   9.3560696599e+01   2.2400570825e+01    0.1715834    0.1468627  51.78  0.001181917    1.084    0.077
       268 -10.7307     29.3122    215.5559   9.8401894795e+01   2.5083399213e+01     0.221604    0.1864954  20.46   0.00121145    1.326    0.246
       269 -10.9916     23.9909    216.0163   9.9660290585e+01   2.5496812328e+01    0.1835874    0.1419284  51.41 0.0003960747    1.020    0.020
       270 -12.1619     11.5956    209.6997   1.0230948982e+02   2.7897728580e+01    0.4886798    0.2006383  71.90  0.002402017    2.351    0.575
       271 -12.3819      5.6729    208.4837   1.0366080560e+02   2.8646217779e+01    0.4380133     0.220642 -87.32  0.002338699    1.997    0.499
       272 -10.6452      1.5693    206.2404   1.0456428152e+02   2.9443244248e+01    0.1769577    0.1419842 -32.32 0.0009689899    1.793    0.442
       273  -9.6027    120.5761    219.4722   7.7890687427e+01   1.3700501989e+01    0.1212582    0.1009334  22.85 0.0002272481    1.019    0.019
       274 -11.0266     19.8994    201.0007   9.9974494824e+01   2.8997339290e+01    0.4720625    0.1487729 -65.49  0.002005343    3.357    0.702
       275 -10.9831    175.3445    202.3955   6.4377129166e+01   9.2262093811e+00      0.22733    0.1789555   4.75 0.0005207631    1.076    0.071
       276 -10.1602    238.6047    200.7785   5.3538292358e+01   1.8367492679e+00    0.1384452   0.08427238 -33.92 0.0005244135    1.641    0.391
       277  -9.6208    215.4836    194.4419   5.6062566970e+01   5.2536961913e+00    0.1144588    0.0878524  -4.41 0.0004163569    1.008    0.008
       278 -11.4698     15.4886    193.1410   1.0073070968e+02   3.1107738594e+01    0.3040351    0.2073898  27.34   0.00100725    1.417    0.294
       279 -10.0797    244.3534    187.7045   5.0578211336e+01   2.7416747443e+00   0.09083113   0.08151723 -30.93 0.0007033099    1.688    0.408
       280  -9.6791     61.5805    184.4924   8.8068930466e+01   2.8200161077e+01    0.1341471    0.1161811  52.48 0.0002291153    1.019    0.018
       281 -12.8537     18.3510    181.2305   9.9423949186e+01   3.3560864639e+01    0.7120897    0.3516541  17.36  0.003127012    2.258    0.557
       282 -10.3384    244.1833    178.8346   4.9102822136e+01   3.8245739182e+00    0.1600108   0.09998006 -11.59 0.0006557513    1.367    0.268
       283 -10.9679     18.5090    172.9005   9.8934574341e+01   3.5513844648e+01    0.2384977    0.1464141  50.59  0.001287522    1.373    0.271
       284  -9.8443    176.7048    168.6790   5.8387865752e+01   1.4328372400e+01    0.1319291   0.09103335  -5.45 0.0002500751    1.615    0.381
       285 -11.0124      5.6916    168.0214   1.0229925140e+02   3.7743486949e+01    0.1865513    0.1487186  77.30 0.0006582882    1.113    0.102
       286 -10.5217     51.7995    165.1773   8.8770109617e+01   3.3919168602e+01    0.3576082    0.1651587 -84.01  0.001425639    2.618    0.618
       287 -10.9978     50.8470    160.2715   8.8514080442e+01   3.5240352623e+01    0.5096312    0.2176862  48.22  0.002064261    2.214    0.548
