#   1 NUMBER                 Running object number                                     
#   2 MAG_AUTO               Kron-like elliptical aperture magnitude                    [mag]
#   3 X_IMAGE                Object position along x                                    [pixel]
#   4 Y_IMAGE                Object position along y                                    [pixel]
#   5 X_WORLD                Barycenter position along world x axis                     [deg]
#   6 Y_WORLD                Barycenter position along world y axis                     [deg]
#   7 A_WORLD                Profile RMS along major axis (world units)                 [deg]
#   8 B_WORLD                Profile RMS along minor axis (world units)                 [deg]
#   9 THETA_WORLD            Position angle (CCW/world-x)                               [deg]
#  10 FWHM_WORLD             FWHM assuming a gaussian core                              [deg]
#  11 ELONGATION             A_IMAGE/B_IMAGE                                           
#  12 ELLIPTICITY            1 - B_IMAGE/A_IMAGE                                       
         1 -14.0876    165.1400     48.1349   7.1508086925e+01   3.7906656181e+01      1.36322      1.09898 -11.27   0.00385198    1.305    0.234
         2 -14.3852    181.6550     17.1935   5.8264290582e+01   3.7549176876e+01     1.540024     1.149206  52.42  0.005211235    1.301    0.231
         3  -9.8716     29.9513    246.3170   1.3243450403e+02   2.4414045576e+01    0.1287033   0.08096831  87.95 0.0008601191    1.450    0.311
         4 -19.8648     67.9526    167.1958   1.2066114444e+02   3.3243045197e+01      14.7937     4.782947 -68.05   0.06670513    3.111    0.679
         5 -12.5797    101.7835    243.7004   1.2154794021e+02   1.6375080928e+01    0.2209632     0.173347 -52.39  0.001298522    1.899    0.473
         6  -9.0847    134.2640    196.6773   1.1135156384e+02   1.8417518041e+01    0.1136444   0.08042745  71.08 0.0002346386    1.559    0.358
         7 -10.5749    219.4185    195.2464   9.6267407836e+01   4.2404192476e+00    0.1413086    0.1119316 -37.76 0.0005692858    1.634    0.388
         8 -12.4011    103.9678    236.1414   1.2060038086e+02   1.7107064665e+01    0.2306655    0.1351967  53.32  0.001107428    1.258    0.205
         9 -11.1661    156.4897    189.5429   1.0632653243e+02   1.5819641631e+01    0.2268988    0.1849883  64.56 0.0005483208    1.275    0.215
        10 -11.2118    150.9036    188.7071   1.0723111325e+02   1.6895247299e+01    0.3298033    0.1760304 -56.37  0.001741182    2.406    0.584
        11 -11.5823    153.2512    184.2079   1.0614171143e+02   1.7181287550e+01    0.2694739    0.2427208  83.34  0.001110507    1.248    0.199
        12 -10.8484    134.6868    239.1153   1.1597316228e+02   1.2419264739e+01    0.1451606     0.107959  58.09  0.000671939    1.164    0.141
        13  -9.3545     25.2005    185.3799   1.3025239635e+02   3.4616451957e+01   0.09020063   0.06319613 -69.59 0.0002263759    1.582    0.368
        14  -9.4872    151.7941    235.6213   1.1288308223e+02   1.0342785292e+01    0.1677982   0.07427993  49.99 0.0009603751    1.810    0.447
        15 -10.2208     28.1371    232.1846   1.3211219063e+02   2.6654853605e+01    0.1147315   0.06778217  66.37 0.0002406457    1.171    0.146
        16 -10.5596     30.9468    182.4842   1.2904399887e+02   3.4571234873e+01    0.2253289    0.1689838  27.62  0.001578425    1.899    0.473
        17 -10.4512     27.6445    179.6979   1.2946920918e+02   3.5401500913e+01    0.2229915    0.1885936 -30.25  0.001728503    2.124    0.529
        18 -10.5267    162.5751    181.2903   1.0396494542e+02   1.5999140311e+01    0.2092844    0.1224966 -51.96   0.00112548    2.108    0.526
        19 -11.1498    110.8311    229.7138   1.1894101826e+02   1.7057676870e+01    0.1889451    0.1399406 -73.90  0.001044697    1.613    0.380
        20 -11.4220    140.3142    163.2757   1.0538962803e+02   2.2863226589e+01    0.3196631    0.2163305 -77.81  0.001005301    2.066    0.516
        21 -13.3484    140.1012    169.3477   1.0639988973e+02   2.1862440408e+01     1.004306    0.3791913  52.94  0.001021943    2.841    0.648
        22 -11.8212    144.3393    176.8732   1.0672948324e+02   1.9878759748e+01    0.4537844    0.2315841 -46.07  0.002316369    2.307    0.567
        23 -12.1494    140.0938    173.7135   1.0707242642e+02   2.1130946227e+01    0.3688894    0.2643269  70.54  0.001858882    1.589    0.371
        24 -12.6275    188.0764    175.6045   9.8358550560e+01   1.2233981070e+01    0.5832947    0.3991123 -52.15  0.001666498    1.930    0.482
        25  -9.9656    167.5259    176.7133   1.0231524944e+02   1.5807159333e+01    0.1487718    0.1232191 -64.42 0.0009280395    1.511    0.338
        26 -11.2843     26.1937    173.2825   1.2932894932e+02   3.6719088909e+01    0.2395941    0.1643743  76.90 0.0003804424    1.101    0.092
        27  -9.5534     17.8213    173.7669   1.3091508669e+02   3.7407874368e+01    0.1290323    0.1082749  74.77 0.0005661558    1.242    0.195
        28 -10.8161    194.4896    172.0824   9.6589523830e+01   1.1544108841e+01    0.2549175    0.2269689 -14.84 0.0008571902    1.235    0.190
        29 -11.8564    125.1121    171.9327   1.0975126205e+02   2.3966526026e+01    0.2604713    0.1795648  52.95 0.0004188787    1.272    0.214
        30 -10.7100    186.9302    166.0674   9.6882608384e+01   1.3808418373e+01     0.385263    0.2473733 -48.65  0.001831664    1.932    0.482
        31 -10.1653    230.3104    166.6498   8.9410279617e+01   5.6605377509e+00    0.1125039    0.1021756 -80.13 0.0007044868    1.716    0.417
        32 -10.1866    105.8696    229.1441   1.1969998794e+02   1.7824670186e+01    0.1711874    0.1055083  52.49 0.0007403294    1.207    0.171
        33  -9.8089    114.8081    229.3266   1.1825617733e+02   1.6554293669e+01    0.1134482   0.09513482  46.15 0.0002191575    1.255    0.203
        34 -10.7930    188.4515    154.1086   9.4353446192e+01   1.5288103329e+01    0.6189954    0.2921526  36.37  0.002688647    2.164    0.538
        35 -10.7897    163.7764    151.6012   9.8636190368e+01   2.0497367896e+01    0.2445657    0.2169241  82.69  0.001085936    1.296    0.228
        36  -9.6593      7.4086    149.7935   1.3150229486e+02   4.2832088531e+01    0.2224374    0.1269915 -39.77  0.001290904    3.327    0.699
        37  -9.8164    174.8319    149.0968   9.5976204678e+01   1.8748868401e+01    0.1993316    0.1791358  70.88 0.0005080099    1.252    0.201
        38  -9.5195    140.2962    219.5480   1.1301674319e+02   1.4154750231e+01    0.2797768    0.1255144 -58.75  0.001513259    3.100    0.677
        39 -10.2387      9.0343    138.1929   1.3041144892e+02   4.4999221999e+01    0.3199283    0.1207229 -67.71  0.001703349    2.195    0.544
        40 -11.4827    160.4847    127.6499   9.4448026142e+01   2.5292314192e+01    0.3881326    0.3188481 -78.48  0.001361931    1.514    0.340
        41  -9.8081    152.3474    219.6280   1.1099483763e+02   1.2282527088e+01    0.1533626    0.1296655 -85.93  0.001102093    1.494    0.331
        42 -10.2169    231.2978    113.6959   7.7935230021e+01   1.2307303242e+01    0.2593353    0.2170937  18.93 0.0007480053    1.120    0.107
        43 -10.2758    168.2407    113.3577   8.9544635174e+01   2.6181202330e+01    0.3698469    0.2568904 -77.05  0.001260922    2.352    0.575
        44 -10.3184    217.5545    218.0147   1.0008161396e+02   2.1086903837e+00    0.1426946    0.1067424 -21.35 0.0006772035    1.589    0.371
        45  -9.9231    205.5276    110.2026   8.1508294671e+01   1.8420934391e+01    0.2636736    0.1963845  47.32  0.000626063    1.314    0.239
        46  -9.9787     23.8705    216.4640   1.3207029423e+02   2.9506121157e+01   0.09187789   0.07254449  68.54 0.0001915287    1.241    0.194
        47 -10.3778    102.9799    250.1298   1.2185449739e+02   1.5374612524e+01     0.107032   0.08237455  55.69            0    1.130    0.115
        48  -9.3632    113.1044    206.7276   1.1631313163e+02   2.0115295323e+01    0.1529436    0.1121889  51.42 0.0004957519    1.094    0.086
        49 -12.3770    107.8287    203.5763   1.1691647817e+02   2.1380672020e+01    0.3480309    0.2429814 -72.94 0.0004102341    1.617    0.382
        50 -12.2810    104.2977    202.6786   1.1745319579e+02   2.2034727880e+01    0.4420451    0.2487155  82.24   0.00228943    2.466    0.595
        51 -12.1417     11.8376    205.9063   1.3351688500e+02   3.2349561698e+01    0.3134733    0.1727171  38.05  0.002269709    1.899    0.474
        52 -13.5228    153.8203     62.4500   7.8535334827e+01   3.8452369439e+01     1.236109     1.000843  23.20  0.001139186    1.357    0.263
        53  99.0000    112.6951    194.9746   1.1509153138e+02   2.2041811419e+01    0.3653496    0.2935622 -57.92  0.002219447    1.502    0.334
        54 -12.5302    170.0293     39.7701   6.7786216561e+01   3.7846395609e+01     0.511812    0.4482289   2.50 0.0009232982    1.182    0.154
        55 -10.4382     97.7678    250.7325   1.2268880339e+02   1.5973743375e+01   0.07907059   0.06558903  43.43 0.0006142558    1.417    0.294
        56 -10.1365     13.3904     59.8984   1.2035085762e+02   6.1328301105e+01    0.1660579    0.1436446  86.95 0.0004392893    1.230    0.187
