#   1 NUMBER                 Running object number                                     
#   2 MAG_AUTO               Kron-like elliptical aperture magnitude                    [mag]
#   3 X_IMAGE                Object position along x                                    [pixel]
#   4 Y_IMAGE                Object position along y                                    [pixel]
#   5 X_WORLD                Barycenter position along world x axis                     [deg]
#   6 Y_WORLD                Barycenter position along world y axis                     [deg]
#   7 A_WORLD                Profile RMS along major axis (world units)                 [deg]
#   8 B_WORLD                Profile RMS along minor axis (world units)                 [deg]
#   9 THETA_WORLD            Position angle (CCW/world-x)                               [deg]
#  10 FWHM_WORLD             FWHM assuming a gaussian core                              [deg]
#  11 ELONGATION             A_IMAGE/B_IMAGE                                           
#  12 ELLIPTICITY            1 - B_IMAGE/A_IMAGE                                       
         1 -15.2191    244.5411      9.2727   3.1513216812e+01   2.4374465920e+01     2.738119     1.760196 -41.20   0.01747007    1.466    0.318
         2 -11.4136     72.7468     28.0772   6.5865767170e+01   6.1500692541e+01    0.8038833    0.4627362  -2.14  0.003655312    2.432    0.589
         3 -10.3450     62.0077     24.7017   6.8363916989e+01   6.3869972844e+01    0.2117536    0.1648203 -12.73  0.001301269    1.208    0.172
         4 -12.1147    161.1515     17.9936   4.1799954309e+01   4.2512926115e+01    0.4679704    0.3650647  62.99  0.002738703    1.168    0.144
         5 -11.0549    116.3824     14.6261   4.8426996560e+01   5.3677921950e+01    0.2673998    0.2032013  41.07  0.001073006    1.221    0.181
         6 -11.0487     19.0679     13.6755   8.3120356005e+01   7.1370871474e+01     0.261791    0.1874278 -12.45  0.001020729    1.103    0.093
         7 -12.3722      4.8706     11.5188   9.0277151033e+01   7.2979874916e+01    0.4633318     0.322631 -24.56  0.002216357    1.085    0.078
         8 -10.9824    102.5095     11.0049   5.0151505059e+01   5.7199163917e+01    0.5319511    0.2545498  27.21  0.002236256    2.792    0.642
         9 -11.9167    200.3331      7.0475   3.4475372805e+01   3.4255645984e+01      0.30323    0.1832154 -55.87 0.0006427547    1.543    0.352
        10 -11.7263    195.2157      9.4212   3.5523868753e+01   3.5202352715e+01    0.3496917    0.2235872  27.09  0.001745693    2.645    0.622
        11 -11.3274    197.0919      3.9388   3.4029353170e+01   3.5315301248e+01    0.2402348    0.2182076 -40.45 0.0004439069    1.299    0.230
        12 -10.5496    148.2852     10.5779   4.1458352551e+01   4.6396152743e+01    0.2436171     0.202572  52.14 0.0006683352    1.174    0.149
        13 -10.6405    121.4337      9.4030   4.5566579806e+01   5.2971645611e+01    0.3201946    0.1509928  23.87  0.001224145    3.528    0.717
        14 -12.2016     16.1322      8.3436   8.2100719116e+01   7.2431722268e+01    0.5451399    0.2856332  10.58  0.003090411    1.992    0.498
        15 -10.2198     25.6334      9.2294   7.7351154216e+01   7.1245565183e+01    0.2382453    0.1324454 -30.47 0.0007963898    1.636    0.389
        16 -11.0779     24.4984      5.4851   7.5987586110e+01   7.1862310163e+01    0.4382834     0.207641 -16.36  0.002203463    2.467    0.595
        17 -10.2283    109.0075      8.7557   4.7838455072e+01   5.5924385068e+01    0.1791954    0.1508927  53.12 0.0001986858    1.038    0.036
        18 -12.8010    214.5186      5.0130   3.2807745697e+01   3.1245066754e+01    0.6827903    0.2604231  55.10  0.003028283    2.995    0.666
        19 -11.8039    207.5859      3.3892   3.3002020656e+01   3.2966496579e+01    0.3523902    0.1887125  67.51  0.001502688    1.714    0.416
        20 -11.9433    161.1375      5.5732   3.8248943452e+01   4.3726245904e+01    0.4334365    0.2488762  40.15  0.001942985    2.092    0.522
        21 -10.1982    132.2872      4.5559   4.2023780710e+01   5.0799196375e+01    0.2463106    0.1156484  71.55  0.001120762    1.981    0.495
        22  -9.8481    181.7020      3.6704   3.5429957639e+01   3.8954883557e+01    0.1234393   0.08875364  45.02 0.0003393047    1.639    0.390
        23 -10.3573      1.6887      1.9576   8.7525112693e+01   7.4648715524e+01    0.1870984    0.1407918  25.18  0.001347501    1.676    0.403
        24 -11.3398      6.9720      1.5433   8.3964654359e+01   7.4254598982e+01     0.318225    0.1433419  19.20  0.001613984    2.173    0.540
        25  -9.2824     27.7296    135.9840   1.1208923741e+02   4.4282433931e+01    0.1714044    0.1008616 -69.56  0.000478285    1.434    0.302
        26 -10.7965    248.1501    249.8791   7.9572857338e+01  -1.2211128793e+01    0.3117414    0.1170004  23.59  0.001464007    2.832    0.647
        27 -11.4019     19.9265    249.3928   1.2349434928e+02   1.9293118908e+01    0.3808328   0.07745541  51.42  0.001602959    3.408    0.707
        28 -11.8304      3.1060    243.4953   1.2616748456e+02   2.2121580038e+01    0.4371491    0.1999585  75.20  0.002593397    1.834    0.455
        29  -9.3537    147.6729    129.6824   7.6336843235e+01   2.6495737766e+01    0.1623188    0.1267726  -2.28 0.0007045824    1.678    0.404
        30 -10.3795     41.9594    128.9724   1.0676092436e+02   4.4654329334e+01    0.2043732    0.1771237 -67.32   0.00120133    1.009    0.009
        31 -10.2961     17.4800    125.4924   1.1372224626e+02   4.7749983982e+01    0.2386791    0.1651366 -62.96 0.0008613138    1.201    0.167
        32 -12.3792     12.0743    125.8783   1.1539545434e+02   4.8046283328e+01     0.294057    0.2528847  73.60  0.000335922    1.220    0.180
        33  -9.7704     33.0348    124.5132   1.0879763148e+02   4.6674760365e+01    0.1866651    0.1352082  28.03  0.001030113    1.590    0.371
        34  -9.8516     90.6292    122.4455   9.0354008444e+01   3.9517268773e+01    0.2517188    0.1485195  40.38 0.0005876298    1.762    0.432
        35 -10.4473     75.3737    119.9712   9.4507563102e+01   4.2605395252e+01    0.2166748    0.1983517  60.80 0.0003134842    1.177    0.150
        36  -9.1197     61.2591    120.3095   9.9067877139e+01   4.4534752410e+01    0.1450572    0.1021837 -36.36 0.0002276232    1.526    0.345
        37 -10.3629     33.6802    119.4553   1.0776429866e+02   4.7880673418e+01    0.2459521    0.1289127 -49.53 0.0009940519    1.730    0.422
        38  -9.8488     28.0126    119.4848   1.0957664071e+02   4.8388675637e+01    0.1763104    0.1319908  30.18 0.0009951905    1.543    0.352
        39 -10.4058     20.1546    117.9655   1.1183561682e+02   4.9410993177e+01    0.2902007    0.2089357 -84.37    0.0015983    1.327    0.246
        40  -9.7060    116.1332    116.8913   8.1463385548e+01   3.6065329571e+01    0.2052412    0.1799518 -18.38  0.001009183    1.249    0.199
        41 -11.6398      7.8230    112.9033   1.1502967616e+02   5.1503019094e+01    0.5220384    0.1519769 -69.33  0.001925631    2.634    0.620
        42 -11.3194      7.4799    106.5824   1.1426777281e+02   5.3056021706e+01    0.2604175    0.1935545 -66.50  0.001075131    1.077    0.071
        43 -10.2284      1.8789    113.5862   1.1698455745e+02   5.1679849247e+01    0.2332713    0.1429556 -25.30  0.001222417    2.020    0.505
        44 -10.3379     16.5118    109.5229   1.1173253828e+02   5.1756427562e+01    0.1310671    0.1080573 -65.47 0.0004629425    1.009    0.009
        45 -11.2260     13.4706    106.6693   1.1229912198e+02   5.2660018601e+01    0.3170015    0.1720138 -27.93  0.001560006    2.276    0.561
        46 -11.0479    142.7716    101.3854   7.0140339609e+01   3.3749823134e+01    0.5297512    0.2721893  35.28  0.001703543    2.414    0.586
        47 -10.6592    146.8710     99.5290   6.8614625990e+01   3.3196603574e+01    0.2367734    0.2222114 -89.78 0.0003200294    1.126    0.112
        48 -11.3750     15.7557    100.8965   1.1059637194e+02   5.3903183487e+01    0.3017994    0.1549973 -74.56  0.001293325    1.833    0.455
        49 -11.5885      4.0860     99.5062   1.1437938756e+02   5.4944135101e+01    0.2947048    0.1753775 -68.37  0.001665277    1.340    0.254
        50 -11.4372      3.3429     93.1391   1.1367370099e+02   5.6491599279e+01    0.4835493   0.06160283 -58.11  0.001697627    3.468    0.712
        51 -11.9975      4.6166     87.7894   1.1234806236e+02   5.7680139030e+01    0.5610689    0.2678878 -30.04  0.002499944    2.345    0.574
        52 -11.0850     25.6033     96.8169   1.0639021272e+02   5.4147549384e+01    0.3148468    0.2666343 -11.12  0.001948111    1.324    0.245
        53 -10.6090    156.0509     96.9783   6.5738964373e+01   3.1583080279e+01    0.2252465    0.2203075 -32.56            0    1.035    0.034
        54 -10.8613     75.9406     94.8995   8.8076204506e+01   4.8541754276e+01    0.3945468    0.3465363  -2.69  0.002149765    1.205    0.170
        55  -9.6020     38.6778     96.6734   1.0166581407e+02   5.2987971118e+01    0.1459954   0.08990625 -34.58 0.0006479575    1.687    0.407
        56 -10.1591     52.1110     92.1174   9.5728618879e+01   5.2563466610e+01    0.3591284     0.158401 -47.30   0.00149541    1.996    0.499
        57  -9.9700     39.5084     92.5185   1.0042695642e+02   5.3892045520e+01    0.1376271     0.118323 -47.09 8.500616e-06    1.006    0.006
        58 -11.1381     20.2597     91.3932   1.0726553135e+02   5.5854378635e+01    0.2933945    0.2387449  26.79   0.00103432    1.453    0.312
        59 -10.5748     15.8202     88.8562   1.0841128934e+02   5.6765003852e+01    0.2017871    0.1652952 -82.28 0.0009117151    1.293    0.226
        60  -9.9902     34.4883     91.4215   1.0202487645e+02   5.4648231546e+01    0.3374303      0.16902  -2.99  0.001323952    3.384    0.704
        61  -9.1355     47.4863     89.4834   9.6756611938e+01   5.3731162858e+01    0.1407493    0.1208562 -39.81 0.0008100188    1.037    0.036
        62  -9.6401    119.3031     86.3935   7.2009396447e+01   4.2106051968e+01    0.2108925    0.1468156  55.74 0.0009372103    1.567    0.362
        63 -10.2361     25.5048     84.5276   1.0386180323e+02   5.7055361779e+01    0.2760583    0.1798177  68.17  0.001363021    2.359    0.576
        64  -9.6995    146.2582     83.7396   6.4258990529e+01   3.6471511149e+01    0.2142936    0.1845785   7.49  0.001059436    1.362    0.266
        65 -10.3892      4.7480     81.3952   1.1117768076e+02   5.9152992444e+01    0.1550334    0.1080969 -18.23 0.0005274114    1.584    0.368
        66 -11.9804    248.3932     79.2800   4.5786516247e+01   1.4153899054e+01    0.3746365     0.210727 -70.71  0.001712116    2.444    0.591
        67 -10.0429    177.1074     78.3155   5.6203140079e+01   3.0068935657e+01    0.2412437    0.2018112 -24.66 0.0008695542    1.318    0.241
        68 -10.7652     37.3764     78.2785   9.7726864400e+01   5.7395113962e+01    0.4115999     0.257528  11.96  0.001404572    1.860    0.462
        69 -10.3809    106.0398     77.9638   7.3257104443e+01   4.6627387461e+01    0.2942032    0.2146162  44.15  0.001058455    1.380    0.275
        70 -11.2979      5.6744     77.2664   1.1004340875e+02   6.0047664632e+01    0.2211766    0.2006536  83.39 0.0006903519    1.319    0.242
        71 -10.0304     14.0219     76.2999   1.0654059710e+02   5.9779282898e+01    0.1668007    0.1436665 -38.93 0.0003184551    1.098    0.089
        72 -10.0065    146.8513     74.8100   6.1484804496e+01   3.7981321128e+01     0.210456    0.1975563  26.10 0.0003106466    1.123    0.109
        73 -12.2257     21.1801     71.1832   1.0244292905e+02   6.0420133643e+01    0.4550418     0.144402 -57.46  0.001433827    2.466    0.594
        74  -9.3474     98.6548     76.7098   7.5130315162e+01   4.8379887793e+01    0.1533937    0.1150302   4.04 0.0004427202    1.657    0.397
        75 -10.2552    114.7196     71.7095   6.8716286450e+01   4.5974856603e+01    0.2356127    0.2295246  19.39 0.0004506767    1.020    0.020
        76 -10.4643    118.2198     70.6152   6.7385320697e+01   4.5402493968e+01    0.2502154    0.2087618  28.22 0.0003321149    1.239    0.193
        77 -10.4632     52.4760     71.1655   8.9744477741e+01   5.7201852664e+01    0.2567894    0.2165583  -5.09 0.0007921937    1.176    0.150
        78 -11.2966     31.5404     70.6955   9.8043262689e+01   5.9645264197e+01    0.4018221    0.2217005 -27.02  0.001459997    1.992    0.498
        79 -11.2977     56.0734     63.6571   8.5924257944e+01   5.8265512346e+01    0.5171628    0.2474875 -44.94  0.001629621    1.910    0.476
        80 -10.6779     39.9700     66.3201   9.3304294230e+01   5.9725747115e+01    0.2647606     0.168361 -40.62   0.00105917    1.361    0.265
        81 -12.9087     15.8247     62.7252   1.0255863168e+02   6.2651718418e+01    0.7103619    0.4482425  -6.95  0.003599367    1.758    0.431
        82 -10.7785     32.1786     62.4028   9.5401653398e+01   6.1356425505e+01    0.2796479    0.2142392 -71.46 0.0009646302    1.656    0.396
        83 -11.3777     33.5729     58.5711   9.3621205151e+01   6.2008134919e+01    0.2633929    0.2145457 -16.10 0.0001536143    1.132    0.117
        84 -11.5765     29.6453     58.7212   9.5380627248e+01   6.2362798392e+01    0.2595193    0.1781711 -15.42 0.0008607613    1.477    0.323
        85  -9.7785    148.4956     65.4888   5.8317355085e+01   3.9201049267e+01    0.1482025    0.1433543  47.31 0.0008101742    1.044    0.042
        86 -10.0312    125.8597     59.1651   6.1636860243e+01   4.5647680626e+01     0.279329    0.2190311  85.33  0.001362971    1.627    0.386
        87 -11.5819     88.8138     57.4866   7.1807330754e+01   5.3924908391e+01    0.5663356    0.2922748  42.67 0.0005835447    1.908    0.476
        88 -10.9914     86.6556     51.7100   7.0429787430e+01   5.5330461631e+01    0.3183528    0.2359407 -18.80 0.0005720836    1.401    0.286
        89 -11.7227    232.0132     57.4064   4.2864336571e+01   2.0816782326e+01    0.3620602    0.1615528  70.59  0.001313425    2.536    0.606
        90 -11.1243      2.8707     56.8469   1.0679543669e+02   6.4671603159e+01    0.2395598    0.1441065 -59.42  0.001226047    1.380    0.275
        91  -9.5754    133.3922     54.8473   5.8400338321e+01   4.4560838832e+01    0.2022843    0.1418011 -17.78 0.0007834739    1.708    0.414
        92 -10.7449    147.0941     53.8945   5.5073542244e+01   4.1393703789e+01    0.2255291    0.2126476   9.17 0.0002947675    1.160    0.138
        93 -10.0793     70.3175     53.9173   7.7009204085e+01   5.7917449884e+01    0.1911813    0.1588957 -23.00 0.0003508802    1.123    0.109
        94 -10.8963    225.6876    248.8968   8.3375056476e+01  -9.2846310920e+00    0.1945825    0.1258468  -8.92    0.0012096    1.477    0.323
        95  -9.4486    208.9286     45.9943   4.2919990453e+01   2.7573985380e+01    0.1614738    0.1405786 -80.99  0.000395673    1.042    0.041
        96  -9.8944    124.5188     46.0152   5.7583128315e+01   4.7990749169e+01    0.2118035    0.1428019 -29.89 0.0008586908    1.580    0.367
        97 -10.2630    152.5175     43.3757   5.0773394247e+01   4.1581626619e+01    0.2808929    0.1413023 -31.88 0.0008124462    2.112    0.526
        98 -10.5403     76.5266     41.8968   7.0171625072e+01   5.8822868063e+01    0.2567333    0.1902623  -2.87 0.0006230342    1.426    0.299
        99  -9.3584    144.4933     42.5631   5.2071857828e+01   4.3665296698e+01    0.1423918     0.131319  57.55 6.338898e-05    1.031    0.030
       100 -12.5790     11.4867     40.2623   9.7972033281e+01   6.7511279486e+01    0.4235743    0.2540011 -14.26  0.000832787    1.660    0.398
       101 -10.1169    149.1339     41.1184   5.0719103749e+01   4.2721295104e+01    0.2174216    0.1828588  35.47 0.0004680656    1.283    0.220
       102 -11.2661     49.3152     39.8683   8.0013262152e+01   6.3592203448e+01    0.3977479    0.2592203  23.44 0.0004745633    1.514    0.340
       103 -11.4594     57.0408     37.4165   7.5779039668e+01   6.2844183592e+01       0.4768    0.2815591  -8.29  0.002246891    2.217    0.549
       104  -9.8748    174.3412     39.2388   4.5883475488e+01   3.6755190660e+01    0.2671085    0.1461698  54.52  0.001004054    1.769    0.435
       105  -9.3958    157.6516     39.7230   4.8743706822e+01   4.0806029825e+01    0.1445241    0.1016919  37.33 0.0002718752    1.636    0.389
       106  -9.3306     41.9716     53.7300   8.8377356128e+01   6.2042558559e+01    0.1516077    0.1089095  19.05 0.0004840596    1.431    0.301
       107 -11.1550    102.8617     51.6650   6.5336991033e+01   5.2021531956e+01    0.6172727    0.2475123  46.88  0.002368117    2.362    0.577
       108 -11.5523     79.8556     33.3841   6.5617578378e+01   5.9437034788e+01    0.3961536    0.2707012 -49.76  0.001879391    1.959    0.490
       109 -11.1745     75.1652     32.8927   6.7027088265e+01   6.0397730681e+01    0.5109915    0.3231411   4.91  0.002066268    1.988    0.497
       110 -11.3478     65.2581     30.8208   6.9774077408e+01   6.2474992785e+01    0.5150365    0.2473503  46.49  0.002398262    2.172    0.540
       111 -10.9720    212.3410    248.1506   8.5708596673e+01  -7.3997489800e+00    0.3146728    0.1546411   2.16  0.001193215    4.229    0.764
       112 -10.9007     18.1690     38.1353   9.3896968129e+01   6.7398940534e+01    0.2898134    0.1728778 -32.24 0.0009575197    1.397    0.284
       113  -9.6824     60.3889     50.8096   7.9676137735e+01   6.0071077496e+01    0.2831173    0.1626025  10.73  0.001227512    2.460    0.594
       114 -10.7611    167.4389     28.8963   4.4013379360e+01   3.9748236023e+01    0.2927058     0.226868  22.29  0.000978781    1.694    0.410
       115 -10.5804    150.6895     29.0488   4.6722982634e+01   4.3858298665e+01    0.3968219    0.2240705  16.76  0.001513836    3.431    0.709
       116 -11.3562    143.0471     29.5696   4.8241277361e+01   4.5674494351e+01    0.2364488    0.2178527  52.14 0.0002507819    1.070    0.065
       117 -11.0331     30.8762     25.1992   8.2316541336e+01   6.8333857192e+01    0.3853507    0.2123881 -33.56  0.001899306    1.607    0.378
       118 -11.5074      2.8613     27.1858   9.7935886529e+01   7.0493343852e+01    0.3807605    0.1997281 -28.94  0.001977057    1.597    0.374
       119 -10.4670     22.1888     28.5829   8.8158645890e+01   6.8720248732e+01     0.257056    0.1970589  34.93  0.001683536    1.697    0.411
       120 -10.5109     59.3470     28.3202   7.0995206827e+01   6.3828528703e+01    0.3437522    0.1680169  25.70  0.001534862    2.389    0.581
       121 -11.3839     36.2495    249.0645   1.2052473566e+02   1.7546856778e+01    0.3302903    0.1148084  45.00  0.001682286    2.153    0.536
       122 -10.1699    204.1830     24.8543   3.8348942816e+01   3.1400271859e+01    0.1649321    0.1520726  49.01 0.0005133925    1.340    0.254
       123 -10.4923     12.8489     24.7078   9.1494478943e+01   7.0211998361e+01    0.1881834    0.1182365 -11.38 0.0006833647    1.467    0.318
       124  -9.4414    161.4978     50.4848   5.1237916646e+01   3.8360421012e+01    0.1430871    0.1351823  64.07 0.0002282388    1.057    0.054
       125  -9.4909     50.2793     24.6407   7.3103009689e+01   6.5787597527e+01    0.1100044    0.1004717 -55.65 0.0007012494    1.665    0.399
       126 -10.7395    176.3806     22.7734   4.1075430771e+01   3.8268694250e+01    0.2113768    0.1774904 -15.70  0.000628805    1.467    0.318
       127  -9.4443     68.4855     22.5902   6.5017717966e+01   6.2987659753e+01    0.1293548    0.1080603  18.18 9.598542e-05    1.017    0.017
       128  -9.8772      7.0044     20.5043   9.2998384579e+01   7.1372771117e+01    0.1689133    0.1189731 -32.66 -0.0001582974    1.130    0.115
       129 -11.1481     63.2468    248.5827   1.1538653039e+02   1.4325970962e+01    0.2381874   0.08907932  40.68  0.001147758    2.130    0.530
       130 -10.5744    153.8461     17.8363   4.2819313519e+01   4.4321469927e+01    0.1976477    0.1649587  52.48 0.0003232862    1.183    0.155
       131  -9.5432    102.0344     27.7513   5.6716943668e+01   5.5541670446e+01    0.1833068    0.1067892  54.20 0.0008864829    1.588    0.370
       132  -9.3424     55.4753     17.5431   6.7680921454e+01   6.5884393864e+01    0.1249484    0.1035302  11.14   0.00023564    1.029    0.028
       133 -10.7264    182.0399     15.6782   3.8495248846e+01   3.7675950983e+01    0.1874982    0.1492316  80.34 0.0004759476    1.105    0.095
       134 -10.4267      2.9511    250.4890   1.2648887727e+02   2.0811206135e+01    0.2120913    0.1416287  35.82  0.001522834    1.671    0.402
       135 -12.0962    243.3013    245.9162   7.9766673690e+01  -1.1140217219e+01    0.2940505     0.172535 -19.42  0.001828395    1.561    0.359
       136 -11.2645    247.2995    239.4129   7.8000224264e+01  -1.0815651495e+01    0.2664086     0.139275 -11.12  0.001425481    2.123    0.529
       137 -10.6930    130.8729     19.8688   4.7355505815e+01   4.9711919426e+01    0.3746652    0.1911873  71.49  0.001657677    2.055    0.513
       138 -10.1978    111.5503     13.2820   4.8969144522e+01   5.4928410945e+01    0.2672433    0.1500451  73.29  0.001253815    2.034    0.508
       139 -11.1233    233.5802    244.7363   8.1286178893e+01  -9.7693668494e+00    0.2140097   0.09911614 -30.25  0.001144548    2.125    0.529
       140  -9.6837    125.4765     12.5064   4.5878791409e+01   5.1730569648e+01    0.1327344    0.1157135  57.12 -2.115482e-05    1.004    0.004
       141 -10.9005     28.8181    239.9902   1.2134374333e+02   2.0149491039e+01    0.2066677   0.09534626  68.93  0.001095282    2.032    0.508
       142 -10.9817      6.1360    235.8993   1.2528845572e+02   2.3310352824e+01     0.183646    0.1121188  67.26  0.001236616    1.242    0.195
       143 -10.6116    250.4158    232.3042   7.6263964003e+01  -1.0289289502e+01    0.2162744   0.09494284 -29.62  0.001129788    2.099    0.523
       144 -10.4314     14.1088    231.8630   1.2362381049e+02   2.3331074648e+01    0.1922911    0.1164202  65.72  0.001243933    1.296    0.229
       145 -10.2205      2.0000    220.9890   1.2532863008e+02   2.6719721372e+01    0.1807445    0.0527718 -79.60 0.0008031914    2.948    0.661
       146  -9.4136     56.0221    216.9405   1.1411094193e+02   2.1697891259e+01    0.1489772    0.1205693  84.33            0    1.112    0.101
       147  -9.9187      2.4802    212.4975   1.2480329472e+02   2.8460490213e+01     0.117941    0.0857361  74.86 0.0008100974    1.036    0.034
       148  -9.2843    124.0130    206.0003   9.7426925485e+01   1.3878378034e+01    0.1623693    0.1460872  44.56 0.0009364466    1.021    0.021
       149  -9.2582     40.7889    190.0289   1.1493298548e+02   2.9646000411e+01    0.1642911   0.09333611 -75.42 0.0003574768    1.599    0.375
       150  -9.1319    101.0104    176.0121   9.8150583724e+01   2.4536814004e+01    0.1595324    0.1507266  86.35            0    1.022    0.022
       151  -9.6835     19.7863    166.0308   1.1765901961e+02   3.7548029824e+01    0.1735863    0.1430293 -88.36 0.0006061841    1.014    0.014
       152 -11.6838      6.5020    144.2970   1.1899268269e+02   4.3908554123e+01    0.4558126    0.2932839 -66.72  0.002681796    1.294    0.227
       153  -9.1412    123.6537     35.7415   5.4275353918e+01   4.9596256232e+01    0.1452959   0.09734899  34.17 0.0006965845    1.596    0.373
       154 -11.1763      7.0512    137.0901   1.1811871521e+02   4.5633197274e+01    0.4537266    0.2407876  83.35  0.002263127    1.941    0.485
       155 -12.0390     12.9296    134.6369   1.1619510406e+02   4.5823316003e+01    0.4376395    0.4068953  31.67  0.002350262    1.311    0.237
       156  -9.4400     67.2377    135.0329   1.0014278957e+02   4.0003749609e+01    0.1999698    0.1141293 -60.12 0.0008773314    1.605    0.377
