#   1 NUMBER                 Running object number                                     
#   2 MAG_AUTO               Kron-like elliptical aperture magnitude                    [mag]
#   3 X_IMAGE                Object position along x                                    [pixel]
#   4 Y_IMAGE                Object position along y                                    [pixel]
#   5 X_WORLD                Barycenter position along world x axis                     [deg]
#   6 Y_WORLD                Barycenter position along world y axis                     [deg]
#   7 A_WORLD                Profile RMS along major axis (world units)                 [deg]
#   8 B_WORLD                Profile RMS along minor axis (world units)                 [deg]
#   9 THETA_WORLD            Position angle (CCW/world-x)                               [deg]
#  10 FWHM_WORLD             FWHM assuming a gaussian core                              [deg]
#  11 ELONGATION             A_IMAGE/B_IMAGE                                           
#  12 ELLIPTICITY            1 - B_IMAGE/A_IMAGE                                       
         1 -12.4835      8.1914     10.0814   9.0256825130e+01   7.2513751576e+01     1.192913    0.7567394 -39.91  0.007960585    1.418    0.295
         2 -10.9651    174.7495     16.1220   4.1052393306e+01   3.9651841987e+01    0.3386872    0.2439308 -23.97  0.001898615    1.557    0.358
         3  -7.4640    246.2378      9.7067   3.2656428253e+01   2.4164085311e+01    0.1176489   0.06909736 -58.93            0    1.467    0.318
         4 -10.5918    196.9398      8.1081   3.6405044027e+01   3.5159831746e+01    0.2670395    0.1916907 -57.87  0.001436518    1.340    0.254
         5  -9.6988    100.3763    241.8886   1.0930104999e+02   1.1425944439e+01    0.2248688    0.1364746  48.48 0.0007516867    1.413    0.292
         6 -10.5541    247.7542    248.6704   8.1903721755e+01  -1.0684136507e+01     0.354954    0.3192734  52.52  0.002513009    2.251    0.556
         7 -10.7070    241.2325    247.2235   8.2801038943e+01  -9.7030518417e+00    0.3267857    0.2039118  27.57  0.001083766    1.410    0.291
         8 -11.7692     13.9930    246.0749   1.2570453595e+02   2.1015839854e+01    0.7166036    0.3343506  81.20  0.004356724    1.945    0.486
         9 -11.4389      4.4310    247.8019   1.2737672556e+02   2.1606819039e+01    0.5981043    0.4053657 -76.23  0.004593684    1.523    0.343
        10  -9.1531    250.0018    230.9734   7.8555183465e+01  -8.8173316436e+00    0.1817984    0.1422177   0.01 0.0005833763    1.105    0.095
        11  -8.1099     24.3221    230.3305   1.2304364046e+02   2.2969617636e+01   0.09900662   0.08174695 -50.84 0.0003743625    1.697    0.411
        12  -9.0892    210.6431    219.4057   8.3718605589e+01  -1.7116727894e+00    0.2416713    0.2230321 -72.88 0.0009057462    1.770    0.435
        13 -10.3442    230.3116    212.8411   7.8845312496e+01  -3.6685204181e+00    0.2261199     0.190534 -11.30 0.0003387755    1.168    0.144
        14  -8.4653    198.6948    213.8090   8.5068192292e+01   1.0126535365e+00    0.2119846    0.1526396  20.63 0.0003858708    1.249    0.200
        15  -6.9451    225.3046    211.3117   7.9491297587e+01  -2.7058572229e+00    0.1328416   0.08547963   0.09 0.0002197364    1.614    0.381
        16  -8.8051    199.9975    209.0718   8.3961131750e+01   1.5699219818e+00    0.1946229    0.1673594   7.72  0.000317354    1.033    0.032
        17  -8.4263    200.6585    204.3289   8.2962199689e+01   2.2413043159e+00    0.2043901    0.1887531  18.74 0.0005447768    1.210    0.174
        18  -7.9530    227.2801    200.9792   7.7199303644e+01  -1.4436780411e+00    0.1790664    0.1439493 -13.38 0.0002300941    1.092    0.085
        19 -10.0958    167.9399    199.3530   8.8866584748e+01   8.6358569265e+00    0.2325011    0.2195302  -5.20 0.0002851507    1.090    0.083
        20  -8.0677    120.0468    197.2681   9.9270332607e+01   1.7198837668e+01    0.1806328    0.1647238  45.30 0.0002467176    1.026    0.025
        21  -8.8319     52.5124    189.1809   1.1389981238e+02   2.8628016349e+01    0.1864524    0.1652078  49.36  0.000331214    1.188    0.158
        22  -8.7113    189.7430    184.0632   8.1307715888e+01   7.6397915141e+00    0.2167936     0.185886  19.84 0.0003364648    1.093    0.085
        23  -8.2004    100.9091    175.9454   1.0043590780e+02   2.5011989537e+01    0.1859093    0.1775197  -1.18            0    1.168    0.144
        24  -8.3750     53.9577    173.5553   1.1177349023e+02   3.2089482674e+01    0.1816259    0.1550761 -82.28 0.0003064292    1.050    0.047
        25 -12.1886     10.6291    145.3399   1.1957212049e+02   4.2936793615e+01    0.6306424     0.576789 -62.43  0.004488269    1.217    0.178
        26 -12.3289      2.8619    140.5953   1.2112465937e+02   4.4577126517e+01     1.840698    0.3872426 -79.59  0.005502707    5.267    0.810
        27 -12.5324      6.6324    130.6911   1.1914809053e+02   4.6705171416e+01    0.8775678    0.6237063 -32.97  0.005443201    1.684    0.406
        28  -9.6123    194.0895    130.4732   6.8559836676e+01   1.7038420937e+01    0.2652714    0.2249453 -34.53 0.0002917378    1.113    0.101
        29  -7.4759    222.4976    116.4764   5.9919298589e+01   1.3764175559e+01    0.1442316    0.1294046 -31.92 3.077212e-05    1.015    0.014
        30  -8.1698    137.7891    130.8500   8.1645279602e+01   2.8791614156e+01    0.2178224    0.2013984  -3.36 0.0004023918    1.110    0.099
        31  -8.3234    199.0707    127.3261   6.6805015624e+01   1.6601328478e+01    0.2558216    0.1949811 -23.39  0.000530418    1.317    0.241
        32  -7.2479    141.6737    104.7432   7.3833578175e+01   3.3666741193e+01    0.1558902    0.1218856   9.10 0.0002604901    1.554    0.356
        33  -8.1339     84.1976    103.1283   9.0059973658e+01   4.5147300615e+01    0.2141694    0.1875347 -22.80  0.000478505    1.140    0.123
        34  -9.1005    197.2593     83.2613   5.5991800327e+01   2.4991923274e+01    0.3737022    0.2374126 -28.42  0.001106907    1.638    0.389
        35 -10.3997    101.1497     83.6725   7.9106393804e+01   4.6478602319e+01    0.2963563    0.2688379 -29.27 0.0002314998    1.053    0.050
        36 -10.4706    113.5064     81.7903   7.4787654599e+01   4.4407305290e+01     0.568878    0.2696356 -27.81  0.001366693    2.921    0.658
        37  -8.7206     91.3067     78.6463   8.0685593140e+01   4.9344196807e+01    0.1443548    0.1201376 -83.42 0.0007042149    1.716    0.417
        38  -9.8855     95.3258     73.8233   7.7830646753e+01   4.9579959614e+01    0.3034209    0.1292933 -48.82  0.001095171    2.595    0.615
        39  -8.8054    172.6534     72.6679   5.7632450899e+01   3.2555836655e+01    0.2292331    0.1737616  18.41 0.0005981959    1.669    0.401
        40 -10.7235    121.8231     69.1175   6.8373195126e+01   4.5041920330e+01    0.4052162    0.2055412 -39.04  0.001636046    1.965    0.491
        41  -9.4588    109.5027     66.4934   7.1008684060e+01   4.8157012345e+01    0.1492599    0.1382761   2.02 -0.0002206578    1.009    0.009
        42 -10.2098    136.4911     66.4520   6.3698269502e+01   4.2190925181e+01    0.3263229    0.1475208 -35.10  0.001231253    2.237    0.553
        43 -10.4872    147.2167     66.4535   6.1156930311e+01   3.9674298414e+01      0.32979    0.2376032 -53.11 0.0007791081    1.574    0.365
        44 -10.6970    147.9919     59.3068   5.8750477727e+01   4.0649851519e+01    0.3447049    0.2510904 -23.98 0.0008027702    1.466    0.318
        45 -10.0091     97.6010     66.7483   7.4746710496e+01   5.0508171442e+01    0.2796807    0.1751438  29.99  0.001217876    1.706    0.414
        46 -10.2000    131.7141     57.5769   6.1989847330e+01   4.4764644547e+01    0.4014744    0.1109179 -39.43  0.001225236    3.609    0.723
        47  -9.5969     99.5159     56.9830   7.0745944385e+01   5.1880432951e+01    0.2244464    0.1380003 -34.37 0.0006430592    1.607    0.378
        48 -10.1693    156.1216     55.1205   5.5729831720e+01   3.9334366567e+01    0.2364036    0.2023124  23.79  0.001254291    1.265    0.209
        49 -10.8423    121.5057     58.3812   6.4882408096e+01   4.6960525890e+01    0.3822989    0.2373261 -47.68  0.001699595    1.849    0.459
        50 -10.3606    117.8730     50.3180   6.3070702030e+01   4.9053450868e+01    0.3133049    0.2343627 -68.64  0.001484181    1.968    0.492
        51 -10.6767    146.4871     48.1336   5.5527891540e+01   4.2688951027e+01      0.34683    0.2218471  68.81  0.001578772    1.759    0.431
        52 -10.4754    156.6536     44.1364   5.2236166867e+01   4.0775286975e+01    0.3582656    0.2168606  12.39  0.001414404    2.788    0.641
        53 -10.5348    136.3360     47.6733   5.7602148042e+01   4.5184320426e+01       0.3184    0.2162907 -64.89  0.001420833    2.105    0.525
        54  -9.8631    129.8642     38.0649   5.5822539594e+01   4.8034468866e+01    0.2100653    0.1967078 -68.65 0.0007607404    1.219    0.180
        55 -10.4315    154.4567     35.0102   4.9805038200e+01   4.2495854713e+01    0.3845376    0.1674549 -47.58  0.001465501    2.793    0.642
        56 -10.7222    161.2221     30.5804   4.7268683223e+01   4.1373539321e+01     0.487002    0.2158775 -43.99  0.001999237    2.447    0.591
        57  -9.1848    132.0108     32.4812   5.3420710361e+01   4.8231989261e+01    0.3054023    0.1564133  20.43   0.00105492    3.611    0.723
        58 -10.9062    169.0121     31.4879   4.6287255768e+01   3.9357949553e+01    0.3868081    0.2482572  84.80  0.001455074    1.787    0.440
        59 -10.1591    181.2466     29.5329   4.3926434656e+01   3.6608189073e+01    0.3000955    0.1384758 -42.75  0.001304821    2.170    0.539
        60  -9.3077    128.9072     25.2792   5.1584937098e+01   4.9807872449e+01     0.228519    0.2203883 -65.19 0.0002813967    1.169    0.144
        61  -8.7242    224.7718    248.6813   8.5964152197e+01  -7.7511078164e+00    0.1676323     0.123056   3.05 0.0009847638    1.109    0.099
        62  -8.1407     75.3670    249.7150   1.1490368061e+02   1.3393968559e+01    0.1251826   0.06882538  58.99 0.0003032167    1.696    0.410
        63  -8.7633    234.1852     15.4931   3.4789960577e+01   2.6048798014e+01    0.1992558    0.1536838 -43.12 0.0004976079    1.245    0.196
        64  -8.3979    211.9501    236.9376   8.6438520793e+01  -4.4374958011e+00    0.1817899    0.1464584  12.26  0.000382011    1.055    0.052
