#   1 NUMBER                 Running object number                                     
#   2 MAG_AUTO               Kron-like elliptical aperture magnitude                    [mag]
#   3 X_IMAGE                Object position along x                                    [pixel]
#   4 Y_IMAGE                Object position along y                                    [pixel]
#   5 X_WORLD                Barycenter position along world x axis                     [deg]
#   6 Y_WORLD                Barycenter position along world y axis                     [deg]
#   7 A_WORLD                Profile RMS along major axis (world units)                 [deg]
#   8 B_WORLD                Profile RMS along minor axis (world units)                 [deg]
#   9 THETA_WORLD            Position angle (CCW/world-x)                               [deg]
#  10 FWHM_WORLD             FWHM assuming a gaussian core                              [deg]
#  11 ELONGATION             A_IMAGE/B_IMAGE                                           
#  12 ELLIPTICITY            1 - B_IMAGE/A_IMAGE                                       
         1 -13.6261    248.5500     50.6820   3.5914950804e+02   1.9072844734e+01      1.61865    0.2608957 -39.74  0.006118509    3.430    0.708
         2 -14.8398    218.4232     53.3075   2.3185888916e+00   2.4436263272e+01     1.684847     0.985786 -49.46  0.008734364    1.455    0.313
         3 -15.1877    243.8744     62.1473   1.9596526495e+00   1.8456875162e+01     1.969616     1.038094 -54.78  0.009496868    1.804    0.446
         4 -13.8816     44.3075     23.8824   3.2734573551e+01   7.0191266511e+01     1.057936    0.8607175 -14.74  0.006017299    1.276    0.216
         5 -13.0544     39.6665     10.4990   2.7117283880e+01   7.3159826738e+01    0.6546433    0.4002105 -37.86  0.003394982    1.753    0.430
         6 -13.2180    179.5393     24.2795   3.5868401998e+02   3.6761536703e+01    0.7190528    0.3718866 -64.94  0.003054332    1.990    0.498
         7 -12.4681    143.8353      4.0145   3.5605535224e+02   4.7885815526e+01     0.652778    0.3937254 -87.58  0.003255745    1.543    0.352
         8 -13.1012    169.3606      2.5572   3.5334390566e+02   4.1522554702e+01     0.553232    0.3883818 -73.17   0.00317119    1.233    0.189
         9 -13.6667    164.3402     11.5112   3.5643090412e+02   4.1904338025e+01     0.683373    0.3958194  70.34   0.00344839    1.625    0.384
        10 -13.5566    156.0437     12.1619   3.5745436733e+02   4.3943393772e+01    0.7168878    0.6406752  28.77  0.004317517    1.419    0.295
        11 -13.4593    155.6808      4.2294   3.5498117835e+02   4.4806546918e+01     0.942161    0.4066885  72.06  0.004160505    2.065    0.516
        12 -10.3127    231.2839      9.1545   3.5127375079e+02   2.7036886087e+01    0.1632581    0.1427638 -16.26 0.0009120834    1.498    0.333
        13 -13.6362      6.4077      4.2431   5.0399146212e+01   7.9080219978e+01    0.8723058    0.4701525  30.44  0.004711054    1.881    0.468
        14 -15.8661    243.5312    117.0616   1.3465046681e+01   1.1030259071e+01      2.62171     1.084775 -33.73   0.01288948    1.962    0.490
        15 -10.8472     85.9095      3.2577   4.7401869237e+00   6.3250007236e+01     0.274335    0.1624048  52.61  0.001084273    1.508    0.337
        16 -11.8963    202.6711    205.4657   3.6263597119e+01   4.0705102854e+00     0.343236    0.1835268  18.01  0.001865771    1.904    0.475
        17 -13.5274    189.2568    194.3406   3.6894459596e+01   7.4940983785e+00    0.5345283    0.4780452  20.24  0.002376199    1.257    0.205
        18 -13.0929    193.9753    186.3106   3.4628576820e+01   8.0651657176e+00     0.562419    0.4471928  20.92  0.002899147    1.183    0.155
        19 -12.9103    205.6593    191.2956   3.3375039011e+01   5.7012132098e+00    0.5834259    0.3342541  -9.02  0.003043452    2.093    0.522
        20 -10.5217     37.3374    185.3040   7.2632347158e+01   3.0954230689e+01    0.1275399    0.1015676 -29.05 0.0005005429    1.670    0.401
        21 -11.5375    227.2655    170.4234   2.6071261127e+01   5.7861771236e+00    0.2114462     0.106909  32.05  0.001141251    2.114    0.527
        22 -13.0003    158.1151    223.4282   4.7569987278e+01   7.2540529315e+00    0.6848163    0.3341126 -40.98  0.003592543    2.279    0.561
        23 -11.8701    139.7171    161.8258   4.1624337326e+01   2.1173194828e+01    0.4737439    0.2530627  56.32  0.001801671    2.809    0.644
        24 -11.4817    170.4808    160.4882   3.4460166881e+01   1.6083513566e+01    0.1373702    0.1242136  -1.57  1.34033e-05    1.006    0.006
        25 -10.2736    173.5862    144.2636   3.0505483193e+01   1.8510451014e+01    0.1917017    0.1264502 -30.49 0.0007571158    1.529    0.346
        26 -11.3205     97.3033    249.1366   6.3449748727e+01   1.0943130006e+01    0.1736948    0.1459853 -11.75  0.001215951    1.449    0.310
        27 -13.5058    231.5822    226.6618   3.4687061656e+01  -1.9827229828e+00     1.013953    0.4717878 -14.22  0.005560513    2.437    0.590
        28 -14.1035    242.3362     90.2893   8.0843899631e+00   1.4959363960e+01    0.9435301    0.7244038  39.36  0.004807556    1.663    0.399
        29 -15.0925    242.6011     77.9990   5.4576815263e+00   1.6590177817e+01     1.872257     1.120301  78.23   0.01053283    2.329    0.571
        30 -12.1596    129.5474    116.6408   3.4327996808e+01   3.2847525398e+01    0.3297561    0.2883604  19.40  0.001186791    1.261    0.207
        31 -10.9022    189.5031    115.4853   2.1075561495e+01   2.0672217830e+01    0.4296651    0.2286438 -14.24  0.001407148    4.216    0.763
        32 -11.3324     59.3693    116.3032   5.6807210188e+01   4.6012471824e+01    0.3441752    0.2428827  66.95   0.00155936    1.595    0.373
        33 -13.4143     96.2490    110.5800   4.2544751637e+01   4.1116046030e+01    0.6041017    0.5241263   2.84  0.002958432    1.373    0.272
        34 -12.7482    103.6583    105.2792   3.8819095202e+01   4.0892286438e+01    0.5550071    0.3030819  27.20   0.00196446    2.541    0.607
        35 -12.6918    148.6142    108.8876   2.7669053500e+01   3.0383802270e+01    0.5863355    0.4588228 -40.09  0.002911268    1.263    0.208
        36 -10.8374     68.6683    105.3274   5.0945344654e+01   4.7471465718e+01    0.1660452    0.1171337  68.67 0.0007051436    1.713    0.416
        37 -11.5267    143.5068    101.7176   2.6979848884e+01   3.2961538728e+01    0.5763951    0.1837381 -42.37  0.001799184    3.092    0.677
        38 -12.9034     91.8207    101.2012   4.1577985410e+01   4.4278909958e+01    0.5096937    0.3519102  12.63   0.00205076    2.134    0.531
        39 -12.4840    221.5833    107.8840   1.4390054710e+01   1.5967842757e+01    0.3603582    0.2845616  25.67  0.002201796    1.531    0.347
        40 -10.7394     30.7199    101.4508   6.5608904481e+01   5.3557908159e+01    0.2745324     0.153846 -49.18  0.001196906    1.795    0.443
        41 -11.5802     90.8657     90.8842   3.9014380869e+01   4.6948533677e+01    0.2524149    0.2297755  -1.81   0.00126349    1.258    0.205
        42 -11.9428     44.6702     90.2239   5.7282123816e+01   5.5000969175e+01    0.4843547    0.1907317  30.89  0.001765516    2.478    0.597
        43 -11.4321      2.8731     88.3061   7.6343750971e+01   5.9112224787e+01    0.3422585    0.2013552  65.30  0.001651142    1.785    0.440
        44 -10.2004    144.8336     80.8455   2.0829888143e+01   3.6735231537e+01    0.2204289    0.1794709 -75.51 0.0009190463    1.351    0.260
        45 -13.6832    245.5201    227.7944   3.2700306439e+01  -3.5254220136e+00    0.7728459    0.5588499   6.74  0.006215204    1.172    0.147
        46 -11.4910     40.3537     83.1635   5.7602169743e+01   5.7405957242e+01    0.4261146   0.07061338  31.04  0.001136508    4.677    0.786
        47 -11.8625     14.3874     74.4615   6.8757898001e+01   6.2169641476e+01    0.4503586    0.2202263  82.92  0.001768778    2.660    0.624
        48 -11.6210     18.7749     73.7194   6.6308574646e+01   6.2051040849e+01    0.3131718    0.2060575   4.26  0.001544946    1.713    0.416
        49 -12.3241    133.2015    119.9606   3.4197674375e+01   3.1354734383e+01    0.3111865    0.2308737  35.37  0.001133828    1.398    0.285
        50 -11.4228    194.6999     72.3511   9.7517900982e+00   2.6697358383e+01    0.2378667     0.152123 -50.93 0.0009107114    1.462    0.316
        51 -10.0723     74.5130     69.4921   3.8312133273e+01   5.5234378433e+01    0.1524038    0.1495261  62.26 0.0008104344    1.018    0.018
        52 -10.7227    179.4661     65.8220   1.0228150402e+01   3.1105943524e+01    0.2649471     0.201786  67.11  0.001412065    1.374    0.272
        53 -12.5319    199.6110     63.7198   6.9309074510e+00   2.6925188515e+01    0.2829214    0.2602934  17.68  0.001493783    1.361    0.265
        54 -13.6234    193.1106     54.4629   5.3602433698e+00   2.9681675690e+01    0.8000478    0.4855208 -78.53  0.003812591    1.999    0.500
        55 -13.1236    199.1070     51.4840   3.8918410567e+00   2.8763464214e+01    0.4865762    0.2981418 -48.45  0.002541705    1.424    0.298
        56 -10.8358    121.2722     56.6278   1.8590671014e+01   4.6950280025e+01    0.2952918    0.1836749 -50.29  0.001270931    1.687    0.407
        57 -13.1697    182.5461     42.7979   3.5100083476e+00   3.3722319951e+01    0.9088114     0.871461  19.27  0.005642895    1.303    0.233
        58 -12.8188    197.0224     41.2881   1.4991276921e+00   3.0586681429e+01    0.6904045    0.3975853 -23.77  0.003213322    1.964    0.491
        59 -13.4405    191.6085     38.9766   1.4593040609e+00   3.2114307963e+01    0.9265544    0.2735158 -38.48  0.003547225    2.671    0.626
        60 -12.0023    121.7761     46.9772   1.5038168753e+01   4.8424203713e+01    0.4850472    0.3382934  34.07  0.002194005    1.783    0.439
        61 -11.7239     85.4052     47.6688   2.5790887700e+01   5.7344644212e+01    0.4799947     0.298391  51.80  0.001890481    1.546    0.353
        62 -13.1675     81.2914     38.5731   2.3338695296e+01   5.9894275827e+01    0.7499144    0.4554501 -45.96  0.003354379    1.784    0.439
        63 -12.8632    123.3587    125.4070   3.8105971467e+01   3.2172190068e+01    0.5344263    0.4629762 -41.99  0.002726166    1.184    0.155
        64 -11.2420      2.7580     41.3123   6.9163084479e+01   7.1209570560e+01    0.2429556    0.1762455 -60.48  0.001403459    1.221    0.181
        65 -12.6161    203.1210     43.1081   1.3444729082e+00   2.8999050149e+01    0.6542906    0.3686227 -29.59  0.003282626    1.748    0.428
        66 -12.3586     96.8245     36.4449   1.7376527333e+01   5.6447773491e+01    0.3439455    0.2686312 -33.28  0.001414258    1.371    0.271
        67 -12.3773     86.3632     31.7366   1.8505400625e+01   5.9758812439e+01    0.3304072    0.2102529 -40.70  0.001535583    1.665    0.399
        68 -10.5896     89.9109     28.2086   1.5787000397e+01   5.9389512077e+01     0.317875    0.2078735  52.58  0.001510548    1.409    0.290
        69 -13.0190    246.2545    210.1241   2.9887578890e+01  -1.5969956745e+00    0.7250267    0.3083491 -40.75   0.00398305    2.736    0.634
        70 -15.1018    246.9297    191.5632   2.6779088537e+01   5.6305443166e-01     2.094922    0.5564653 -33.65  0.009302548    3.220    0.689
        71 -10.7911    234.9280     29.0071   3.5544011992e+02   2.4166744787e+01    0.2298015    0.1546577  83.33  0.001462674    1.599    0.375
        72 -13.3448     76.3205     26.4905   1.9426593565e+01   6.2955759213e+01    0.6733021    0.3798635  44.60  0.003010038    1.703    0.413
        73 -10.4551    111.0247    228.7020   5.8389951379e+01   1.2662423525e+01    0.1909367     0.139534  30.14  0.001173225    1.099    0.090
        74  -9.9285    102.9862     25.7323   1.1153806876e+01   5.6375977728e+01    0.1937293    0.1192256  63.25 0.0008804836    1.492    0.330
        75 -10.6471    238.9433     21.2541   3.5350723684e+02   2.4266756306e+01    0.2687573   0.07413605 -49.13  0.001177227    2.654    0.623
        76 -10.9487    186.8430     19.0341   3.5656961636e+02   3.5616623828e+01    0.2320807    0.1780198 -87.28 0.0009442422    1.206    0.171
        77 -11.1208      3.9982    229.7553   8.2916783487e+01   2.4505544430e+01    0.1542593   0.07951876  29.64 0.0008933324    1.627    0.385
        78 -11.3717    106.9050    227.1791   5.9150365257e+01   1.3473604655e+01    0.2033426    0.1482289  45.00  0.001002642    1.283    0.221
        79 -13.2664    203.4705    221.3342   3.8599802957e+01   1.8195699633e+00    0.8129387    0.4731205   7.04  0.004862483    1.695    0.410
        80 -14.6418    188.0300    211.3204   3.9881256280e+01   5.1250495726e+00     1.617375     1.012103  35.95   0.00969198    1.612    0.380
        81 -12.7845    143.0470    219.2301   5.0153034686e+01   9.9554173874e+00    0.4125412    0.3119369  60.47  0.002420507    1.898    0.473
        82 -10.3772    228.2248     15.8129   3.5291296804e+02   2.6946997701e+01    0.2238544   0.07074535 -55.99 0.0009510387    2.804    0.643
        83 -13.7682    150.0297    216.3493   4.8260565921e+01   9.4695141300e+00    0.4968415    0.3899608  18.41   0.00299942    1.060    0.056
        84 -11.1479     51.4959    218.4968   7.1408959266e+01   2.2061803158e+01    0.1292943    0.1024212  45.67 6.740156e-05    1.007    0.007
        85 -10.6846    128.5838     18.2377   3.0878685181e+00   5.0494940491e+01    0.2816846    0.1859183  73.33  0.001389447    1.383    0.277
        86 -12.5816    140.6219    206.4158   4.8874523695e+01   1.2486045572e+01    0.3286353    0.2332299 -37.63  0.001893606    1.556    0.357
