#   1 NUMBER                 Running object number                                     
#   2 MAG_AUTO               Kron-like elliptical aperture magnitude                    [mag]
#   3 X_IMAGE                Object position along x                                    [pixel]
#   4 Y_IMAGE                Object position along y                                    [pixel]
#   5 X_WORLD                Barycenter position along world x axis                     [deg]
#   6 Y_WORLD                Barycenter position along world y axis                     [deg]
#   7 A_WORLD                Profile RMS along major axis (world units)                 [deg]
#   8 B_WORLD                Profile RMS along minor axis (world units)                 [deg]
#   9 THETA_WORLD            Position angle (CCW/world-x)                               [deg]
#  10 FWHM_WORLD             FWHM assuming a gaussian core                              [deg]
#  11 ELONGATION             A_IMAGE/B_IMAGE                                           
#  12 ELLIPTICITY            1 - B_IMAGE/A_IMAGE                                       
         1 -10.2756     10.1381     18.9420   1.0716552047e+02   7.3016969174e+01      1.08763    0.3770281 -29.91  0.003588118    5.289    0.811
         2 -11.2207     23.8148     32.1590   1.0388653985e+02   6.8999235037e+01     1.594327    0.4607769 -47.34  0.004135107    2.882    0.653
         3 -10.6171      6.8992     29.9871   1.1286744136e+02   7.0778343504e+01    0.6420966    0.3839438 -61.81  0.002022918    1.338    0.253
         4  -8.6494     72.0275      8.4541   6.8796629459e+01   6.5714099630e+01    0.2275128    0.1775389 -33.63 0.0004427981    1.286    0.223
         5  -9.6149     77.7801      4.6570   6.4672623511e+01   6.4923650308e+01    0.6225516     0.385224 -13.82  0.002036549    1.680    0.405
         6 -10.5313     73.5810     17.9337   7.3403929111e+01   6.4050110932e+01     1.784292     0.482203 -28.76  0.005019849    4.785    0.791
         7 -10.0378     60.7346     31.5900   8.5325051734e+01   6.4156408220e+01     1.006706    0.4447225 -33.76  0.003108371    2.528    0.604
         8 -10.3328     50.6463     15.5320   8.1842038074e+01   6.8759369157e+01     1.308198    0.7508674   4.44   0.00498083    3.572    0.720
         9 -10.2299     62.7412      3.1477   6.9148278765e+01   6.8332782320e+01     0.655522    0.4606258 -24.41  0.003589517    1.346    0.257
        10  -9.5132     63.2976     21.4743   7.9318284754e+01   6.5510212809e+01    0.4413475    0.2969052 -55.66  0.001175695    1.885    0.469
        11 -10.0416     64.5085     13.5645   7.4570507028e+01   6.6538546802e+01    0.4369455    0.3393922  -0.02  0.002413983    1.352    0.261
        12  -9.3101    101.0961     32.5099   7.1297935908e+01   5.5725255855e+01    0.4941119    0.2370496 -32.45  0.001609436    2.047    0.511
        13  -8.1857    142.8319      4.2696   5.0399433740e+01   4.8455359447e+01     0.299125    0.1639062 -63.09 0.0009257355    2.287    0.563
        14 -10.0377    131.8077     17.0483   5.7382853964e+01   5.0105469346e+01    0.4962157    0.4563773  31.74  0.002740732    1.091    0.084
        15  -9.1902    137.8953      5.6994   5.1702393098e+01   4.9654670840e+01    0.5455597    0.2286262 -18.09  0.001324177    2.509    0.601
        16 -10.1061    131.9593      5.9676   5.2756321910e+01   5.1221725126e+01    0.8658331    0.5265814  -6.74  0.003877873    1.855    0.461
        17  -8.8849    126.9315      9.0092   5.4914171983e+01   5.2262062207e+01    0.3742665    0.1737635  53.11 0.0005601716    1.998    0.499
        18  -9.5277    125.5950      5.4214   5.3605830910e+01   5.2968788104e+01    0.7902896    0.3279063  59.60  0.003091238    2.158    0.537
        19  -9.7673    118.9892     21.4370   6.1874243107e+01   5.2914417695e+01    0.8172438    0.3743957 -17.53  0.002448195    2.604    0.616
        20  -8.9485    125.2022     13.1584   5.7015926324e+01   5.2281078093e+01    0.4803078    0.2387382  45.69  0.001601698    2.023    0.506
        21  -9.4303    110.2781      5.3423   5.6522220512e+01   5.6978975867e+01    0.5703931    0.2896484 -20.62  0.002425355    1.998    0.500
        22  -9.1713    113.9833     10.1200   5.7956858560e+01   5.5530545548e+01    0.4406011    0.2422838  34.31 0.0003374634    2.071    0.517
        23  -8.8781    112.4707     15.7736   6.0865167286e+01   5.5273999458e+01    0.3507404    0.2371877 -36.47  0.001099672    1.494    0.330
        24  -8.8782    102.1052      8.2495   5.9772758444e+01   5.8742791817e+01    0.4104332    0.2283035 -50.33 0.0007817142    2.236    0.553
        25  -9.1718    102.9210     21.0359   6.5651781185e+01   5.6975419746e+01    0.4236299    0.2477707 -37.88  0.001301395    1.711    0.416
        26  -7.9459    104.9677     14.3287   6.1993594534e+01   5.7331522530e+01    0.3505538     0.246818 -14.82  0.001715286    1.475    0.322
        27  -8.7626    139.8556     17.4507   5.6088749682e+01   4.7922795915e+01     0.309862    0.2098703  -4.30  0.001122867    1.696    0.410
        28  -8.2062    141.1779     12.4230   5.3879882798e+01   4.8111102402e+01    0.2825368    0.2011355 -32.41 0.0009263927    1.399    0.285
        29  -8.8538     96.3508     12.9594   6.3573402613e+01   5.9605761523e+01    0.5043926    0.2578211  22.94  0.001808173    3.089    0.676
        30 -10.6723     37.1804      9.3747   8.5329131461e+01   7.1935343167e+01    0.8749875    0.3184652 -46.46  0.002514857    2.755    0.637
        31 -10.2928     27.8954     11.4540   9.2076399446e+01   7.2816425721e+01    0.8417209    0.4273514  33.83  0.004279539    2.194    0.544
        32  -9.7459      2.3837     14.5696   1.1079775152e+02   7.4452647648e+01     0.726141    0.2427128 -72.78  0.002765837    3.674    0.728
        33  -9.0089     19.2358      9.2166   9.6483811632e+01   7.4224127535e+01    0.3837111    0.2327255 -15.05  0.001355328    2.050    0.512
        34  -9.9008     17.8738      3.6739   9.4220684551e+01   7.5417612855e+01    0.5476726    0.3479055  36.08  0.002304901    1.866    0.464
        35  -9.9171      2.7550      3.2339   1.0562097204e+02   7.6812155833e+01    0.3250352    0.1692764 -41.25  0.001315877    1.588    0.370
        36  -8.1757     80.5556     12.3394   6.7996625698e+01   6.3345932334e+01    0.2877575    0.1645526 -42.51  0.001305771    1.890    0.471
        37  -9.5804     85.1992     13.0339   6.6869035800e+01   6.2210168182e+01    0.4927128     0.282216 -52.34  0.001505635    2.354    0.575
        38  -7.9637     84.7073      7.0469   6.3843322471e+01   6.3065043031e+01    0.3440777    0.1400095  35.80   0.00119357    3.198    0.687
        39 -10.0755     46.3084     29.7056   9.1094909451e+01   6.6815706814e+01    0.5083647    0.2784708 -58.71  0.001154989    2.163    0.538
        40  -8.5556     97.4670      5.7785   5.9681200242e+01   6.0157173432e+01    0.2983992    0.2264792   2.50 0.0008312059    1.383    0.277
        41  -8.0637     95.7333      2.6796   5.8521954361e+01   6.0903960277e+01     0.240268    0.2003819  27.39 0.0005867801    1.164    0.141
        42  -7.7049    179.0067      6.2412   4.6756527021e+01   3.8573962389e+01    0.1920934      0.17944  85.05 0.0004465455    1.058    0.055
        43  -7.6853    171.1032      5.8427   4.7455613151e+01   4.0703933854e+01    0.1874663    0.1573724  46.18  0.000247659    1.242    0.195
        44  -8.7481    115.3585      4.4373   5.5065940094e+01   5.5754071658e+01    0.2909091    0.2186158 -48.51 0.0006554406    1.452    0.311
        45  -8.5894     89.4692      3.6392   6.0648799691e+01   6.2324516162e+01    0.3917675    0.1904219 -42.83  0.001155498    2.351    0.575
        46  -8.2475    104.4786      2.1540   5.6227341039e+01   5.8769779838e+01    0.2745757    0.1941327  34.88 0.0007336008    1.417    0.294
        47 -10.1290      6.3436      5.1815   1.0375409890e+02   7.6168226516e+01    0.4190279    0.2836596 -27.18  0.001292127    1.410    0.291
        48 -11.3550    134.0002    109.7775   8.7611318851e+01   3.3867057035e+01    0.9372137    0.7185832 -62.85  0.003580666    1.509    0.337
        49 -11.8107    199.0845    248.8142   9.8468492057e+01   2.5918345604e+00     1.212381    0.2561663  42.13  0.004955166    4.288    0.767
        50  -9.5125    110.1709     90.1047   8.8748069248e+01   4.2754085470e+01     1.020894    0.4940175  27.48  0.003185868    3.979    0.749
        51  -9.9999    108.6504    114.4923   9.5197226757e+01   3.7864478226e+01    0.5531022    0.3490494 -78.13  0.001518401    2.431    0.589
        52 -10.7960    108.9268    100.9197   9.1925599128e+01   4.0707060598e+01     1.044556    0.7580603 -78.68  0.004911889    1.794    0.443
        53  -9.8735    121.8062    112.6189   9.1331985265e+01   3.5749403477e+01     0.443787    0.3485319  62.73 0.0009936541    1.380    0.276
        54 -10.9059    121.3508    105.7232   8.9792699606e+01   3.7253447619e+01     0.751232    0.6704999  19.00  0.002077369    1.233    0.189
        55  -9.6996     41.7075    122.3632   1.1570788022e+02   4.5957423168e+01    0.5743062    0.2619179  84.86  0.002326292    2.981    0.665
        56 -10.0426     27.0026    122.4672   1.2000519115e+02   4.7397523201e+01    0.9054906    0.3309889  67.04  0.003162991    3.954    0.747
        57  -9.9469     14.4115    111.4470   1.2269869359e+02   5.1005674846e+01    0.6830656    0.2694062  88.71  0.002986225    2.597    0.615
        58 -10.3798      5.0449     85.8318   1.2332903001e+02   5.7682378703e+01     1.414651    0.3669893 -69.61  0.005051733    2.805    0.643
        59 -10.2236    128.4905    100.8780   8.6740491047e+01   3.6773372624e+01    0.8920323    0.4825052 -29.04  0.001885096    2.561    0.610
        60 -11.1614     20.9767    100.9827   1.1952636698e+02   5.2961299231e+01     1.690523     0.686875  64.73  0.005433622    3.170    0.685
        61 -10.7818     24.5155     79.6064   1.1527085184e+02   5.7805784030e+01     1.141922    0.6322112 -60.42  0.003285489    1.549    0.354
        62 -10.6425     33.0206     63.5056   1.0861310073e+02   6.0892282715e+01     1.249819     0.640716 -30.47    0.0052932    2.902    0.655
        63 -10.3949     16.3732     66.5744   1.1629927916e+02   6.1580008099e+01      1.45502    0.1489217 -66.96  0.004250811    4.967    0.799
        64  -7.5794     92.9964    243.5186   1.1582626546e+02   1.6944267447e+01    0.1483907    0.0562777  51.11 -1.424211e-05    2.279    0.561
        65 -11.6420    166.9397    248.1103   1.0357094177e+02   6.8325533490e+00     0.974399    0.2387541  40.02  0.004518843    2.957    0.662
        66 -10.0250     34.5159     90.7995   1.1346904294e+02   5.4187417182e+01    0.6283291    0.2772374 -88.05  0.001873148    3.175    0.685
        67  -9.9172     37.0029     80.9267   1.1078569580e+02   5.6314192805e+01    0.6636748    0.3874438 -20.61  0.002602781    2.902    0.655
        68 -10.7815     21.9011     53.5773   1.1117646825e+02   6.4257897882e+01    0.8616231    0.4160811  83.28  0.002887197    3.947    0.747
        69 -10.2200     12.1026     45.6753   1.1405418894e+02   6.6838328942e+01    0.8178872    0.4125714  -7.87  0.003264949    2.968    0.663
        70 -10.1334      4.9932     42.0228   1.1688427730e+02   6.8109583016e+01    0.6095575    0.2874508 -71.75  0.001906643    1.756    0.431
        71 -10.6720    123.2828     92.0014   8.5712199320e+01   3.9651902439e+01     1.227399    0.6388543 -30.84   0.00210591    2.531    0.605
        72  -8.0525    158.5174    122.5024   8.5018626133e+01   2.6442602703e+01    0.2527032    0.1335489  56.55  0.001026903    2.269    0.559
        73  -6.9452     81.2829    121.3383   1.0412507406e+02   4.1003015546e+01    0.1330247    0.1059055 -29.35 0.0007011831    1.626    0.385
        74 -10.1477     58.1671    124.6338   1.1125160447e+02   4.3499914858e+01    0.5897715    0.3249205  80.22  0.002433524    2.374    0.579
        75  -8.5409      1.5525    117.2384   1.2697077677e+02   5.0555513972e+01    0.3324329    0.1127019 -87.88  0.001471014    2.621    0.618
        76 -10.1742     91.8519    113.0314   9.9505988586e+01   4.1154986910e+01    0.5738571    0.4217538 -84.47  0.001647563    1.602    0.376
        77  -8.9365     93.2672    103.1895   9.6925916655e+01   4.3101218707e+01    0.6510825    0.3781397  25.63   0.00272364    2.365    0.577
        78  -9.4810    152.8154    114.9614   8.4494577149e+01   2.8975564376e+01     0.331755    0.1926031 -47.82  0.001111215    1.865    0.464
        79 -10.2768     78.2996    113.0399   1.0341773907e+02   4.3339048364e+01    0.5340874    0.3268862  88.11  0.001734486    2.343    0.573
        80  -7.2805    167.3552    114.1612   8.1186714458e+01   2.6059453381e+01    0.2010346    0.1289239 -47.56 0.0004873784    1.722    0.419
        81  -7.9639     63.0179     81.9518   1.0152543781e+02   5.2842083781e+01    0.2186681     0.182925  82.58 0.0008836427    1.280    0.219
        82  -8.8084     68.8605    102.8833   1.0426315294e+02   4.7093973876e+01    0.5050555    0.3150631 -41.23  0.002413943    1.889    0.471
        83 -10.4256     63.0593     95.7636   1.0465653868e+02   4.9589537327e+01    0.7199847      0.38901 -82.85  0.001654091    2.688    0.628
        84  -9.0047     63.8670     86.8783   1.0241416274e+02   5.1565199328e+01    0.7245324    0.4307818 -15.10  0.002583788    4.027    0.752
        85 -10.2572     65.7772    110.9318   1.0676056248e+02   4.5656937983e+01    0.7626964    0.4508692 -85.78  0.001090571    2.112    0.526
        86  -9.6140     59.1861    109.2352   1.0847866126e+02   4.6942592670e+01      0.38282    0.2413086 -77.52   0.00128728    1.618    0.382
        87  -9.2890    158.9690    110.8121   8.2139411472e+01   2.8423695369e+01    0.4810342    0.1968758 -36.27  0.001496628    2.577    0.612
        88  -8.1828    149.6776    110.3684   8.4080065123e+01   3.0478163446e+01    0.3107553    0.2142437  20.10 0.0009797983    1.885    0.470
        89  -8.7684     39.9547    107.1135   1.1418296568e+02   4.9723944045e+01    0.3552969     0.184385  85.35  0.001269413    2.345    0.574
        90 -10.8802     44.5485    102.0479   1.1191805060e+02   5.0427516674e+01    0.8742089    0.4228438  71.91   0.00278673    3.249    0.692
        91  -8.9653    244.7593    105.9964   6.6182316962e+01   1.1619759905e+01    0.1762102   0.09507399 -25.50 0.0005769781    1.624    0.384
        92  -9.7414    215.3871    104.2689   7.0049047958e+01   1.7521673105e+01     0.247213    0.2255625  -2.33 0.0001871023    1.033    0.032
        93  -8.4508     78.5242    105.0882   1.0173867443e+02   4.5123221296e+01    0.3691323    0.2582311 -13.15  0.001257239    2.424    0.587
        94  -9.4970     81.4793    100.2731   9.9785891168e+01   4.5753398542e+01    0.4265622    0.2890976 -88.07  0.001057137    1.932    0.482
        95  -8.2135     81.8096     94.7655   9.8404294572e+01   4.6956318466e+01    0.3476911    0.2366613  14.97  0.001557262    2.169    0.539
        96  -9.6130      6.1019    103.8586   1.2462965243e+02   5.3357418282e+01     0.453262    0.2891449  50.74  0.001608833    1.528    0.346
        97  -9.3211    150.5195     89.3850   7.8364308946e+01   3.4141222691e+01    0.6037681    0.3054541 -27.52   0.00222106    2.426    0.588
        98  -9.6865    149.4506    103.0721   8.2290753106e+01   3.1874912294e+01    0.4587609    0.2808619 -53.69 0.0009110786    1.929    0.482
        99  -8.6590    149.8587     96.9721   8.0593642740e+01   3.2907991902e+01    0.3558004    0.2342961 -10.26 0.0009904602    2.269    0.559
       100  -8.9794    158.9259    101.2689   7.9729445439e+01   3.0128268999e+01    0.2973546    0.1964005 -52.96 0.0005130879    1.762    0.433
       101  -8.0674    219.9642    100.8165   6.8507588342e+01   1.7064196295e+01    0.2086886    0.1665131  11.64 0.0004805683    1.261    0.207
       102  -9.4835     94.2650     97.2280   9.5207218155e+01   4.4248611261e+01     0.340757    0.2890186 -84.99 0.0005627389    1.271    0.213
       103  -8.6419     95.9788     91.0390   9.3121401137e+01   4.5301972539e+01    0.4725894    0.2804678 -25.23  0.001789115    2.893    0.654
       104  -7.5861    171.0341     96.2477   7.5892602387e+01   2.8299335027e+01    0.1996196     0.189297  14.99 0.0004083854    1.026    0.026
       105  -8.5207    164.4742     94.4395   7.6745050396e+01   3.0082807953e+01    0.2992105    0.2173592 -57.03 0.0006242621    1.651    0.394
       106  -8.1213     73.7980    102.6227   1.0266882172e+02   4.6421002211e+01    0.2276807    0.1576231 -66.84 0.0005907828    1.419    0.295
       107  -9.3272    138.8487     92.7422   8.2009606187e+01   3.6136314743e+01    0.4560924    0.3255278 -66.09  0.001149249    1.821    0.451
       108  -9.1908    139.9328     75.5363   7.6737671778e+01   3.9099783084e+01    0.6027865    0.3543949 -55.46  0.001995897    2.119    0.528
       109  -7.9456    139.6325     87.5812   8.0375127286e+01   3.6939018813e+01    0.3594949    0.1699041  36.61  0.001276258    2.646    0.622
       110  -8.8878    140.3920     83.2478   7.8942146815e+01   3.7576844897e+01    0.4850727    0.3078859 -59.32  0.002028638    2.029    0.507
       111  -8.1939    140.5106     79.4962   7.7802566589e+01   3.8242251184e+01    0.3277617    0.2100356  54.07  0.001452749    1.601    0.375
       112  -7.3422    218.4745     93.5081   6.6941053982e+01   1.8357094101e+01    0.1372803    0.1235592 -12.79 1.714547e-05    1.020    0.019
       113  -8.3050    166.0723    104.3052   7.9002974770e+01   2.8029327760e+01    0.2619146    0.2021054 -44.28 0.0004956662    1.351    0.260
       114  -7.9169    157.7349     91.7762   7.7443515261e+01   3.2073244444e+01     0.201566    0.1713441 -64.20 0.0004913744    1.357    0.263
       115 -10.1678     85.3563     86.6498   9.5244491601e+01   4.8190953893e+01    0.4868748    0.3448176  88.91 0.0009033691    1.941    0.485
       116  -9.4836     87.2559     78.8388   9.2482365434e+01   4.9591790143e+01    0.5887457    0.3929834  10.88  0.001712328    2.519    0.603
       117  -9.8377    242.2090     88.1408   6.2355832732e+01   1.4270117380e+01    0.2862615    0.1929852   6.53 0.0009451137    1.675    0.403
       118  -9.6891    105.9012     70.7655   8.4238023667e+01   4.7641948915e+01    0.9088541    0.5963029 -23.11  0.003897608    2.003    0.501
       119  -9.1030    109.7880     63.9462   8.0852300145e+01   4.8160542391e+01    0.3474173    0.2710896 -51.97 0.0006296014    1.317    0.240
       120  -9.0376    110.8274     58.0894   7.8521905174e+01   4.9047120704e+01    0.4012295    0.3120534   2.05 0.0008642218    1.642    0.391
       121  -8.1793    103.4626     87.4532   8.9938479261e+01   4.4650940252e+01     0.236617    0.1425477 -48.69 0.0005942659    1.635    0.388
       122 -10.3743    103.9172     82.7938   8.8487824259e+01   4.5552420461e+01     0.532024    0.3301716 -54.14 0.0009463776    1.668    0.400
       123  -8.1418    163.4136     87.2494   7.4988223337e+01   3.1556075418e+01     0.208531    0.1357649 -45.53  0.000689528    1.602    0.376
       124 -10.4541     48.2521     82.7740   1.0700890413e+02   5.4607243616e+01     1.054361    0.4196238 -58.19  0.002612798    2.173    0.540
       125  -9.2230     87.5891     57.9341   8.5683984365e+01   5.3987213235e+01    0.5785329    0.2468861 -42.56  0.001898694    2.265    0.558
       126 -10.2946     89.5876     38.4394   7.7431451543e+01   5.7306277855e+01     1.078003    0.4748065  32.84  0.003469991    3.721    0.731
       127  -9.8315     94.7958     68.3591   8.6858884374e+01   5.0410488546e+01    0.5093772    0.2728938 -49.74 0.0007699003    1.854    0.461
       128  -9.3284     97.5617     58.3489   8.2584734769e+01   5.1881072149e+01    0.7824062    0.4859109 -14.05  0.002972981    2.763    0.638
       129 -10.6486     55.0925     70.9318   1.0160346336e+02   5.6530367271e+01    0.7499679    0.4700538 -87.31  0.001201368    2.287    0.563
       130 -10.3132     62.5446     60.8447   9.5780958660e+01   5.7759461729e+01     1.082418    0.3814144  30.29   0.00335284    4.027    0.752
       131 -10.0724     73.5364     57.2329   9.0405303721e+01   5.6742375481e+01     1.175456      0.39837 -42.22  0.002183304    3.041    0.671
       132 -10.4428     85.1289     48.0371   8.2849389498e+01   5.6447143291e+01    0.8118961    0.5261499  79.64  0.001038654    3.029    0.670
       133  -9.1688     80.0583     46.5396   8.4054265663e+01   5.7735725730e+01    0.4850242     0.254039 -36.25 0.0004755266    1.941    0.485
       134  -8.1885    170.6645     83.6041   7.2503659761e+01   3.0480650387e+01     0.253471    0.1710874 -52.50 0.0005928647    1.706    0.414
       135  -8.1876    157.8255     84.0160   7.5243382137e+01   3.3408404731e+01    0.2986475    0.1969821 -46.28 0.0007328864    1.582    0.368
       136  -8.0045    158.6733     79.6761   7.3805617115e+01   3.3955444968e+01    0.2475414    0.1859996  31.25 0.0008316886    1.463    0.316
       137  -8.8036    156.8473     76.5999   7.3280326992e+01   3.4912520139e+01    0.2952267    0.2339555 -73.14 0.0005872782    1.584    0.369
       138  -8.3834    149.8788     80.7311   7.6018852328e+01   3.5839559702e+01    0.2857834     0.208344 -47.21 0.0005819427    1.420    0.296
       139  -8.8515    119.0097     80.4871   8.3547369455e+01   4.2881349217e+01    0.3258882    0.2338475 -57.18 0.0007511461    1.529    0.346
       140  -8.1672    119.8235     76.1813   8.2018291154e+01   4.3557619927e+01    0.2777449    0.2228671 -20.09 0.0006805851    1.416    0.294
       141  -9.1036     74.1803     80.1300   9.7185357029e+01   5.1551810190e+01    0.4600555    0.2380797 -64.95  0.001250672    2.254    0.556
       142  -7.8130     75.3450     74.3189   9.5165813805e+01   5.2677840453e+01    0.2459631    0.1479772  26.06 0.0009689417    2.145    0.534
       143  -8.2983     68.6320     79.0829   9.8822058881e+01   5.2670342215e+01    0.3281761    0.1265789 -55.72  0.001237387    2.426    0.588
       144  -7.4054    174.2141     78.9101   7.0486056386e+01   3.0405568282e+01    0.1972692    0.1162515 -34.17  0.000728038    1.642    0.391
       145  -7.9604    166.4177     78.7394   7.1948816894e+01   3.2278966323e+01    0.2733347    0.1382618 -37.54 0.0007469283    1.917    0.478
       146  -7.6232    174.6577     88.7160   7.3148188765e+01   2.8721366608e+01    0.1525083    0.1112655  19.60 0.0002593473    1.637    0.389
       147  -7.9401    184.1639     78.0948   6.8437962037e+01   2.8190400109e+01     0.227803    0.1909897  14.33 0.0007891433    1.281    0.220
       148  -8.4348    130.5550     63.8184   7.5255563587e+01   4.3426773073e+01    0.4681609    0.2568383 -33.85  0.001714502    1.846    0.458
       149  -8.6155    129.9280     58.0739   7.3459182925e+01   4.4590454682e+01    0.3247383    0.2121739 -47.86 0.0006887508    1.605    0.377
       150  -9.5143    127.3591     75.0823   7.9694818789e+01   4.2084852826e+01    0.4461614    0.2785102 -54.63 0.0007189038    1.842    0.457
       151  -9.0794    129.2532     69.0165   7.7288606111e+01   4.2787356043e+01    0.6849402    0.3200211  31.40  0.002044772    3.981    0.749
       152  -9.9118     81.6512     72.4097   9.2441481291e+01   5.2015981080e+01    0.4610521    0.3240043 -73.62  0.001022863    1.780    0.438
       153  -9.1021     83.3621     64.6996   8.9430685201e+01   5.3379061698e+01    0.5123907    0.3423043 -13.29  0.002138947    2.452    0.592
       154  -9.0303    115.0228     72.8326   8.2284675499e+01   4.5271205851e+01    0.4105088    0.2974032 -35.40  0.000954992    1.405    0.288
       155 -10.5276    118.5379     66.0318   7.9109375479e+01   4.5807810365e+01    0.5025662     0.324328  44.60  0.002253715    1.584    0.369
       156  -8.2844    122.0141     61.4798   7.6643771653e+01   4.5857760201e+01    0.3572043    0.2289532  27.67 0.0009351988    2.065    0.516
       157  -8.1168    162.8528     73.1239   7.1002459375e+01   3.4053838431e+01    0.2319954    0.1970491 -60.74 0.0006797372    1.307    0.235
       158  -7.4870    175.4905     72.4975   6.8390428945e+01   3.1110216405e+01    0.1490089    0.1414354 -48.30 -7.893149e-05    1.088    0.081
       159  -9.3653    146.9981     69.3191   7.3181656645e+01   3.8520935587e+01    0.4541236    0.2713687 -54.12 0.0008916354    2.028    0.507
       160  -7.8960    147.4065     63.7850   7.1323728968e+01   3.9361555599e+01    0.2732287    0.1785479  34.73   0.00117664    1.762    0.432
       161  -7.7292    169.4428     71.2858   6.9162734762e+01   3.2758334177e+01    0.2064664    0.1363879 -42.24 0.0004322278    1.515    0.340
       162  -8.2538    156.4197     70.1813   7.1422763824e+01   3.6095422980e+01    0.2169892    0.1356136 -45.02 0.0006899122    1.646    0.393
       163  -9.2969    138.1077     65.3386   7.3935978773e+01   4.1353454701e+01    0.5829157     0.274987 -28.85  0.001330758    2.402    0.584
       164  -7.8107     75.6112     66.7203   9.2784610938e+01   5.4325002255e+01    0.2062756    0.1312323 -60.34 0.0009455546    1.654    0.395
       165  -7.8169    171.1461     65.1202   6.6983914658e+01   3.3303925188e+01    0.2060938     0.172339 -55.71  0.000459603    1.286    0.222
       166  -7.9500    157.5335     62.9636   6.8934343446e+01   3.7000972217e+01    0.2312215    0.1457568 -34.04 0.0005191401    1.547    0.353
       167  -7.9525    164.4364     60.7033   6.6868026802e+01   3.5642024789e+01    0.2010579    0.1461851 -17.53 0.0006249305    1.480    0.324
       168  -8.4310     10.2053     60.6892   1.1793375515e+02   6.3398718170e+01    0.2675605    0.1563831  66.21  0.001409685    1.992    0.498
       169  -7.3577    152.5746     60.5619   6.9177122975e+01   3.8616084084e+01    0.1495341    0.1460683 -40.34 0.0001445461    1.026    0.026
       170  -8.5153    146.6663     59.0246   6.9923386147e+01   4.0331881495e+01    0.2559089    0.2272736  57.19   0.00053554    1.145    0.127
       171  -8.9898    147.3623     53.7873   6.8016058409e+01   4.0999942653e+01    0.6029915    0.2579506 -22.85  0.001978196    3.023    0.669
       172  -9.0332    138.9915     56.8525   7.0894603728e+01   4.2588299657e+01    0.4276144    0.2303247 -46.58 0.0006421104    1.983    0.496
       173  -9.4294    141.5639     49.2466   6.7683531711e+01   4.3174217032e+01    0.7523416    0.3867001 -18.97  0.001903288    2.511    0.602
       174  -8.9149    213.9806     55.8210   5.7674036388e+01   2.4304269177e+01    0.3385015    0.1977017 -22.00  0.001298773    1.650    0.394
       175  -9.3165    118.3635     54.5464   7.5175084043e+01   4.7962115716e+01    0.5882323    0.3687135 -33.13  0.001439663    1.604    0.376
       176  -9.0095    121.1554     47.1142   7.1709311503e+01   4.8577534045e+01    0.3860711    0.2360586 -39.88 0.0005032665    1.611    0.379
       177  -8.9185     43.9476     53.8894   1.0126658324e+02   6.1917711151e+01    0.2656512    0.1868144 -54.08 0.0007575343    1.254    0.202
       178 -10.2385     49.7747     53.8308   9.8729472997e+01   6.1177844658e+01    0.6578114    0.4041494 -74.25  0.002188021    2.109    0.526
       179  -9.6881     56.0776     43.5805   9.2386629916e+01   6.2508617138e+01    0.8244163    0.4706891 -10.84   0.00273934    4.518    0.779
       180  -9.2861    162.8754     53.5572   6.4872535038e+01   3.7115329262e+01    0.4747114    0.2488597 -29.44  0.001387629    1.878    0.468
       181  -8.8350     39.9397     52.4152   1.0258929222e+02   6.2736862521e+01    0.4472021    0.1536792 -54.28  0.001770657    2.410    0.585
       182  -9.7479    130.6327     46.2035   6.9049662008e+01   4.6397168287e+01     1.056577    0.4545908 -19.00  0.002037006    3.921    0.745
       183  -8.7449    132.9690     36.0225   6.4691530318e+01   4.7350271413e+01    0.3382077    0.2145631 -32.08 0.0004327212    1.548    0.354
       184 -10.8630    134.0634     30.9188   6.2486445079e+01   4.7780908307e+01    0.4035455    0.3009767   0.62  0.001908014    1.565    0.361
       185  -8.7388    157.3143     49.0633   6.4429514021e+01   3.9194873375e+01    0.3230453     0.178647 -38.25  0.001038391    1.753    0.429
       186  -9.6679    149.8310     46.9294   6.5155343524e+01   4.1425474394e+01    0.5603814    0.2110802 -31.11  0.001600668    2.567    0.610
       187  -8.6962    153.2475     40.8733   6.2383725066e+01   4.1419066917e+01    0.3143636    0.2474738 -42.53 0.0007405237    1.269    0.212
       188  -7.3717    188.0392     47.4983   5.8804259184e+01   3.1611036431e+01    0.1980046    0.1447092  62.47 -0.0002228751    1.420    0.296
       189  -8.5610    111.8788     46.8157   7.4063051936e+01   5.0837606683e+01    0.2766868    0.2060243 -44.98 0.0003839509    1.358    0.264
       190  -8.6687    113.9030     41.8756   7.1589917915e+01   5.1190248678e+01    0.5934244    0.3185085 -10.74  0.001951161    3.447    0.710
       191  -8.8956    105.5565     51.9590   7.7817980005e+01   5.1367982814e+01    0.6126062    0.2950505 -35.24  0.001994707    2.100    0.524
       192 -10.2202    128.9440    238.0817   1.0901921493e+02   1.3065058109e+01     0.177237    0.1477211  40.86 0.0002867446    1.132    0.117
       193  -9.9898    188.0820    234.1612   9.8440106412e+01   5.4994298598e+00    0.2634307    0.1923715  12.50  0.001869001    1.274    0.215
       194  -7.8341    244.0302    227.7229   8.8819856359e+01  -1.2049143346e+00     0.130079   0.06884579  32.65 0.0005237514    1.484    0.326
       195  -9.9486     69.4159     42.4232   8.6415949684e+01   6.0528530234e+01    0.8440726    0.3666696 -52.76  0.002555914    2.614    0.617
       196 -10.2329     76.2402     32.1046   7.9338015530e+01   6.1181043070e+01     0.715801    0.4452111  53.52  0.001980594    1.812    0.448
       197  -9.8043     79.1920     24.2037   7.4531702239e+01   6.1905834918e+01    0.6141334    0.3250649  29.69  0.001923633    2.599    0.615
       198  -9.0020     84.7030     21.9406   7.1530128874e+01   6.1069937666e+01    0.2817236    0.2371179 -31.64 0.0007157816    1.161    0.139
       199  -9.9840     37.9476     42.2314   1.0018641832e+02   6.5267507377e+01    0.3943274    0.2818358 -89.01  0.001370027    1.938    0.484
       200 -10.5613     35.9094     37.9803   9.9657170312e+01   6.6442606794e+01    0.5880706    0.3545106 -17.36 0.0003630476    2.437    0.590
       201  -8.0709    110.4024     26.2026   6.6004578896e+01   5.4434276982e+01    0.3063189    0.2256826  47.75   0.00135693    1.341    0.254
       202  -9.2285    110.1630     32.7771   6.8882903992e+01   5.3530583601e+01    0.4824127     0.238406 -39.94  0.001371117    2.012    0.503
       203  -9.1335    105.0293     41.3957   7.3869144453e+01   5.3357431908e+01    0.3997915    0.2599007 -56.92 0.0007871771    1.916    0.478
       204  -8.7388    105.9379     36.5162   7.1608682485e+01   5.3953000377e+01    0.3609503     0.232437  28.39 0.0009549751    1.928    0.481
       205  -8.3012    122.7303     40.7065   6.8868936198e+01   4.9228016012e+01    0.4304656    0.2341619  21.48  0.001385438    3.587    0.721
       206  -8.6317    139.6011     40.0742   6.4797125454e+01   4.5061261924e+01    0.4673499    0.2465011 -30.04  0.001620307    1.871    0.466
       207  -8.7237     40.9277     21.0380   8.9700361778e+01   6.9279299975e+01    0.2760902    0.1815461 -33.47 0.0004518951    1.419    0.295
       208  -9.1704     54.1959     36.6096   9.0407437685e+01   6.4241060100e+01    0.6513605    0.2346531 -39.12  0.002333608    2.993    0.666
       209  -8.0524    130.9609    223.7532   1.0718196989e+02   1.4701736883e+01    0.1584181    0.1138392  40.11 0.0004415293    1.064    0.060
       210  -7.9780      1.3682    223.1312   1.3106527662e+02   2.9721753877e+01    0.1363754   0.06274516  72.76 0.0009338905    1.760    0.432
       211  -8.2673    239.1208    211.1269   8.7092105546e+01   9.0387513837e-01    0.1558089    0.1159033  15.10  0.000375552    1.062    0.059
       212 -10.0408     10.1988    207.3806   1.2901593998e+02   3.1612437730e+01    0.4905729    0.2671756  26.77  0.003258478    2.043    0.510
       213  -9.1532    192.1339    194.6275   9.2172851259e+01   9.4589942866e+00     0.545696    0.3108174 -59.95  0.002185465    5.528    0.819
       214  -8.8937    144.0708     36.5418   6.2588358247e+01   4.4408363014e+01    0.2852022    0.2146275 -34.41 0.0006454669    1.308    0.236
       215  -8.7761    118.9469     34.9286   6.7514532023e+01   5.1052023388e+01    0.3300089    0.1985398 -38.46 0.0006146936    1.643    0.391
       216  -9.2072    237.7590    193.5601   8.4499440352e+01   2.7989517734e+00    0.2153526    0.2050184 -26.31  0.001085578    1.713    0.416
       217  -8.3193     41.8951     28.2059   9.2619008551e+01   6.7739638736e+01    0.2436817    0.1645293 -34.72 0.0003330337    1.400    0.286
       218 -10.0513    151.3367     26.8619   5.7695183083e+01   4.3761760061e+01     0.640183    0.2943871 -43.15  0.002445004    2.242    0.554
       219  -9.0703     91.4376     26.1959   7.1387315780e+01   5.8922887916e+01    0.4204339    0.2322053 -48.66  0.001468563    2.127    0.530
       220  -8.8035     92.2090     20.9798   6.8682508447e+01   5.9518481168e+01    0.3779933    0.2624726  30.23  0.001187351    1.574    0.365
       221  -9.0691    128.2888     25.7471   6.1642151804e+01   4.9965420402e+01    0.3437322    0.2870334  77.93  0.001132618    1.285    0.222
       222  -7.4284    150.2082    189.9636   9.9247099689e+01   1.6716826286e+01    0.1337843   0.09968425 -45.34 0.0003391806    1.610    0.379
       223  -9.0891    225.5570    188.1120   8.5497696712e+01   5.1376629113e+00    0.2451631    0.1551343  39.36 0.0003380709    1.509    0.337
       224  -9.0089    226.5436    183.6722   8.4583402600e+01   5.4787336157e+00    0.2103792    0.1629397  14.80 0.0006631175    1.014    0.014
       225  -7.9367      7.0390    181.0276   1.2871165953e+02   3.6695825509e+01    0.1383411    0.1235984 -46.40 0.0008431143    1.642    0.391
       226  -9.0753    226.8951    178.5061   8.3627063124e+01   6.0022460317e+00    0.2095401    0.1589405   2.90 0.0003852872    1.126    0.112
       227  -8.4740    147.4412    177.1264   9.7851510620e+01   1.9160392014e+01    0.2100185    0.1503414  38.11 0.0002384941    1.200    0.167
       228 -10.2567    194.7952    175.4142   8.8508119816e+01   1.1499142818e+01    0.2274852    0.1894774  34.32 0.0004692799    1.179    0.152
       229  -9.0369     80.6073    175.8650   1.1211050382e+02   2.9665094314e+01    0.2041803    0.1662715  44.53 0.0003672945    1.132    0.117
       230  -8.9294    144.1475     25.8569   5.8580869652e+01   4.5791106355e+01    0.2281101     0.195059 -58.92 0.0005083684    1.235    0.190
       231  -8.7590    153.3884     34.5559   6.0123404623e+01   4.2241234468e+01    0.2685561    0.2385941 -39.19 0.0007742431    1.116    0.104
       232  -7.5698      7.3063    171.3817   1.2827044672e+02   3.8552814716e+01    0.1014712   0.07506891 -54.90 0.0001161872    1.789    0.441
       233  -8.3794    230.3476    168.8073   8.1330751845e+01   6.5696671266e+00    0.2301894   0.09517027 -37.03  0.001101723    2.698    0.629
       234  -8.3799    111.6266     20.9999   6.3408807525e+01   5.4834091390e+01     0.458313    0.1623684 -27.86  0.001586461    2.764    0.638
       235  -8.6572     80.4740    160.2458   1.1027989215e+02   3.2765677797e+01    0.2029336    0.1789989  31.81 0.0004477346    1.262    0.207
       236  -8.8127    214.9700    158.7983   8.1948383070e+01   1.0280686483e+01     0.189121    0.1564012  -5.28 0.0003163155    1.113    0.102
       237  -8.0368    200.7533    157.4290   8.4134449951e+01   1.2905094009e+01    0.2128822    0.1461171 -54.75   0.00088489    2.289    0.563
       238  -9.4637    181.0127    155.3119   8.7358281722e+01   1.6720915813e+01    0.2435774    0.1760851 -29.16 0.0008049498    1.461    0.315
       239  -7.3273    143.0061    154.0576   9.4878794940e+01   2.3808541457e+01    0.1519649    0.1386366  36.10 0.0009325067    1.010    0.010
       240  -8.5719    133.3249    144.4764   9.5254526187e+01   2.7297485653e+01    0.3066998    0.1322637 -53.26  0.001230302    2.728    0.633
       241  -8.7580    154.7257     16.6638   5.3402517175e+01   4.4026919084e+01    0.3544399     0.147035 -37.54  0.001336281    2.295    0.564
       242  -8.4452     95.8276     16.8003   6.5601710196e+01   5.9243023342e+01     0.251726    0.1977366 -26.29 0.0003340059    1.252    0.201
       243  -8.8550    241.8152    146.6457   7.5305710359e+01   7.2903057967e+00    0.1850386    0.1510941  56.38 0.0006562001    1.736    0.424
       244  -9.4553    238.2805    145.9979   7.5705311519e+01   7.9456373565e+00    0.2510408    0.1640223   2.32  0.001450169    1.523    0.343
       245  -9.2753     66.7934    144.2711   1.1162500040e+02   3.7993814966e+01    0.4738051    0.2643636  60.68  0.002266443    1.893    0.472
       246  -8.5524    112.3125    133.8227   9.8238035140e+01   3.3160665243e+01    0.3102467    0.2160066  76.51  0.001074306    1.924    0.480
       247  -7.7771    233.3766    133.7839   7.3928514093e+01   1.0252845549e+01    0.1683794    0.1065581 -15.00 0.0001802574    1.502    0.334
       248  -9.3198    135.6876    132.6493   9.2363774546e+01   2.9093867129e+01    0.5640393    0.2014683 -43.74  0.002057605    3.010    0.668
       249  -9.4363    132.5070    131.9921   9.2971407159e+01   2.9824314648e+01     0.293974    0.2267154  80.32  0.001121034    1.700    0.412
       250  -7.2266      7.2678    133.3555   1.2637299482e+02   4.6546020724e+01    0.1121612   0.07636787 -58.26  0.000437929    1.633    0.388
       251  -7.9281    142.6841    131.6019   9.0536415828e+01   2.7945858914e+01    0.3425155    0.2171291  72.29  0.001400637    2.728    0.633
       252  -8.5452     82.2589    131.0249   1.0555185888e+02   3.8701208530e+01    0.3385547    0.2166219  88.85  0.001621191    1.990    0.497
       253 -10.1546     71.1581    125.7013   1.0772852775e+02   4.1514115515e+01    0.5591968    0.3359976 -85.81  0.001404772    2.017    0.504
       254  -7.3601    160.3348     39.1658   6.0516639505e+01   3.9809799003e+01     0.223491    0.1258732 -37.43 0.0009368394    1.712    0.416
       255  -9.8462     66.9893    128.4844   1.0933528136e+02   4.1463784594e+01    0.4875043    0.3505821 -33.86  0.002589097    1.910    0.476
       256  -9.7465     98.5760    128.6171   1.0076941262e+02   3.6618061553e+01    0.5911843    0.3332849  66.48  0.002312831    2.636    0.621
       257  -7.8068    160.7132    128.9682   8.6006284774e+01   2.4864314190e+01    0.1988289    0.1871834 -20.08  0.001172146    1.092    0.084
       258 -10.1672    117.3606    123.9339   9.4979236523e+01   3.4276353134e+01    0.9682474    0.5240353 -49.33  0.003245162    1.916    0.478
       259 -10.1317    139.7657    103.5425   8.4662017283e+01   3.3870322677e+01    0.8927488    0.3976894 -43.43  0.002080057    2.278    0.561
       260 -10.1484    140.6536    118.7126   8.8148473636e+01   3.0779097956e+01    0.5895039    0.3443032 -49.62  0.001360445    1.845    0.458
       261 -10.5160    131.8338    119.9136   9.0518768439e+01   3.2310055980e+01    0.8823016    0.5392054  78.59  0.003105619    3.658    0.727
