#   1 NUMBER                 Running object number                                     
#   2 MAG_AUTO               Kron-like elliptical aperture magnitude                    [mag]
#   3 X_IMAGE                Object position along x                                    [pixel]
#   4 Y_IMAGE                Object position along y                                    [pixel]
#   5 X_WORLD                Barycenter position along world x axis                     [deg]
#   6 Y_WORLD                Barycenter position along world y axis                     [deg]
#   7 A_WORLD                Profile RMS along major axis (world units)                 [deg]
#   8 B_WORLD                Profile RMS along minor axis (world units)                 [deg]
#   9 THETA_WORLD            Position angle (CCW/world-x)                               [deg]
#  10 FWHM_WORLD             FWHM assuming a gaussian core                              [deg]
#  11 ELONGATION             A_IMAGE/B_IMAGE                                           
#  12 ELLIPTICITY            1 - B_IMAGE/A_IMAGE                                       
         1 -14.2267    167.0827     44.6334   7.3261478414e+01   3.8046615904e+01     1.233509      1.09805  -3.26  0.004143188    1.374    0.272
         2 -14.3771    184.6038     11.4727   6.2033762489e+01   3.7745813132e+01     2.020878     1.116645  70.05  0.007491434    1.536    0.349
         3 -10.2974    125.1098    244.7980   1.2690155563e+02   6.2408167984e+00    0.1635772    0.1420926  65.07 0.0003243031    1.073    0.068
         4 -19.8506     64.7501    166.9340   1.2933483133e+02   3.3065512888e+01     20.01105     5.225588 -63.85   0.06403561    3.624    0.724
         5 -10.0409    162.7759    233.4064   1.1767296393e+02   1.8115816406e+00    0.1879556    0.1164058  32.65 0.0003020205    1.573    0.364
         6  -9.8738    141.2086    228.9527   1.2142524081e+02   6.4595034077e+00    0.2665808    0.1731352 -56.33  0.001184805    1.727    0.421
         7  -9.2023    126.4595    227.4948   1.2428201748e+02   9.3375396475e+00    0.2104993    0.1699301 -28.63 0.0008322351    1.693    0.409
         8  -8.9376    127.5309    224.4996   1.2362616770e+02   9.7504809158e+00    0.1824111    0.1312698 -71.53 0.0001487169    1.567    0.362
         9 -12.2378     22.4201    220.8878   1.4438999554e+02   2.5868002840e+01    0.2305269    0.1437913 -73.09 0.0009288405    1.443    0.307
        10  -9.9608    163.0719    250.3321   1.2016148685e+02  -1.1511715412e+00    0.1855936    0.1422311  41.90 0.0004808672    1.109    0.098
        11  -8.4215     23.5047    215.4666   1.4377153058e+02   2.6903750259e+01     0.116223   0.09372113 -86.92 0.0002079492    1.178    0.151
        12 -10.4719    206.0000    207.9537   1.0449380204e+02  -1.3654151023e+00    0.2189703   0.07640676 -42.40 0.0008028047    2.945    0.660
        13 -10.4957    106.1150    206.3290   1.2558153240e+02   1.7323530753e+01    0.3193415    0.2695273 -49.61  0.001810997    1.369    0.269
        14 -11.2816    103.6915    202.1068   1.2549404566e+02   1.8679386124e+01    0.2904188    0.2824696  30.26 0.0007363159    1.253    0.202
        15 -11.7322     11.5833    205.9146   1.4529864616e+02   3.0203768149e+01    0.2607285    0.2099323  53.47  0.001155359    1.368    0.269
        16 -10.0598    121.0778    197.4399   1.2083683047e+02   1.6664757950e+01    0.1971849    0.1859231 -69.82 0.0002540977    1.123    0.110
        17  -9.8723    112.7063    196.1897   1.2253759049e+02   1.8449815173e+01    0.4345507    0.2965787  -3.13  0.001643122    3.269    0.694
        18 -10.8147    103.5094    195.6141   1.2454602098e+02   2.0184613204e+01    0.3615424    0.2701312  83.51  0.001211248    1.417    0.294
        19 -11.1582    169.7748    195.1442   1.0956696072e+02   7.8680572590e+00    0.2902039    0.2018508 -61.50 0.0009333455    1.711    0.416
        20  -9.5734    151.7379    196.0288   1.1368902179e+02   1.1192364875e+01    0.3056006    0.1738186  41.51 0.0008299557    1.681    0.405
        21 -11.0454    159.1777    194.8108   1.1181772183e+02   1.0003976171e+01    0.2531965    0.2421272  66.69 0.0007094337    1.050    0.048
        22 -10.7793    153.0995    191.9226   1.1262573526e+02   1.1802990945e+01    0.2963081     0.250739  81.93  0.001202336    1.333    0.250
        23 -10.1164    149.3120    187.9350   1.1272665667e+02   1.3407728021e+01    0.3038507    0.2188376  51.42  0.001464628    1.367    0.268
        24 -11.9398    175.5032    187.0016   1.0674485033e+02   8.4081833028e+00    0.4400492    0.2857801 -56.43  0.002000405    1.747    0.428
        25 -10.9861    164.5552    187.1945   1.0917432542e+02   1.0546672836e+01    0.2863627    0.2305601  75.99  0.001423038    1.498    0.332
        26 -10.7580    155.0724    187.2392   1.1129519693e+02   1.2421413128e+01    0.2752938    0.2198513 -62.62 0.0006342516    1.349    0.258
        27 -10.1318    125.2555    239.2897   1.2615211294e+02   7.2490240103e+00    0.3592467    0.1368684 -54.23  0.001503825    2.936    0.659
        28 -10.0155    107.7217    183.8215   1.2164875374e+02   2.2186095794e+01    0.3271951    0.2012035  38.47  0.001078483    1.679    0.404
        29 -10.8419    150.7127    182.4273   1.1134998888e+02   1.4337511325e+01    0.2872463    0.2375223 -88.07 0.0005314036    1.396    0.284
        30  -8.0175    134.8101    242.9861   1.2472993724e+02   4.9350184682e+00    0.3218949    0.1512112 -45.47 0.0009424322    2.661    0.624
        31 -12.9863    137.6645    171.5038   1.1222739680e+02   1.9406088633e+01    0.8111141    0.6059424  66.06  0.003822755    1.494    0.331
        32 -11.5264    146.8958    178.1909   1.1139471029e+02   1.6041336400e+01    0.7372573    0.3899724  30.25  0.002762587    2.461    0.594
        33 -10.2595    185.2360    170.0777   1.0116596872e+02   9.9377381184e+00    0.4815852    0.2812814 -62.91  0.001857686    2.463    0.594
        34 -10.8543    189.4945    178.5253   1.0204194060e+02   7.3413781508e+00    0.4665304    0.3363627  83.30  0.001955996    2.237    0.553
        35 -10.1935    188.6904    175.3382   1.0154671064e+02   8.1499717139e+00    0.2912489    0.2286364  59.70 0.0008809265    1.436    0.304
        36 -10.6938    170.3456    178.6846   1.0619463511e+02   1.1183323575e+01    0.4735731    0.2523189  62.06  0.001657723    2.963    0.662
        37 -10.4756      3.6723    179.2451   1.4476871812e+02   3.6827634410e+01    0.2148995    0.1481617  89.25 0.0007654873    1.125    0.111
        38 -11.0699    204.3047    174.9353   9.8252790614e+01   5.1090135604e+00    0.4223965    0.3391068 -54.66  0.001449687    1.357    0.263
        39 -10.9420    196.3839    175.1796   9.9912851126e+01   6.6332793349e+00    0.3782296    0.2958141  54.73  0.001704874    1.397    0.284
        40 -11.4496    125.1412    172.1337   1.1535123865e+02   2.1714091120e+01    0.4133269    0.2992383  59.18  0.000806184    1.444    0.307
        41  -9.4887     11.1196    174.3918   1.4276200492e+02   3.7290602332e+01    0.1467497    0.1203643 -86.18 0.0004271046    1.096    0.088
        42 -11.1146    230.3105    166.9402   9.1591208629e+01   1.6282739961e+00    0.4492835    0.1793423 -50.99  0.001557435    3.213    0.689
        43  -9.1151    138.6733    242.8766   1.2394209082e+02   4.2955445209e+00    0.1685664     0.117224 -75.98  0.000417846    1.853    0.460
        44 -12.1978    144.1395    173.0920   1.1101892136e+02   1.7744524158e+01    0.5926398    0.5145357 -15.02  0.002138683    1.400    0.286
        45 -11.3159    192.0963    163.9350   9.8396845623e+01   9.7868970485e+00    0.5840434    0.3408544 -58.83  0.001122025    2.181    0.542
        46 -11.5198    142.8488    165.8501   1.0984021709e+02   1.9659195216e+01    0.5315581    0.3216667  87.73  0.001702121    3.678    0.728
        47  -9.7393     24.5775    165.2180   1.3878985863e+02   3.8178846341e+01      0.18182    0.1518431 -60.26 0.0007633539    1.268    0.211
        48  -9.5889     13.3173    163.1474   1.4116560121e+02   3.9691834793e+01    0.1710121    0.1121318 -77.59 0.0003999468    1.199    0.166
        49 -11.4058    189.2804    155.1260   9.7041682789e+01   1.2205130717e+01    0.4652451    0.4450819 -40.11  0.001542943    1.023    0.023
        50 -14.1454    133.8815    145.8432   1.0768288871e+02   2.6149008347e+01      1.97577    0.8003874 -58.38  0.006126053    3.196    0.687
        51 -12.4339    144.1222    145.9596   1.0518676167e+02   2.3973215187e+01    0.8500673    0.4924779  66.35  0.003044475    2.622    0.619
        52 -10.5702    165.9551    154.1338   1.0191344024e+02   1.7436794828e+01    0.4124974    0.2809553  72.12  0.001639476    2.036    0.509
        53 -12.1305    141.9701    139.1409   1.0413000737e+02   2.5998307634e+01    0.5675969    0.3413175 -62.72  0.002231067    2.009    0.502
        54 -13.2500    135.8554    128.6213   1.0312510645e+02   2.9711853766e+01     2.076626    0.4048474 -50.78   0.00437945    6.510    0.846
        55  -9.5643    174.8259    149.0910   9.8784625735e+01   1.6612477113e+01    0.2406236    0.2092439 -78.70 0.0005717343    1.275    0.216
        56 -12.2985      6.0827    137.5320   1.4005857223e+02   4.6194871490e+01    0.4918567    0.3310268 -80.08  0.001845862    1.221    0.181
        57 -11.6292     13.0342    137.5282   1.3828223588e+02   4.5682315545e+01    0.3648229     0.235317  -4.68  0.001253012    2.404    0.584
        58 -12.4914      2.9333    127.3695   1.3962958837e+02   4.8736840901e+01    0.9849845    0.3353215 -70.65  0.004487887    2.279    0.561
        59 -12.5007      6.7492    120.0679   1.3762986826e+02   5.0151619607e+01    0.3622277    0.2832561 -53.50  0.001991986    1.178    0.151
        60  -9.8871    160.4471    240.3860   1.1921540860e+02   9.8462275392e-01    0.2453777    0.1314852 -48.73  0.001198875    2.148    0.534
        61 -10.7930    160.3076    127.5246   9.6935138752e+01   2.4552360978e+01    0.4524716    0.2737451 -50.44  0.001421999    1.666    0.400
        62 -11.3962    134.7252    111.4030   9.9029501551e+01   3.3786461078e+01    0.9293983    0.1475649 -44.89  0.002008867    6.216    0.839
        63 -12.2706      5.4934    112.0696   1.3683314536e+02   5.2039209837e+01    0.4881918    0.3267517 -23.28  0.003043211    1.846    0.458
        64  -9.7463    167.8105    112.8894   9.1553029979e+01   2.5940426180e+01    0.3031256    0.2092448  84.17  0.001226631    2.082    0.520
        65 -13.0726    116.6347    110.0405   1.0344012770e+02   3.7897007967e+01    0.8634644    0.3983692  44.64  0.003264029    2.224    0.550
        66 -10.9809     13.5923    239.7619   1.4722380584e+02   2.2963796584e+01    0.1311394   0.08456027 -85.47 0.0004599372    1.274    0.215
        67 -10.8028      7.0916    102.0954   1.3479699038e+02   5.4160555261e+01    0.2241954    0.1969264   0.87 0.0008556962    1.410    0.291
        68  -9.8326     28.3646    237.4159   1.4452642632e+02   2.1779958011e+01    0.1143226   0.08442672  79.56 0.0001819596    1.035    0.034
        69  -9.9278    205.1586    110.2447   8.3392873742e+01   1.7779375469e+01    0.3414511    0.2041905  50.81 0.0009853918    1.749    0.428
        70 -10.9129     21.8252    235.7398   1.4555543074e+02   2.2865223339e+01    0.1371807   0.08571564  88.60 0.0008887096    1.274    0.215
        71  -9.7760    146.2239     81.5928   8.7989644466e+01   3.7165431940e+01    0.2116629     0.137753  42.35 0.0004731746    1.584    0.369
        72 -10.3183     13.3537    236.0972   1.4703826072e+02   2.3718751444e+01   0.08809683   0.06149371  39.36 0.0003297944    1.721    0.419
        73 -13.6294    154.9869     59.1680   7.9638121815e+01   3.8869370249e+01     1.239487     1.061019  53.28 0.0009692769    1.117    0.105
        74  -9.6527    160.3518    247.4902   1.2028452723e+02  -2.1716469354e-01    0.2679729    0.1686119  25.34  0.001001223    1.796    0.443
        75 -12.3504    171.5258     36.8503   7.0399273850e+01   3.7991395371e+01    0.3908429    0.3598441  63.20 0.0008986532    1.103    0.094
        76  -9.9991     13.5329     60.0058   1.2367734711e+02   6.2470254949e+01    0.1687574      0.15881  24.42 0.0003933027    1.396    0.284
        77  -9.8373    131.1232    234.2063   1.2426654995e+02   7.2149526525e+00    0.1631318     0.127867 -72.33  0.000707549    1.430    0.301
