#   1 NUMBER                 Running object number                                     
#   2 MAG_AUTO               Kron-like elliptical aperture magnitude                    [mag]
#   3 X_IMAGE                Object position along x                                    [pixel]
#   4 Y_IMAGE                Object position along y                                    [pixel]
#   5 X_WORLD                Barycenter position along world x axis                     [deg]
#   6 Y_WORLD                Barycenter position along world y axis                     [deg]
#   7 A_WORLD                Profile RMS along major axis (world units)                 [deg]
#   8 B_WORLD                Profile RMS along minor axis (world units)                 [deg]
#   9 THETA_WORLD            Position angle (CCW/world-x)                               [deg]
#  10 FWHM_WORLD             FWHM assuming a gaussian core                              [deg]
#  11 ELONGATION             A_IMAGE/B_IMAGE                                           
#  12 ELLIPTICITY            1 - B_IMAGE/A_IMAGE                                       
         1 -11.9666      5.8559    140.1951   1.2956187315e+02   4.4773459964e+01     1.106106    0.3855928 -85.24  0.005514859    2.438    0.590
         2 -12.7051    160.7233     55.0957   7.1506626183e+01   3.7864899646e+01     1.798653     1.296267  17.40  0.005853935    1.737    0.424
         3 -12.6704    173.6638     40.3285   6.4129704991e+01   3.6731401213e+01     1.021842    0.9664199 -10.18  0.003411072    1.054    0.051
         4 -13.2042    191.7151      8.1290   5.0879659625e+01   3.5730730403e+01     1.208083      1.09694  41.12  0.004219948    1.145    0.127
         5 -10.9167    226.5951      2.8301   4.5880565780e+01   2.7210450895e+01    0.5971168    0.2398972  77.60  0.002361702    2.631    0.620
         6 -10.5084      3.9375    229.0646   1.3410849497e+02   2.8598604193e+01    0.1607421   0.09862672 -84.09 0.0008161345    1.535    0.348
         7 -11.8995    232.6557    250.0897   1.0002716113e+02  -4.2843307710e+00    0.1947491     0.116148  36.82 0.0004628896    1.245    0.197
         8 -10.0186    120.4897    249.0073   1.1726398743e+02   1.1955769447e+01    0.2822225    0.1597897  68.09  0.001297848    2.045    0.511
         9 -10.5531    118.5331    245.5086   1.1726574399e+02   1.2686941299e+01    0.3028305    0.1505148  49.41 0.0009005335    1.482    0.325
        10 -18.6317     48.8915    238.1110   1.2769327724e+02   2.2613559355e+01     4.013747     2.947814  57.72   0.01855768    1.182    0.154
        11  -9.4603    173.2898    188.7992   1.0090209661e+02   1.2067394769e+01     0.378248    0.2407589  16.70  0.001923205    2.264    0.558
        12  -9.6109    130.8210    214.7404   1.1210291138e+02   1.5227437136e+01    0.1984929    0.1583628  82.59 0.0006060039    1.388    0.280
        13 -10.2797    106.3568    206.8383   1.1558477208e+02   2.0155503328e+01    0.2558096    0.2255363 -56.20  0.001264107    1.472    0.320
        14 -10.5261    104.1592    203.0578   1.1558006915e+02   2.1103673100e+01    0.3859546    0.2380802  35.26  0.001607951    1.758    0.431
        15  -7.8145     10.2867    186.2808   1.3136383162e+02   3.5335490922e+01   0.08574265   0.06975456 -73.19 0.0003097688    1.521    0.342
        16  -8.9893    163.4002    203.6415   1.0491024525e+02   1.1611822530e+01    0.2451478    0.1745726  77.45 0.0008039738    2.058    0.514
        17  -9.0405    169.8809    183.1699   1.0062275893e+02   1.3514024982e+01    0.3779754    0.1751909  59.69  0.001448246    3.509    0.715
        18  -9.8933     42.5530    178.2821   1.2486976619e+02   3.3637827416e+01    0.2758859    0.2106119 -87.51  0.001726885    1.175    0.149
        19  -8.6386     39.1880    176.8694   1.2541046373e+02   3.4277255058e+01    0.1493755    0.1243448 -56.42 0.0002639611    1.647    0.393
        20  -9.1534    250.3024    178.1113   8.5903758444e+01   4.6741162814e-02    0.1984601    0.1534921 -34.31 0.0009070458    1.599    0.375
        21  -8.2553    199.1570    179.1870   9.4621315693e+01   8.8163407233e+00    0.1599067    0.1498659  67.58  0.001058895    1.338    0.253
        22  -7.9158      4.2441    176.3902   1.3196891426e+02   3.7703651033e+01   0.09482639   0.06329279 -67.45 0.0004782936    1.662    0.398
        23 -10.2095    138.2040    172.8830   1.0507073591e+02   2.0830780161e+01    0.3122179    0.2186033  75.83  0.001589955    1.790    0.441
        24  -9.4739    239.3379    173.1582   8.6703627514e+01   2.4576014290e+00    0.2931842    0.1590665  46.48 0.0004593254    1.829    0.453
        25 -10.6252    204.4372    200.1835   9.7249221701e+01   5.1571890719e+00    0.2426992    0.2025046 -17.24  0.001687162    1.336    0.252
        26 -10.6536    203.2655    167.2928   9.1702505236e+01   9.7249756462e+00    0.5511318     0.427249 -15.01  0.002954777    1.378    0.274
        27 -10.7908    194.2159    168.3485   9.3533964523e+01   1.1269351162e+01    0.3432972    0.3350547  80.92 0.0008080582    1.253    0.202
        28  -9.3815    191.0722    162.2050   9.2946074670e+01   1.2783649845e+01    0.3169902    0.2658921 -80.40  0.001243217    1.691    0.408
        29  -9.8711    190.3013    156.7960   9.2033128771e+01   1.3763560201e+01    0.4282591    0.3456748 -49.69  0.002468319    1.461    0.315
        30  -9.9772    158.1214    199.7990   1.0531293869e+02   1.3053072730e+01    0.3346815     0.231813  29.48  0.001323882    1.511    0.338
        31  -9.8039     11.0319    169.4951   1.3033732457e+02   3.8446561036e+01    0.2487557    0.1947611 -19.22  0.001556065    2.497    0.600
        32  -9.3863    239.8430    168.6733   8.5761614539e+01   2.9036179398e+00    0.2068381    0.1676589 -19.27 0.0005560261    1.264    0.209
        33 -10.2479     23.8629    166.7014   1.2766344640e+02   3.7826873402e+01    0.5661289    0.2636895  21.65  0.002812897    3.937    0.746
        34  -9.6060    229.8372    166.4466   8.6962692221e+01   4.9501023350e+00     0.209759    0.1434101 -18.23 0.0009141876    1.478    0.323
        35 -10.2323    110.3470    212.2904   1.1544595577e+02   1.8690756161e+01    0.2260686      0.16122  71.06 0.0007938375    1.351    0.260
        36  -8.7587    160.8588    164.8647   9.9225442826e+01   1.8105248015e+01    0.1860059    0.1683853  29.53  0.001155383    1.108    0.097
        37  -9.4730    120.0494    164.4761   1.0745763583e+02   2.5492564203e+01    0.2595328     0.186308  68.41 0.0008053823    1.449    0.310
        38  -9.2957    239.9790    163.7088   8.4767434648e+01   3.4800362900e+00    0.1773491    0.1416712  26.12 0.0003623362    1.111    0.100
        39  -8.8682    141.0555    198.6261   1.0826230563e+02   1.6067801189e+01    0.2029391    0.1581801 -88.83 0.0005829117    1.565    0.361
        40 -10.2932    207.9542    161.3250   8.9712077147e+01   9.6878947450e+00    0.2335048    0.1988378  33.77 0.0003858518    1.086    0.079
        41 -10.6265    188.0165    245.1745   1.0620732273e+02   2.6060177977e+00    0.2735023    0.1598371 -39.69   0.00116579    2.299    0.565
        42 -11.9743     29.7441    143.6472   1.2456831860e+02   4.1990681509e+01    0.5745507    0.4487436 -18.19  0.003779156    2.230    0.551
        43 -11.5505    104.6519    152.6604   1.0890875353e+02   3.0357566384e+01    0.7161036    0.5089222  29.28  0.002237035    1.759    0.432
        44 -12.1624     90.8331    152.6458   1.1195889157e+02   3.2523729390e+01    0.3605125    0.3198135   7.92 0.0009320962    1.609    0.378
        45  -8.8982    120.5216    157.1665   1.0619261756e+02   2.6810574450e+01    0.2303854    0.1643752  47.68 0.0006419435    1.303    0.233
        46 -10.2962    133.7151    145.9563   1.0137887442e+02   2.6623652187e+01     1.108375    0.2837482 -56.00  0.002775547    6.939    0.856
        47  -9.1742     15.9995    152.3021   1.2824555412e+02   4.1445644589e+01    0.1509845     0.115219  74.15 0.0004486907    1.097    0.088
        48  -9.5717    144.0068    146.7002   9.9308147918e+01   2.4542693726e+01    0.2531737    0.1935154 -81.53  0.001328243    1.640    0.390
        49  -8.0271      3.2545    158.3392   1.3122169082e+02   4.1283137069e+01   0.09727313   0.06573384 -66.61 0.0004136957    1.575    0.365
        50  -8.8541    227.1613    144.0097   8.2811765181e+01   8.4143228579e+00    0.1938943    0.1685658   9.09 0.0003175288    1.014    0.014
        51 -10.8556    102.7449    196.1574   1.1508464075e+02   2.2484692823e+01    0.3530766    0.2124555  63.89  0.002083767    1.610    0.379
        52 -10.7469    113.2850    138.6392   1.0458208293e+02   3.1770629413e+01     0.507457    0.2754266 -44.29  0.002329885    2.098    0.523
        53 -10.9436    103.1015    137.8559   1.0679465446e+02   3.3662657320e+01    0.2601895    0.2361223  72.96 0.0003968209    1.042    0.040
        54 -10.0965    100.8351    158.7001   1.1065909091e+02   2.9755706453e+01    0.2199426    0.1996252  85.12 0.0003145579    1.081    0.075
        55  -8.4399    109.1743    132.8973   1.0446930108e+02   3.3678218683e+01    0.1766273    0.1553325 -41.86 0.0003424873    1.298    0.230
        56  -9.9510    118.4373    129.5287   1.0163733724e+02   3.2739703462e+01    0.2616744    0.2400339  -8.94 0.0006376295    1.352    0.260
        57  -9.1231    160.1825    128.0598   9.1966878511e+01   2.4798471020e+01    0.2712768    0.2034918 -65.19  0.001339567    1.630    0.386
        58  -9.9708     23.3999    126.6302   1.2439587353e+02   4.6236327129e+01    0.3053344    0.1220801  43.05  0.001600362    2.457    0.593
        59  -9.8033    107.0239    125.3283   1.0351742834e+02   3.5653315111e+01    0.2650898    0.2413183 -29.87 0.0007175882    1.318    0.241
        60 -10.1072    135.0371    123.2738   9.6455951139e+01   3.0863889327e+01    0.4371088    0.1797274 -50.19  0.001652686    2.520    0.603
        61  -9.2785     91.8314    124.0800   1.0700601466e+02   3.8443977923e+01    0.2147151    0.1697336  81.88 0.0006687933    1.296    0.228
        62 -10.4740     35.9360    119.3250   1.2045428849e+02   4.6683186008e+01    0.2191371    0.2034848  20.61  0.001329616    1.463    0.316
        63  -8.9038    113.0246    118.9834   1.0074533214e+02   3.5941402597e+01    0.2114187    0.1978964 -83.55 0.0003989803    1.006    0.006
        64 -10.3831     66.4165    116.3669   1.1210919195e+02   4.3848781622e+01    0.2509069    0.2047033  80.83 0.0009883799    1.173    0.147
        65 -11.7099     24.4596    157.5921   1.2687712368e+02   3.9599047609e+01    0.4829792    0.3212799  53.73  0.001801963    1.384    0.277
        66  -9.0407    168.4066    113.9321   8.6893875487e+01   2.5637112255e+01    0.3675714    0.2578411 -78.28  0.001510896    2.265    0.559
        67 -11.1798     70.6893    112.7248   1.1033744331e+02   4.4094391494e+01    0.4345498    0.2281446 -62.49  0.002116199    1.712    0.416
        68 -11.9170     59.7035    109.2501   1.1266736250e+02   4.6314709350e+01    0.7918282    0.5335404   9.85  0.004055041    2.502    0.600
        69 -10.3958     88.5980    109.6684   1.0498535277e+02   4.2134484079e+01    0.3106927    0.2487192 -23.54  0.001048805    1.691    0.409
        70  -9.7071    134.3727    106.0115   9.2544627592e+01   3.4498681812e+01    0.3483509    0.1380062 -45.07  0.001257749    2.492    0.599
        71 -11.0101      9.9433    155.1294   1.2968661333e+02   4.1384860063e+01    0.7811902    0.3103306  55.90  0.004435562    2.191    0.544
        72  -8.3464    169.1219     96.1614   8.2134902568e+01   2.8713801670e+01    0.2146723    0.1934562  17.42 0.0003102946    1.167    0.143
        73  -7.6796    132.2769     95.2810   9.0267190815e+01   3.7116040552e+01     0.141679    0.1179523  -0.63 0.0006913375    1.504    0.335
        74  -8.0800    113.4817     95.4564   9.5073051908e+01   4.0873387482e+01    0.1447243    0.1367372 -67.98 4.764721e-05    1.019    0.018
        75  -9.3582    225.3753     88.9050   6.9928767945e+01   1.6723113600e+01    0.2313612    0.1954596  36.58 0.0002135333    1.215    0.177
        76 -13.9374     12.2481    245.1552   1.3343133555e+02   2.5360780830e+01    0.4293691    0.3609195 -53.02  0.003931246    2.285    0.562
        77  -7.9284    148.3425     81.2948   8.2475216352e+01   3.6292840006e+01    0.1567275    0.1200919  14.22   0.00042457    1.661    0.398
        78  -9.8414     26.6920    151.2451   1.2590189243e+02   4.0690948195e+01    0.2810549    0.1772642  77.05  0.001083736    1.322    0.244
        79  -9.6860    112.0726     76.7858   9.0235562648e+01   4.5050742100e+01    0.4549973    0.2677611  61.33  0.001285126    2.248    0.555
        80  -8.4245    152.1666    211.9082   1.0800925237e+02   1.2275217160e+01    0.1665914    0.1341704  63.14 0.0004545056    1.264    0.209
        81  -9.1048    250.1971    239.1367   9.5939321561e+01  -5.7964752824e+00    0.1542904    0.1018109  20.44 0.0003581441    1.144    0.126
        82 -11.7272    178.2634     32.5955   6.0776334055e+01   3.6550687441e+01     0.575819    0.4532472  27.26  0.001324627    1.396    0.283
        83 -10.3717    125.8379     55.4225   7.9612593380e+01   4.6223110264e+01    0.2643829    0.2334486 -29.51 0.0002776026    1.085    0.079
        84  -8.8683    221.2586     40.2518   5.7071057125e+01   2.4416645419e+01    0.3059414    0.1770272 -32.95  0.001287587    1.579    0.367
        85  -9.6977    167.9661    231.7498   1.0780244053e+02   7.1626071736e+00    0.1708619    0.1616734 -44.75 0.0004961238    1.390    0.280
