#   1 NUMBER                 Running object number                                     
#   2 MAG_AUTO               Kron-like elliptical aperture magnitude                    [mag]
#   3 X_IMAGE                Object position along x                                    [pixel]
#   4 Y_IMAGE                Object position along y                                    [pixel]
#   5 X_WORLD                Barycenter position along world x axis                     [deg]
#   6 Y_WORLD                Barycenter position along world y axis                     [deg]
#   7 A_WORLD                Profile RMS along major axis (world units)                 [deg]
#   8 B_WORLD                Profile RMS along minor axis (world units)                 [deg]
#   9 THETA_WORLD            Position angle (CCW/world-x)                               [deg]
#  10 FWHM_WORLD             FWHM assuming a gaussian core                              [deg]
#  11 ELONGATION             A_IMAGE/B_IMAGE                                           
#  12 ELLIPTICITY            1 - B_IMAGE/A_IMAGE                                       
         1  -9.6314     80.1038     12.4755   8.7667354171e+01   6.2673631971e+01    0.3567291    0.2250608 -46.48  0.001840491    2.090    0.521
         2  -8.0155    250.0000     11.4919   6.0176338288e+01   2.1724776150e+01    0.2612972   0.06687207 -28.40 0.0009101994    3.739    0.733
         3  -8.7392    105.6964      9.2948   7.9165378470e+01   5.7667745228e+01    0.2748055    0.1221118 -50.26 0.0006795824    3.987    0.749
         4  -8.0031     93.3309      9.7032   8.2511790151e+01   6.0311840847e+01    0.1228904    0.1024618 -64.78 0.0004551601    1.639    0.390
         5  -8.4445     72.7220      8.0793   8.7955962333e+01   6.4557304247e+01    0.2952285    0.1445851  -8.73 0.0007292118    2.633    0.620
         6  -8.9584     28.1380      8.7975   1.0669046204e+02   7.1133992977e+01    0.2164636    0.1189214 -41.60  0.001273128    1.724    0.420
         7  -8.9518     39.9870      7.2216   1.0027021114e+02   6.9896712784e+01    0.2866687    0.2233611  58.19  0.000851602    2.225    0.551
         8  -7.2512    137.4294      7.4732   7.1925667614e+01   5.0298131989e+01    0.1367068    0.1243069  48.07 8.317227e-05    1.025    0.025
         9 -10.1490     50.3511     11.6764   9.8084483165e+01   6.7848451173e+01    0.2729017    0.2444845 -50.93  0.001861744    1.616    0.381
        10  -9.4296     14.2259      3.6387   1.1127430207e+02   7.3300315236e+01    0.4221851    0.1772569 -33.24  0.002316998    1.989    0.497
        11  -7.6230     18.4896      2.5335   1.0836973173e+02   7.3054836862e+01    0.1134222   0.08366185 -17.65 8.925095e-05    1.032    0.031
        12  -8.1688     56.8786      5.8331   9.2487257409e+01   6.7561155254e+01    0.1677826    0.1445604 -48.64            0    1.655    0.396
        13 -10.3452     60.0914      2.8006   8.9698534650e+01   6.7366053409e+01    0.2655042    0.1871661  33.36 0.0002785297    1.320    0.242
        14  -7.5863    179.3092      5.3142   6.5182784527e+01   3.9779091601e+01    0.1411121   0.09670777  40.58 0.0005456127    1.629    0.386
        15  -7.3963    126.2644      5.6728   7.3280786819e+01   5.3204107137e+01    0.1310625    0.1000924 -57.54 0.0002472693    1.568    0.362
        16  -9.5009    105.7198      4.2028   7.6986422951e+01   5.8142065955e+01    0.2969647    0.1540829  48.68  0.001439663    1.693    0.409
        17  -8.7948     39.1415      2.1780   9.7936854017e+01   7.0653617149e+01    0.4271193    0.1541658  29.33  0.001796525    3.603    0.722
        18  -8.3547      3.6378      3.9595   1.1742302635e+02   7.4106292405e+01    0.1583257   0.08806368 -66.85 0.0004420239    4.539    0.780
        19  -8.1339    152.0999      3.4064   6.8139488875e+01   4.6960818213e+01    0.2826653    0.1131451  63.99  0.001150041    2.143    0.533
        20  -8.2723    115.7503      1.5218   7.3695783709e+01   5.6068026289e+01    0.2560672    0.1077491  56.99  0.001115084    2.023    0.506
        21  -8.2311     87.9607      1.4932   8.0209793508e+01   6.2225068253e+01    0.1869922    0.1159116  53.39 0.0005094018    1.531    0.347
        22  -7.8596     67.5189      1.5439   8.6429019516e+01   6.6193929349e+01    0.1224512    0.1040286  10.34 1.071749e-05    1.042    0.041
        23  -7.8929    206.4679    240.4810   1.1671379272e+02  -3.0101769002e+00     0.118038   0.09120125  27.31 0.0001691081    1.042    0.040
        24  -9.7734    248.9031    247.7877   1.1081173895e+02  -1.0066117302e+01    0.5005486    0.2404496 -15.17  0.002795608    2.610    0.617
        25  -9.4780    246.0372    243.6404   1.1063469206e+02  -9.2532179020e+00    0.2982384    0.1281933 -24.56  0.001622955    2.675    0.626
        26 -10.2727    238.2379    248.7900   1.1266515063e+02  -8.6765759568e+00    0.2679061    0.2198756 -32.67  0.001311053    1.665    0.399
        27  -9.3374    218.4756    249.2276   1.1595766930e+02  -5.8501845882e+00    0.3066848    0.1596179  25.94  0.001764057    1.824    0.452
        28  -9.9864    209.7760    250.1360   1.1753385462e+02  -4.6475584532e+00    0.4711571    0.1351708  44.68  0.002024988    3.061    0.673
        29  -8.1641    212.0076    246.6488   1.1666640039e+02  -4.5886507145e+00    0.1679495     0.119146  30.77 0.0006401313    1.091    0.083
        30  -9.6504    202.5282    248.9698   1.1858896028e+02  -3.4101617338e+00    0.3483945    0.1408239  31.41   0.00166124    2.477    0.596
        31  -9.7699    183.8329    249.3952   1.2182959872e+02  -5.6069399077e-01    0.2849177    0.1600611  30.68  0.000864813    1.646    0.392
        32  -8.6588    176.1255    250.1531   1.2325186682e+02   5.5221372506e-01    0.1584437    0.1175538  53.19  0.001076608    1.337    0.252
        33  -8.0416    168.6516    250.7074   1.2460921308e+02   1.6548616531e+00    0.1144006   0.07779074  22.34 0.0005149383    1.670    0.401
        34  -8.6208    152.9843    250.4993   1.2729445291e+02   4.1460349101e+00    0.1811987   0.09040239  42.17 0.0006138583    1.556    0.357
        35  -8.8167     57.6033    250.1249   1.4348070069e+02   1.7994802661e+01    0.1862151   0.09988368  53.57 0.0005430081    1.367    0.268
        36  -8.2904    201.5236    239.8306   1.1746755354e+02  -2.1541125746e+00     0.216859    0.1091606  26.07 0.0008986724    2.203    0.546
        37  -9.1398    186.8549    239.6696   1.1999127327e+02   2.0499991133e-01    0.1856099    0.1512225  -5.42  0.000635424    1.442    0.307
        38  -7.8307     85.3168    240.6393   1.3810740752e+02   1.5897720138e+01    0.1228363   0.06658888  67.17 0.0007042736    1.761    0.432
        39  -9.3520    248.7212    237.5060   1.0924887680e+02  -9.0016292768e+00     0.286654    0.1852219  -1.80  0.001906553    1.526    0.344
        40  -8.1582    248.7800    233.2132   1.0855495711e+02  -8.5590259329e+00    0.1568966    0.1044818  12.85 0.0004370859    1.309    0.236
        41  -9.1760    164.9701    246.1842   1.2468498493e+02   2.8431520977e+00    0.1746028    0.1565482  37.88 0.0003396721    1.152    0.132
        42  -7.6076    214.5043    239.4520   1.1519476254e+02  -4.1361484617e+00    0.1181984   0.08972235  24.73 9.122483e-05    1.062    0.059
        43  -7.9392     36.2263    239.0263   1.4628716075e+02   2.2448185395e+01    0.1281138   0.07174953 -83.23 0.0004986076    1.632    0.387
        44  -9.3707    171.0227    237.2817   1.2246076320e+02   3.0961067450e+00    0.2814067    0.1759488  64.31  0.001528385    2.211    0.548
        45  -8.8134    170.6349    233.1760   1.2197252774e+02   3.7404179152e+00    0.1904528    0.1472599 -13.22 0.0007934879    1.730    0.422
        46  -7.8461     78.0558    238.2569   1.3917007022e+02   1.7310707052e+01     0.143989   0.07937441  45.14 0.0005070136    1.521    0.343
        47  -8.0072    194.8575    236.8480   1.1819247362e+02  -7.1606570244e-01    0.1757365     0.135816  18.13  0.000513737    1.262    0.208
        48  -7.3903    209.3415    236.2954   1.1560383505e+02  -2.9528461058e+00    0.1208622   0.07679175  17.86 0.0005482011    1.660    0.398
        49 -10.2809    188.8122    232.7006   1.1865563485e+02   8.1069580944e-01    0.4630402    0.3016815 -43.92  0.002844229    1.906    0.475
        50  -8.6394    184.2106    234.9806   1.1979833924e+02   1.2565374872e+00    0.2132325    0.1581883   4.42 0.0009415909    1.672    0.402
        51  -8.5679    159.8653    235.5524   1.2423134756e+02   5.1707756408e+00    0.3124736    0.1632838  27.32  0.001494873    2.526    0.604
        52  -7.4284    136.0149    236.2227   1.2862545588e+02   8.9455897641e+00    0.1581388   0.08049934  43.51 0.0003945776    1.582    0.368
        53  -7.7725    244.2036    234.8540   1.0955638319e+02  -8.0743711419e+00    0.1576308    0.1055404  12.65  0.000486697    1.324    0.245
        54  -8.0381    232.8048    234.7793   1.1141253836e+02  -6.3860168171e+00     0.197681    0.1028558  11.24 0.0009518357    2.798    0.643
        55  -7.3253    216.5228    235.4880   1.1425538949e+02  -3.9796730428e+00    0.1187656   0.09180175  23.96 6.821055e-05    1.043    0.041
        56  -7.8689    204.4296    234.7115   1.1621404577e+02  -1.9782624109e+00    0.1437307     0.106595 -11.83 0.0009339633    1.553    0.356
        57  -8.0028    178.9885    234.9891   1.2072736943e+02   2.1102774724e+00    0.1835035    0.1302026  14.59 0.0007052478    1.699    0.411
        58  -7.7976    108.2554    233.3838   1.3334434193e+02   1.3760353041e+01    0.1669007   0.08741044  50.71 0.0003760293    1.530    0.347
        59  -7.8068     99.7077    233.6884   1.3492048577e+02   1.4995790482e+01    0.0993817   0.09113338  19.56  0.000686841    1.589    0.371
        60  -7.2494     91.4968    233.5462   1.3638249460e+02   1.6225396555e+01    0.1172631   0.09050313  61.35 0.0008087578    1.022    0.022
        61  -7.5458    153.5339    232.4644   1.2497679736e+02   6.6722957638e+00    0.1218952    0.0991312  41.77 6.160709e-05    1.066    0.062
        62  -7.6390    213.5077    231.4402   1.1415045608e+02  -3.0158726440e+00    0.1206146   0.09335935  24.27 0.0002469692    1.060    0.057
        63  -7.5161    122.3103    231.6484   1.3059276247e+02   1.1865417060e+01    0.1252225   0.07888053  68.35 0.0007044574    1.720    0.419
        64  -9.0178    241.6520    230.2230   1.0922966575e+02  -7.1956837031e+00    0.2003469    0.1120798  21.95 0.0008700148    1.685    0.407
        65  -7.9800    115.9853    230.7903   1.3165677797e+02   1.3003070296e+01    0.1685259   0.07990493  43.52  0.000873478    1.738    0.425
        66  -7.4149     37.3045    229.2952   1.4553476565e+02   2.4051721841e+01   0.08815776   0.08028251 -78.87 0.0003274939    1.581    0.367
        67  -7.8956    151.9771    227.7915   1.2464973998e+02   7.6486544854e+00    0.1943572     0.127013  23.09 0.0006510323    1.982    0.495
        68  -7.2982    138.6955    227.6772   1.2709471920e+02   9.8687783787e+00    0.1136772    0.0922613  15.25 0.0005635584    1.638    0.390
        69  -8.1925    109.0302    227.4791   1.3257649431e+02   1.4648041946e+01    0.1540059     0.101144  22.90 0.0005022628    2.432    0.589
        70  -7.4569     93.3476    227.3221   1.3545006726e+02   1.7042813695e+01    0.1039036   0.09364197   9.42 0.0007049376    1.740    0.425
        71  -9.3019    248.3800    224.0732   1.0712263698e+02  -7.5059698903e+00    0.3688149    0.1875731   6.28  0.001725258    3.016    0.668
        72  -7.8387    184.7888    226.2276   1.1842490331e+02   2.3685957661e+00    0.1653987    0.1259712  21.01 0.0005219708    1.325    0.245
        73  -7.9339    167.9404    225.0455   1.2132642705e+02   5.3830043295e+00    0.1850784     0.136847  16.42 0.0005097838    1.636    0.389
        74  -8.2432    127.6513    224.4968   1.2876220615e+02   1.2201724661e+01    0.2030943    0.1529104  33.55 0.0005734913    1.426    0.299
        75  -7.5278    240.2692    224.3697   1.0850024774e+02  -6.3280131799e+00    0.1198933   0.07539778   7.24 0.0004924057    1.667    0.400
        76  -7.6084    212.4902    224.5126   1.1324091827e+02  -1.9829718152e+00    0.1224321   0.09776207  23.92 0.0008102054    1.037    0.035
        77  -7.8407    206.8127    221.9762   1.1383249338e+02  -7.2299692711e-01     0.192756    0.1255025   1.48  0.001054143    2.012    0.503
        78  -8.5294    242.4708    220.2579   1.0745040539e+02  -6.1866392511e+00    0.1915581    0.1054459 -23.05 0.0006292809    1.919    0.479
        79  -7.6823    147.4878    221.4930   1.2464425705e+02   9.4055391338e+00    0.1256871    0.1046755  47.17 0.0008104016    1.025    0.024
        80  -8.0773    116.2654    220.7896   1.3046586892e+02   1.4676589230e+01    0.1756267    0.1405207   5.72 0.0009056223    2.068    0.517
        81  -8.1493      8.4412    221.2340   1.4992832112e+02   2.8581355304e+01    0.1474069   0.07220938  83.39 0.0006722363    1.604    0.377
        82  -8.0119    224.7061    219.6337   1.1033584353e+02  -3.3360089334e+00    0.1251873   0.08086172   9.23 0.0007028765    1.716    0.417
        83  -7.7921    195.0130    218.4856   1.1538694698e+02   1.7328249493e+00    0.1820696   0.09254991  25.23 0.0007310642    2.519    0.603
        84  -7.4954    185.3026    218.6519   1.1718230014e+02   3.3677900074e+00    0.1189763   0.09471765  71.65 0.0007039721    1.692    0.409
        85  -7.6201    170.7175    217.6275   1.1972796658e+02   6.0367707102e+00    0.1231729   0.09317467   7.82 0.0007014439    1.703    0.413
        86  -8.6709    244.5777    216.2093   1.0641468443e+02  -6.0344024100e+00    0.1596544   0.09914582 -12.55 0.0006821704    1.682    0.405
        87  -7.8420    211.5303    215.9640   1.1202240178e+02  -7.0538187464e-01    0.1666992   0.09921148  -7.01 0.0008092994    2.497    0.600
        88  -8.0465    204.4712    215.6645   1.1322924201e+02   5.2160205262e-01    0.1526672    0.1138739 -13.52 0.0009272778    1.512    0.339
        89  -7.5234    151.2427    216.3362   1.2321954815e+02   9.6094443732e+00    0.1138247   0.09567539   4.21 0.0001987202    1.551    0.355
        90  -8.0206    248.7462    215.4038   1.0559244939e+02  -6.5737678738e+00     0.160753   0.09184518  28.88 0.0004214613    1.532    0.347
        91  -7.3437    180.3011    215.2797   1.1758227188e+02   4.7320802234e+00    0.1227815    0.0899622  17.44 0.0002443609    1.545    0.353
        92  -7.6331    144.3216    215.2820   1.2439645422e+02   1.0973646210e+01    0.1198025   0.09470893  18.86 0.0002981143    1.589    0.371
        93  -8.5975    187.2507    209.9934   1.1544773443e+02   4.3143797836e+00    0.3172394    0.1969566  15.68 0.0009774832    2.262    0.558
        94  -8.2242    170.4350    210.6854   1.1872234396e+02   7.1748129112e+00    0.1522992    0.1241531 -26.34 0.0009294812    1.473    0.321
        95  -7.5288    141.3469    211.3039   1.2441669473e+02   1.2164933796e+01    0.1235799   0.09758325  15.08 0.0007040818    1.693    0.409
        96  -7.8201    100.2597    210.6079   1.3236116080e+02   1.9053389731e+01    0.1679338    0.1086539  35.81  0.000938142    1.681    0.405
        97  -7.6783    107.8111    209.3843   1.3073683141e+02   1.8096740001e+01    0.1728813    0.1093947  34.69 0.0006503295    1.741    0.426
        98  -7.4807     78.0040    209.2166   1.3653958739e+02   2.2622218113e+01    0.1518889    0.0849976  44.60 0.0004880225    1.597    0.374
        99  -7.7493    147.0074    208.5044   1.2291243314e+02   1.1666545249e+01    0.1903263    0.1116924  43.68 0.0003678502    1.468    0.319
       100  -7.5132    163.4543    207.4584   1.1955863619e+02   8.9372819939e+00    0.1298444    0.1120943  40.01 0.0008070942    1.040    0.038
       101  -8.3999    247.8655    205.8565   1.0405960372e+02  -5.3018559753e+00    0.1915894    0.1375133  11.68 0.0007623407    1.242    0.195
       102  -7.0937    213.3777    206.3030   1.1005768883e+02   3.0148728538e-01    0.1343248   0.08669648  15.16 0.0005279623    1.769    0.435
       103  -8.3861     11.9799    206.2401   1.4858003020e+02   3.1064386882e+01    0.1306444    0.0763106  45.05 0.0007724611    1.634    0.388
       104  -7.6630    139.5330    204.9898   1.2387285716e+02   1.3591123100e+01    0.1546984    0.1130108 -20.46  0.000478179    2.208    0.547
       105  -7.6989     88.0226    204.4617   1.3407483139e+02   2.2094403077e+01    0.1484055     0.110378  14.95  0.000756384    2.335    0.572
       106  -7.3301    175.6628    202.2985   1.1637869952e+02   7.5900891702e+00    0.1291028    0.0984184  69.34 0.0004539407    1.657    0.397
       107  -8.8666    250.4667    197.9926   1.0220510330e+02  -4.7392522724e+00    0.3156619    0.1264547 -27.32  0.001252202    2.629    0.620
       108  -8.7112    179.5434    199.3284   1.1513593604e+02   7.3671400210e+00     0.222505    0.1946442  25.79 0.0003108264    1.097    0.088
       109  -7.5432    135.2906    200.2932   1.2403646167e+02   1.5185876168e+01    0.1199601    0.1023019  10.66 0.0002417044    1.550    0.355
       110  -8.4792    243.5798    197.6231   1.0327547431e+02  -3.5889044742e+00    0.2774901    0.1420339 -24.61   0.00141795    2.041    0.510
       111  -8.6040    230.4252    198.0329   1.0558577712e+02  -1.4657607475e+00    0.2708239    0.1491514  28.11 0.0006544795    1.814    0.449
       112  -8.0114    151.0221    198.3137   1.2057390678e+02   1.2742298718e+01    0.1909563    0.1495864  46.86 0.0004753256    1.122    0.109
       113  -7.1659     87.3241    197.3494   1.3340669627e+02   2.3610720358e+01    0.1140814    0.1005256 -26.54 0.0007048962    1.750    0.429
       114  -7.5361     79.6790    196.6633   1.3488328012e+02   2.4872722049e+01    0.1114126   0.09892759 -32.66 0.0007050124    1.709    0.415
       115  -7.5218    224.7979    195.5827   1.0611731755e+02  -1.6921866211e-01      0.16062    0.1136494  47.10 0.0004490028    1.499    0.333
       116  -7.8750    202.9517    195.0229   1.0995862765e+02   3.7799830383e+00     0.206978    0.1449781  12.97 0.0006450281    1.648    0.393
       117  -8.0257    237.3885    192.2484   1.0331988856e+02  -1.8584788986e+00    0.2181644    0.1136234 -28.26  0.001046059    1.964    0.491
       118  -7.2450    209.6928    192.7057   1.0829626540e+02   2.9122781570e+00    0.1321236    0.0932521  12.32 0.0006407422    1.584    0.369
       119  -7.3827    232.6659    189.7056   1.0365025985e+02  -7.0757063403e-01    0.1327963   0.08818232  11.98 0.0003063392    1.641    0.391
       120  -7.5812    224.4792    189.4824   1.0503747779e+02   7.4874859120e-01     0.132048    0.1100771  12.89 0.0008090375    1.072    0.067
       121  -7.6783    191.7179    189.6300   1.1109509339e+02   6.6922060232e+00    0.1360025   0.09967768   4.59 0.0007014927    1.697    0.411
       122  -8.2716    243.7687    187.3132   1.0130839726e+02  -2.2655028455e+00    0.2129912    0.1620753 -12.03 0.0005943992    1.224    0.183
       123  -7.9022    173.4171    187.7684   1.1432885101e+02   1.0449996196e+01    0.1682116    0.1303326 -27.99 0.0003756849    1.500    0.333
       124  -8.2271    238.1516    185.0709   1.0182500824e+02  -1.0083429723e+00    0.2581172    0.1453578  -6.82  0.001168576    2.508    0.601
       125  -7.6161    215.3651    185.7961   1.0597021502e+02   2.9220440503e+00    0.1751252    0.1181635 -21.40 0.0005504577    1.606    0.377
       126  -8.8931    249.8050    182.5913   9.9397871717e+01  -2.6402148234e+00     0.279074    0.1768017   5.88 0.0008112622    1.793    0.442
       127  -8.8352    230.3328    184.9347   1.0314427153e+02   3.6884608883e-01      0.22942    0.1660424  27.58 0.0003256614    1.277    0.217
       128  -7.5228    199.5181    180.5557   1.0790928395e+02   6.6956315472e+00    0.1369773    0.1211022  20.95 0.0008072717    1.049    0.047
       129  -7.9863    182.7671    180.1826   1.1108553954e+02   9.9763068995e+00    0.1867144    0.1549029   7.51 0.0004859086    1.348    0.258
       130  -8.2368    242.3046    177.1856   9.9581004382e+01  -6.2703493759e-01    0.2572427    0.1087203 -26.64  0.001083138    2.598    0.615
       131  -7.5825    235.4960    178.4897   1.0099467420e+02   3.7996230494e-01    0.1333618    0.1108851   7.49 -5.723072e-06    1.080    0.074
       132  -7.5021    189.7920    176.3708   1.0897547484e+02   9.2682794375e+00    0.1949055    0.1198479  35.32 0.0004985981    1.599    0.375
       133  -7.5890    182.8242    174.3671   1.0996238587e+02   1.0981539621e+01    0.2015525    0.1213728  35.76 0.0005916107    1.655    0.396
       134  -9.7016    246.1545    167.2127   9.6930081256e+01   1.1086475658e-01    0.2593826    0.1999474  23.66  0.000406443    1.241    0.194
       135  -8.0340    237.1903    167.2801   9.8446559585e+01   1.7070862440e+00    0.2076099    0.1475209  21.72 0.0004262276    1.428    0.300
       136  -7.7398     65.3454    142.0983   1.3099463935e+02   3.8893481435e+01    0.2007676    0.1111998 -77.81 0.0009393455    1.855    0.461
       137  -7.1699    248.0000    134.9392   8.9709963813e+01   4.5643762941e+00     0.224864   0.07125882 -33.98 0.0006284825    2.884    0.653
       138  -7.9504    241.8042    131.9999   9.0032211583e+01   6.2316891675e+00    0.2361187    0.1524274  -5.30  0.001079648    2.023    0.506
       139  -7.9657    231.9984    128.9304   9.0933514866e+01   8.7101303717e+00    0.2310478    0.1665235   6.19  0.000763323    1.721    0.419
       140  -8.3215    192.6155    127.2182   9.7698389805e+01   1.7563309467e+01     0.211745    0.1416116 -26.64 0.0007017457    1.651    0.394
       141  -8.3302    239.3883    124.2371   8.8637363312e+01   7.9471010676e+00     0.480485    0.2238645 -14.51  0.001357192    5.220    0.808
       142  -8.2821    248.0911    116.7482   8.5549010714e+01   7.3578766762e+00    0.2810175    0.1758941  -5.48  0.001236768    2.247    0.555
       143  -7.9125    220.0073    113.0000   8.9156679416e+01   1.3944355137e+01    0.2336548    0.0845006  53.18 0.0007991287    2.920    0.657
       144  -7.5034    249.3165    107.3475   8.3171317881e+01   8.5685192223e+00    0.1428995    0.1046662   6.00 0.0004646951    1.725    0.420
       145  -8.3952    241.3282    106.4545   8.4139897959e+01   1.0377159221e+01    0.2903211    0.2040137  -5.51  0.001396598    1.783    0.439
       146  -9.9731      4.1037    105.4070   1.4232085035e+02   5.3391419115e+01     0.349636    0.1701638  68.37  0.001022354    2.505    0.601
       147  -8.5648     11.6811    105.3330   1.4015499348e+02   5.2916669890e+01    0.1219311   0.07646232  75.10 0.0002852123    1.695    0.410
       148  -7.9061    188.3079    100.3366   9.1700697325e+01   2.3571601313e+01    0.1580498    0.1224384  10.31 0.0004403965    1.677    0.404
       149 -10.3730      2.8562     89.6478   1.4067167625e+02   5.7008531099e+01    0.5172178    0.1976682 -85.79  0.002200915    3.103    0.678
       150  -8.7206     22.8493     91.7963   1.3473045425e+02   5.5188460648e+01    0.1833841     0.140363 -53.93 0.0004953374    1.179    0.152
       151  -7.7750    242.3169     91.3452   8.0341036780e+01   1.2544914432e+01    0.1439808    0.1087359   9.30 0.0007048524    1.720    0.419
       152  -7.8360    212.4551     84.5019   8.3139714504e+01   2.0514508131e+01    0.1491264     0.141621 -42.14  0.000184291    1.016    0.016
       153  -9.6285      2.8500     80.8189   1.3938091064e+02   5.8973841806e+01    0.2670747    0.1394072 -64.19  0.001025791    1.406    0.289
       154  -7.7269    159.3225     80.3157   9.2045591775e+01   3.4371449063e+01    0.1593607    0.1235442  15.30 0.0005049016    1.663    0.399
       155  -8.6558    184.5157     77.5108   8.6102253879e+01   2.8593175504e+01    0.3021723    0.1509648 -34.10  0.000733986    1.988    0.497
       156  -8.2509     16.0219     70.3560   1.3295655328e+02   6.0485829793e+01    0.1816891   0.06510518  46.73 0.0007043183    4.567    0.781
       157  -8.1862     35.9978     67.7484   1.2507637131e+02   5.9417512281e+01    0.1721631    0.1501552 -49.71 0.0006416662    1.061    0.058
       158  -9.3903      1.5335     58.1948   1.3583380424e+02   6.3950254980e+01    0.4068806    0.1219615 -71.89  0.001502272    3.329    0.700
       159  -7.2299     66.6509     58.2790   1.1107696333e+02   5.7663886845e+01    0.1256213    0.1062385  86.69 0.0003993912    1.642    0.391
       160  -9.2715     33.0655     57.5600   1.2340064174e+02   6.1857168363e+01    0.2214131    0.1498552 -52.77 0.0003077799    1.215    0.177
       161  -7.8985    246.2326     52.9942   7.0429703312e+01   1.7361795003e+01    0.1806407    0.1047189 -33.89 0.0004256892    1.568    0.362
       162  -8.5202     94.9910     52.7896   9.9693611918e+01   5.3853829039e+01    0.2307379    0.1896256 -39.83  0.000587441    1.187    0.157
       163  -8.4153     44.1748     51.8796   1.1731292885e+02   6.1864929847e+01    0.1785332    0.1573849 -52.49 0.0004022822    1.181    0.153
       164  -7.5999     19.6590     52.2773   1.2724265588e+02   6.4079798556e+01    0.1069843   0.08805332  78.87 0.0003385622    1.621    0.383
       165  -8.8757     95.4439     45.7589   9.6935806277e+01   5.4976745829e+01    0.2480709    0.1924896  42.95 0.0006719459    1.329    0.247
       166  -8.9761      2.7816     44.4262   1.3220181335e+02   6.6744804008e+01    0.1458734    0.1111618   4.72  0.001052063    1.604    0.376
       167  -7.8886     54.5098     44.0200   1.1051453408e+02   6.2096596336e+01    0.1951237    0.1117429 -43.58 0.0004322894    1.532    0.347
       168  -8.6977      9.7307     42.6092   1.2872294593e+02   6.6719772178e+01    0.3072071    0.1475242 -77.27  0.001359523    3.415    0.707
       169  -7.4581    115.7477     43.7278   9.0371806819e+01   5.1019913705e+01     0.137917    0.1073921  12.92 0.0001973131    1.451    0.311
       170  -8.3691     77.0455     40.0294   1.0068451322e+02   5.9337437080e+01    0.2037483    0.1786278  -6.77 0.0005461912    1.053    0.051
       171  -9.4883     51.9923     38.4722   1.0938103590e+02   6.3436429979e+01    0.2226983    0.1579892 -37.57   0.00131968    1.221    0.181
       172  -7.8971     41.5214     39.5372   1.1405366174e+02   6.4536140811e+01    0.1238907    0.1034885 -32.51 -2.088798e-05    1.038    0.036
       173  -8.5580     21.0822     40.0466   1.2298562775e+02   6.6423207691e+01     0.174006    0.1394411 -43.93 0.0003889906    1.054    0.052
       174  -7.8599      8.3236     37.2842   1.2779693094e+02   6.7859847412e+01    0.1182216   0.06499254 -35.72 0.0002318508    1.598    0.374
       175  -7.8494     92.4574     36.5168   9.4237799322e+01   5.7043477859e+01    0.1947936    0.1232293  35.58 3.511435e-05    1.630    0.387
       176  -8.4879     95.0047     33.6600   9.2306361654e+01   5.6962695372e+01     0.216078    0.1745355  -8.14 0.0003293238    1.226    0.184
       177 -10.2186     15.9976     33.9633   1.2323816070e+02   6.7983306075e+01    0.3002097    0.2249413   3.96   0.00209853    1.502    0.334
       178  -9.0820      5.0323     34.0104   1.2831278410e+02   6.8690379859e+01    0.2449432    0.1361336   4.47  0.001425971    2.220    0.550
       179  -9.3168      5.4538     28.2659   1.2628427620e+02   6.9761925732e+01    0.3622124    0.1410184 -26.72   0.00167347    3.271    0.694
       180  -8.6310      9.3019     33.3263   1.2611897781e+02   6.8565626999e+01    0.1914455   0.08702186 -52.99 0.0005893956    1.645    0.392
       181  -9.7403      9.5684     27.8156   1.2414171382e+02   6.9587990372e+01    0.4313488    0.1323398 -42.02  0.001604914    2.513    0.602
       182  -7.5874    245.7705     31.9943   6.5371886463e+01   2.0252210016e+01     0.176509    0.1019186 -33.10 0.0005179095    1.613    0.380
       183  -9.3753     21.5505     31.1327   1.1967611003e+02   6.8071576211e+01    0.3127802    0.1926827 -68.60  0.001156658    2.364    0.577
       184  -7.9350    140.8869     31.1233   7.9855491529e+01   4.6823493833e+01    0.1933126    0.1613427  27.98 0.0003324565    1.253    0.202
       185  -8.8752     91.4933     25.0616   8.9778638663e+01   5.8873928590e+01    0.2344895    0.1881352  43.46 0.0004955514    1.248    0.199
       186  -8.0157    172.5146     24.5063   7.2046969971e+01   3.9516230164e+01    0.1442725    0.1338762 -85.86 -0.0001463282    1.044    0.042
       187  -8.0107    156.3128     24.3025   7.4586195405e+01   4.3743692636e+01    0.1492822    0.1036278  33.86 0.0007019476    1.612    0.380
       188  -8.5925      2.6519     23.3491   1.2598682993e+02   7.0838080220e+01     0.185203    0.1595407  78.81  0.001389551    1.755    0.430
       189  -9.1831     84.6754     21.6013   9.0372476515e+01   6.0675402239e+01      0.22787    0.2067202 -11.86 0.0005248599    1.108    0.097
       190  -7.3449    137.4173     21.5503   7.7095002442e+01   4.8849381472e+01    0.1406248    0.1301179  38.69 0.0001152269    1.040    0.038
       191  -8.9024     18.8336     20.8561   1.1692781728e+02   7.0131789189e+01    0.2390448    0.1822225 -23.26  0.001705577    1.103    0.094
       192  -7.4766    249.6582     20.6609   6.2333376005e+01   2.0747701474e+01    0.1259735     0.098739  32.93 0.0007049598    1.770    0.435
       193  -8.2549    161.6317     18.8075   7.1875758617e+01   4.2992357378e+01    0.2133176    0.1738351  17.34 0.0007547645    1.413    0.293
       194  -7.3581    233.6745     18.7391   6.3252003882e+01   2.4691042784e+01    0.1253465   0.09890527  44.47 0.0006901029    1.559    0.359
       195  -7.6348    151.7694     17.9360   7.3186836720e+01   4.5626909286e+01    0.1698345    0.1196137 -20.75 0.0002821833    1.535    0.349
       196  -7.9203     95.5371     17.4659   8.5328817359e+01   5.8992277820e+01    0.1342664    0.1184333  16.58  8.43313e-06    1.020    0.020
       197  -9.1786     75.0010     16.4962   9.1206256562e+01   6.3147913279e+01    0.2342277    0.1981642 -13.72 0.0006281451    1.110    0.099
       198  -8.3222    146.1173     14.2125   7.2850310103e+01   4.7458595117e+01     0.203411    0.1714168  44.61 0.0003203536    1.145    0.127
       199  -7.8466    161.3083    249.6485   1.2574960179e+02   2.9527389279e+00    0.1139353   0.07905852  65.00 0.0007043525    1.715    0.417
       200  -8.1308    151.0538     12.7233   7.1505483496e+01   4.6353333750e+01    0.1961375    0.1667007  60.22 0.0003464929    1.088    0.081
       201  -7.8756    143.6465    249.6899   1.2882312579e+02   5.7226859662e+00    0.1114842    0.0818359  21.88 0.0007044006    1.724    0.420
       202  -7.7866     89.5262    249.5217   1.3813441114e+02   1.3845480048e+01    0.1117955   0.08425765  59.21 0.0008092664    1.046    0.044
       203 -10.4481    231.4266    246.3767   1.1341062086e+02  -7.4478719287e+00    0.4009401    0.2328516   3.47  0.002352747    2.141    0.533
       204  -9.9370    157.0350    245.5600   1.2599809016e+02   4.1940170748e+00    0.3262555    0.2349741  20.67  0.001365365    1.687    0.407
       205  -9.4467    225.4997    245.6545   1.1427646452e+02  -6.5010107448e+00    0.3084211    0.1097681  34.25  0.001479836    2.429    0.588
       206  -9.4583    171.1381    245.7404   1.2355152252e+02   1.9201343145e+00    0.2220905    0.1334337  30.35  0.001310749    1.616    0.381
       207  -7.6925    119.6987    246.3176   1.3263874734e+02   9.9273404691e+00     0.117458   0.07254945  65.16 0.0004129479    1.620    0.383
       208  -7.6539    104.0267    246.2351   1.3535936993e+02   1.2287452723e+01    0.1523893   0.07609439  44.36 0.0005769644    1.595    0.373
       209  -9.7633    192.7521    248.5857   1.2019582788e+02  -1.8534375285e+00    0.2518271    0.1884395  -1.16  0.001226067    1.612    0.380
       210  -8.4969    150.2238    244.9062   1.2711735762e+02   5.3714794361e+00    0.1680502    0.1305245  -0.26  0.001073233    1.952    0.488
       211  -7.5897    136.6377    245.7134   1.2960285432e+02   7.3997259686e+00    0.1115469    0.0827142  23.96 0.0004413687    1.689    0.408
       212  -7.8261    219.5205    244.4972   1.1509772934e+02  -5.4808385465e+00     0.115912   0.08720829  24.16 0.0003237058    1.047    0.045
       213  -8.0696    242.3281    243.3110   1.1117936073e+02  -8.6951811880e+00    0.1161264   0.06826581  14.67  0.000352435    1.665    0.399
       214  -9.0240    226.2611    250.5589   1.1486824465e+02  -7.1395329732e+00    0.2796106   0.08551616  38.31  0.001259766    2.583    0.613
       215  -7.8070    210.2509    242.6822   1.1639042707e+02  -3.8597653367e+00    0.1566968   0.08970737 -19.97 0.0008877589    2.304    0.566
       216  -9.0713    168.8802    241.8075   1.2343929603e+02   2.8159248756e+00    0.1816873    0.1382943  30.30 0.0008214129    1.228    0.186
       217  -7.8435    146.5910    242.2238   1.2744043116e+02   6.3410401496e+00     0.128663    0.1137647 -31.11 0.0002986007    1.508    0.337
       218  -7.8831    113.9405    242.5387   1.3326580071e+02   1.1395875005e+01    0.1460707   0.09397666  24.96 0.0008054243    2.333    0.571
       219  -7.5685     72.3042    242.6449   1.4050830227e+02   1.7342442900e+01    0.1196083   0.06301855  67.18 0.0007040236    1.713    0.416
       220  -7.5670     29.3127    242.6997   1.4759878704e+02   2.2591654471e+01    0.1109034   0.05232154  64.94 0.0005214534    1.607    0.378
