#   1 NUMBER                 Running object number                                     
#   2 MAG_AUTO               Kron-like elliptical aperture magnitude                    [mag]
#   3 X_IMAGE                Object position along x                                    [pixel]
#   4 Y_IMAGE                Object position along y                                    [pixel]
#   5 X_WORLD                Barycenter position along world x axis                     [deg]
#   6 Y_WORLD                Barycenter position along world y axis                     [deg]
#   7 A_WORLD                Profile RMS along major axis (world units)                 [deg]
#   8 B_WORLD                Profile RMS along minor axis (world units)                 [deg]
#   9 THETA_WORLD            Position angle (CCW/world-x)                               [deg]
#  10 FWHM_WORLD             FWHM assuming a gaussian core                              [deg]
#  11 ELONGATION             A_IMAGE/B_IMAGE                                           
#  12 ELLIPTICITY            1 - B_IMAGE/A_IMAGE                                       
         1 -14.6584      8.2625    151.8183   1.5115208437e+02   4.3027222878e+01     10.92687     3.605924  60.87   0.05027272    2.598    0.615
         2 -13.5251      3.0753      8.2851   1.3536191005e+02   7.6837702325e+01      3.01891    0.6688375 -67.67    0.0109518    3.922    0.745
         3 -13.4859    192.7656     25.5064   7.2517470954e+01   3.3008281888e+01     1.675279      1.46206 -12.80   0.00733829    1.246    0.197
         4 -13.3534    208.4507      6.8744   6.5533643265e+01   3.0855631195e+01     1.178829    0.9665225  43.15   0.00675243    1.412    0.292
         5 -10.3605     99.0076    249.3060   1.3757285311e+02   1.5050881509e+01     0.207359     0.115505  39.65 0.0009718798    1.244    0.196
         6 -10.5900    246.7492    249.0025   1.1223558372e+02  -4.2751590269e+00    0.2052126    0.1259467  46.68  0.001351892    2.764    0.638
         7 -10.1432    174.9038    249.8107   1.2393830382e+02   4.8016199107e+00     0.171077    0.1329994  63.19  0.001241911    2.084    0.520
         8  -8.8752     47.0119    249.4710   1.4711210284e+02   2.1208391001e+01    0.1527355   0.07092191  39.07 0.0003958974    1.498    0.332
         9  -9.4118    162.0000    247.9802   1.2599074460e+02   6.7586991538e+00    0.1349352   0.06383523 -44.79 0.0008074987    2.978    0.664
        10 -12.3440    125.3804    249.1056   1.3270456875e+02   1.1608720052e+01    0.6406807     0.308712  27.77  0.003642412    2.023    0.506
        11 -11.8441    138.9855    249.7778   1.3029389374e+02   9.6869475006e+00    0.5234033    0.1813619  37.05  0.002745775    2.008    0.502
        12 -11.6650    185.8208    239.3273   1.2080380573e+02   4.4366477171e+00    0.4883343    0.3620266  87.78  0.002644073    4.374    0.771
        13 -10.1985     35.6443    243.6778   1.4893768960e+02   2.3291450184e+01    0.2463548    0.1778612  22.04   0.00169209    1.791    0.442
        14  -9.4046     82.6673    243.4622   1.4019826767e+02   1.7949872161e+01    0.1945243   0.09357605  64.43  0.001108266    2.403    0.584
        15 -12.3302     10.1921    206.8276   1.5259518300e+02   3.1929117797e+01    0.6509475    0.3508108  29.38  0.002850736    1.817    0.450
        16 -11.0960    236.7161    247.5673   1.1355895655e+02  -2.9679805891e+00    0.2487997    0.1544224 -10.69  0.001837705    1.619    0.382
        17  -9.9570    155.9758    229.0094   1.2492363889e+02   9.9024776699e+00    0.1810036    0.1195309  15.24  0.001135102    1.691    0.409
        18 -12.8464     51.2786    217.7756   1.4471940247e+02   2.5824955371e+01     1.140621    0.7941031  30.56  0.007362392    1.480    0.324
        19  -8.3310      7.3550    226.2873   1.5362475805e+02   2.8808562724e+01   0.08054511   0.07704383   6.69 0.0006430158    1.673    0.402
        20 -10.2206    172.6959    221.8009   1.2091129178e+02   8.3473247386e+00    0.2202426    0.1535065   9.55 0.0008256767    1.555    0.357
        21  -8.9643    152.6357    213.0142   1.2357516496e+02   1.2546351601e+01    0.1532152    0.1315626  29.37 0.0003791936    1.131    0.116
        22  -9.2280     64.6480    211.3830   1.4154504667e+02   2.5353471222e+01    0.1862421   0.09779011  56.39 0.0006765332    1.597    0.374
        23 -12.6171     37.6348    235.9228   1.4826761040e+02   2.4303188992e+01    0.2525631    0.2259107  62.60 0.0007766197    1.367    0.269
        24 -11.4648     63.3202    200.9428   1.4106313202e+02   2.7391912729e+01    0.2278596    0.2227296 -80.67 0.0006087993    1.388    0.279
        25 -10.9466     20.9824    200.3291   1.5015676993e+02   3.2133385137e+01    0.2273174    0.1480099  53.46 0.0004506674    1.116    0.104
        26 -10.9058     17.2827    198.2386   1.5085961375e+02   3.2867999272e+01    0.2242544    0.1427514  47.16 0.0005142447    1.200    0.167
        27  -9.3084    191.7626    192.6651   1.1310309377e+02   9.0936902369e+00    0.3209002    0.1963021 -64.12  0.001244425    5.519    0.819
        28 -11.7720     69.4258    192.4832   1.3901565842e+02   2.8198207182e+01    0.2389008    0.2277401  49.16 0.0005194209    1.290    0.225
        29 -13.0215     66.1411    177.4895   1.3842256948e+02   3.1559325963e+01    0.4423139    0.2795823 -44.40    0.0017834    2.293    0.564
        30 -10.7121     79.2991    179.2767   1.3544359465e+02   2.9428458599e+01    0.2227525    0.1896211  49.82 0.0003551443    1.085    0.078
        31  -8.4709    102.8427    179.2281   1.2986236051e+02   2.5954147565e+01    0.2255984    0.1128669  62.86 0.0009381117    2.795    0.642
        32 -11.6279     86.4846    169.7692   1.3260994859e+02   3.0300139114e+01    0.5706936    0.5445936  26.46  0.003785997    1.259    0.206
        33  -9.9164     98.6714    153.5584   1.2729378461e+02   3.1748179727e+01    0.2820231    0.2672358 -26.37  0.000852988    1.292    0.226
        34  -9.1213    101.8479    149.0786   1.2576048245e+02   3.2161452739e+01    0.2044284    0.1885587  47.93 0.0004767271    1.081    0.075
        35 -11.7686     87.4414    152.7736   1.3011355734e+02   3.3704643492e+01    0.2630336    0.2485861   0.14  0.000533366    1.318    0.241
        36 -12.2337     67.1827    143.6465   1.3437998601e+02   3.8676968018e+01    0.7135133    0.4131804  57.75  0.002786039    1.691    0.409
        37 -13.8873     43.4329    228.5286   1.4683764014e+02   2.4885267207e+01    0.9224194    0.4475805  42.84  0.002672064    1.432    0.302
        38  -9.7525    110.1865    137.9791   1.2162724555e+02   3.3053539729e+01    0.3716999    0.2726305 -12.83   0.00120268    2.156    0.536
        39 -10.3706     97.3985    135.3762   1.2462756098e+02   3.5873493298e+01    0.2467223    0.2337691  17.26 0.0008286936    1.213    0.176
        40  -9.0420     84.3055    134.8872   1.2823160839e+02   3.8139552879e+01    0.2336295    0.1652749  55.07 0.0006242837    1.334    0.250
        41 -10.6418     56.2517    130.4651   1.3582346315e+02   4.3152549452e+01    0.4608653    0.2942309 -72.68   0.00242673    1.532    0.347
        42  -8.6540     24.4338    238.2511   1.5079513401e+02   2.5269895831e+01    0.1307877   0.07086402  68.49 0.0005084033    1.540    0.351
        43  -8.2896    116.3247    129.9858   1.1843189412e+02   3.3607779031e+01    0.2288201    0.1102334 -32.13 0.0007038988    4.217    0.763
        44  -9.0892    107.0655    124.3892   1.1981910120e+02   3.6563244079e+01    0.2025825    0.1624351  43.87 0.0003759256    1.168    0.144
        45  -8.3136     67.4648    250.5524   1.4345320072e+02   1.8746847511e+01    0.1082452   0.07112586  48.06 0.0001069424    1.035    0.033
        46  -9.7020    167.7599    112.7468   1.0193666947e+02   2.6148693126e+01      0.28714    0.2508161  79.65  0.000958594    1.367    0.269
        47  -9.2544    203.4891    111.4973   9.4668584481e+01   1.8524907987e+01    0.1421154    0.1277514   8.99 0.0001208219    1.048    0.046
        48  -9.3415    156.9323     75.5162   9.4108663159e+01   3.5301338195e+01    0.2414971    0.1494985  53.06  0.001023086    1.569    0.362
        49 -10.0740     26.7353     60.0165   1.3512263372e+02   6.3454157963e+01    0.3512101    0.1479107  36.51  0.001561213    2.489    0.598
        50  -9.7962     18.0739     56.5338   1.3865434648e+02   6.4939091399e+01    0.1750046    0.1262429  19.90  0.001025409    1.581    0.368
        51 -10.0245    224.6926    249.3755   1.1565738308e+02  -1.6479065481e+00    0.1410574    0.1080424  39.27 0.0007067668    1.715    0.417
        52  -9.6263     81.4792    248.4769   1.4075365453e+02   1.7368459365e+01      0.25006     0.101298  56.43  0.001320101    2.373    0.579
