#   1 NUMBER                 Running object number                                     
#   2 MAG_AUTO               Kron-like elliptical aperture magnitude                    [mag]
#   3 X_IMAGE                Object position along x                                    [pixel]
#   4 Y_IMAGE                Object position along y                                    [pixel]
#   5 X_WORLD                Barycenter position along world x axis                     [deg]
#   6 Y_WORLD                Barycenter position along world y axis                     [deg]
#   7 A_WORLD                Profile RMS along major axis (world units)                 [deg]
#   8 B_WORLD                Profile RMS along minor axis (world units)                 [deg]
#   9 THETA_WORLD            Position angle (CCW/world-x)                               [deg]
#  10 FWHM_WORLD             FWHM assuming a gaussian core                              [deg]
#  11 ELONGATION             A_IMAGE/B_IMAGE                                           
#  12 ELLIPTICITY            1 - B_IMAGE/A_IMAGE                                       
         1 -15.0776      7.7744    149.8558   1.4380760101e+02   4.3371841055e+01     10.68697     4.118765  69.71   0.04609874    3.259    0.693
         2 -10.8759      1.7877     59.4025   1.3374763107e+02   6.3726396107e+01    0.4309665   0.04899243 -63.97  0.001411331    4.836    0.793
         3 -13.3240    195.4615     30.4693   6.7554100013e+01   3.1969027329e+01     1.445558     1.230821  46.98  0.006707836    1.288    0.224
         4 -13.4811    211.9235     10.5136   6.0520379988e+01   3.0080420245e+01     1.244721    0.9694764  35.81  0.005124859    1.661    0.398
         5 -11.7086      2.0000      4.4496   1.1635498886e+02   7.3889901944e+01    0.4750522    0.2181714 -50.56  0.002777967    2.109    0.526
         6 -10.7303     13.8450     54.8123   1.2777158408e+02   6.3979348006e+01    0.2305613    0.1795932  36.32 0.0007896518    1.606    0.377
         7 -11.8881    245.9922    245.4962   1.0676490220e+02  -1.0139658301e+01    0.4592809    0.1880182  35.13  0.002494294    1.979    0.495
         8  -9.5965    156.5283    249.9760   1.2331539103e+02   3.0795015596e+00    0.1472919     0.100347 -11.59  0.000809331    2.490    0.598
         9 -11.5738    139.8876    249.6715   1.2636460695e+02   5.8009561871e+00     0.479385    0.1608368  41.65  0.002152749    2.283    0.562
        10 -11.6363    125.5575    249.7742   1.2903658979e+02   8.0605016854e+00    0.5578926     0.187232  38.66  0.002449014    2.519    0.603
        11  -9.4803     66.6563    250.1169   1.3977071516e+02   1.6634733671e+01    0.1904078    0.1122607  54.08 0.0003623118    1.260    0.206
        12  -9.7707     46.9635    249.9726   1.4317576258e+02   1.9176801096e+01    0.1702974    0.1218603  64.26  0.000818497    1.015    0.015
        13 -10.8554     29.3327    249.1023   1.4609023104e+02   2.1397847348e+01    0.2998366    0.2248802  81.04  0.001857037    1.212    0.175
        14 -11.4053     35.5882    244.6362   1.4479522916e+02   2.1456122328e+01    0.4060872    0.3156672 -77.41  0.003179329    1.496    0.331
        15 -11.0839     12.7478    250.0099   1.4882646188e+02   2.3032605255e+01    0.4884634    0.1199238  36.31   0.00233336    3.742    0.733
        16 -10.3126      1.6115    242.2163   1.5028445173e+02   2.5483311750e+01    0.1980313   0.07949361 -82.70  0.001087988    2.187    0.543
        17 -10.2305      2.4781    249.5059   1.5042358222e+02   2.4150103331e+01    0.2593058    0.1425778  43.04  0.001907624    1.648    0.393
        18 -10.1642      2.5349    246.4768   1.5030093265e+02   2.4659937388e+01    0.2182744    0.1282208  64.95  0.001151598    1.161    0.138
        19 -10.5621     19.2486    242.5288   1.4742989100e+02   2.3642376420e+01    0.1810683    0.1126461  85.37 0.0006099159    1.341    0.255
        20 -12.1250     10.8262    239.0393   1.4865958915e+02   2.5130415668e+01    0.4724894    0.1774615  59.66  0.001808924    1.995    0.499
        21 -10.8175    119.8083    238.0282   1.2881324378e+02   1.0852491711e+01    0.3387142    0.1734145 -79.37  0.001460248    3.812    0.738
        22 -10.6876     50.4240    235.1937   1.4158628415e+02   2.1350344189e+01    0.2379219    0.1852475  58.01  0.001043348    1.153    0.133
        23 -10.0383    162.8113    249.6050   1.2210721430e+02   2.1173730875e+00    0.1814668   0.08924232  47.00 0.0009529883    1.707    0.414
        24 -10.6824      5.9619    227.5304   1.4895731559e+02   2.7681351198e+01    0.2431358    0.1633315 -54.07   0.00170663    2.284    0.562
        25 -10.0671     55.4087    230.1171   1.4029845812e+02   2.1648346818e+01    0.2336877    0.1275667  52.33 0.0009663138    1.433    0.302
        26  -9.1310    172.3045    222.3499   1.1647981344e+02   4.5208261407e+00    0.1291528   0.09299075  10.96 0.0003697425    1.701    0.412
        27 -10.9440    229.3842    229.5244   1.0703614508e+02  -5.9161132663e+00    0.4415058    0.2867654 -57.85  0.002180945    3.645    0.726
        28 -12.6760      9.4129    207.1336   1.4733549004e+02   3.1213228797e+01    0.6901531    0.5181111  33.55  0.004311117    1.678    0.404
        29 -10.0642      6.9713    215.0550   1.4819117441e+02   2.9915122829e+01    0.1659261    0.1198366  73.15 0.0004827565    1.025    0.024
        30  -8.6022    152.5209    212.9576   1.1899627556e+02   9.5408269012e+00    0.1633094    0.1341891 -49.52 0.0003355497    1.445    0.308
        31  -9.4768     34.8293    202.5019   1.4214725483e+02   2.9504130758e+01    0.1876676    0.1335686  89.68   0.00026582    1.203    0.169
        32 -11.5072     60.3910    197.8822   1.3648426319e+02   2.7322715302e+01    0.2579951    0.2291629 -58.65 0.0005636297    1.436    0.304
        33  -9.6818    193.4137    195.7084   1.0786908434e+02   4.9149066127e+00    0.4561079    0.2375133 -62.84  0.001340144    6.611    0.849
        34 -14.0881     39.1328    223.9961   1.4287170371e+02   2.4795055716e+01     1.003769    0.8826635  28.90  0.005354916    1.648    0.393
        35 -11.7520     66.7798    189.6458   1.3423298144e+02   2.8188355695e+01    0.2659002    0.2264589 -64.65 0.0005384018    1.334    0.251
        36 -10.7977     76.9271    177.0124   1.3039186137e+02   2.9471454589e+01    0.2289921    0.2080851 -89.46 0.0003496605    1.119    0.106
        37 -13.1599     63.7188    174.8930   1.3320139210e+02   3.1808285770e+01    0.4844946    0.2845445 -45.65  0.001612145    2.257    0.557
        38  -9.3930     96.9674    173.3344   1.2514646658e+02   2.7133917392e+01    0.2281173    0.1911838 -71.99 0.0006687393    1.207    0.171
        39 -11.6756     84.6632    167.8684   1.2726720943e+02   3.0324253596e+01    0.6327149    0.5540056  48.72  0.003807297    1.162    0.140
        40  -9.7973     97.4156    151.9855   1.2148532401e+02   3.1825882556e+01    0.3205158    0.2630818 -54.57 0.0008964543    1.265    0.210
        41  -8.9854    100.3128    147.9555   1.2000202971e+02   3.2240757790e+01    0.1955416    0.1777492 -62.85 0.0003826471    1.124    0.110
        42 -11.9674     85.9451    151.1108   1.2427439796e+02   3.3923971455e+01    0.2905629    0.2510585 -45.74 0.0005613306    1.309    0.236
        43 -12.2459     67.4792    143.7281   1.2788420488e+02   3.8397599244e+01    0.7134911    0.4406019  63.27  0.003149651    1.825    0.452
        44 -10.2795     96.4543    134.3684   1.1836503349e+02   3.6030208990e+01    0.2547429    0.2318367 -23.29 0.0005858054    1.295    0.228
        45  -9.5053    109.2872    137.1249   1.1551036917e+02   3.3075692082e+01     0.358717     0.261584 -10.52  0.001573623    2.221    0.550
        46 -10.6419     31.3727    131.4538   1.3582866998e+02   4.5511292912e+01     0.231153    0.1879331  74.57 0.0006904036    1.190    0.160
        47 -11.5936     22.8878    126.8499   1.3756159966e+02   4.7343795341e+01    0.3182294    0.2253342  56.12 0.0005914277    1.483    0.326
        48  -8.7296    106.5087    123.8891   1.1336071789e+02   3.6601025009e+01    0.1999471    0.1447109 -52.41  0.000300008    1.374    0.272
        49  -9.4261     79.2234    131.5151   1.2253376011e+02   3.9528314417e+01    0.2582083    0.1935992  73.61 0.0008924564    1.491    0.329
        50 -10.2449    167.9426    113.0198   9.5272263355e+01   2.5543330240e+01    0.3494916    0.2838342 -82.70 0.0008121886    1.521    0.342
        51  -9.2361    203.4949    111.5275   8.7681674760e+01   1.7447318760e+01    0.1478737    0.1438804   1.79 0.0001628634    1.035    0.034
        52 -10.3040    134.8324    231.3901   1.2510044506e+02   9.4966284179e+00    0.1900003    0.1024245  34.19 0.0009562804    1.789    0.441
        53 -11.1978    243.1006     92.5520   7.6710629001e+01   1.1706789457e+01    0.4250454    0.1453554 -33.27  0.001548609    2.764    0.638
        54 -12.6222     33.5245    231.5789   1.4437932525e+02   2.4032793071e+01     0.266325    0.2179823 -84.36 0.0007678224    1.361    0.265
        55  -9.0250    184.5069     77.9883   8.2459217879e+01   2.7871943177e+01    0.2128444    0.1385974  -2.90 0.0008104548    2.551    0.608
        56  -9.2844    157.9997     77.0050   8.7551115994e+01   3.4725171704e+01     0.186802    0.1809356  61.41 0.0004660442    1.000    0.000
        57  -9.0444     31.8853     62.1277   1.2236749734e+02   6.1033327390e+01     0.169747    0.1619123 -77.66 0.0005692937    1.249    0.199
        58 -11.5414     98.2105    247.1096   1.3382464271e+02   1.2683222634e+01    0.4261037    0.2601199  71.24   0.00255049    1.754    0.430
        59 -10.0863    198.5205    246.4981   1.1515649886e+02  -3.1908544345e+00    0.1209617   0.09286962  29.30 0.0008103251    1.007    0.007
        60 -10.2928     81.5045    248.6856   1.3701171036e+02   1.4841480739e+01    0.2474977    0.1247256  59.00  0.001103774    1.717    0.418
        61 -10.9739    124.9073    244.4163   1.2856512831e+02   9.0029671645e+00    0.2046509    0.1844298 -53.35  0.001472552    1.444    0.308
