#   1 NUMBER                 Running object number                                     
#   2 MAG_AUTO               Kron-like elliptical aperture magnitude                    [mag]
#   3 X_IMAGE                Object position along x                                    [pixel]
#   4 Y_IMAGE                Object position along y                                    [pixel]
#   5 X_WORLD                Barycenter position along world x axis                     [deg]
#   6 Y_WORLD                Barycenter position along world y axis                     [deg]
#   7 A_WORLD                Profile RMS along major axis (world units)                 [deg]
#   8 B_WORLD                Profile RMS along minor axis (world units)                 [deg]
#   9 THETA_WORLD            Position angle (CCW/world-x)                               [deg]
#  10 FWHM_WORLD             FWHM assuming a gaussian core                              [deg]
#  11 ELONGATION             A_IMAGE/B_IMAGE                                           
#  12 ELLIPTICITY            1 - B_IMAGE/A_IMAGE                                       
         1 -14.3109     68.3665    144.8794   9.6765800666e+01   3.7413309352e+01      4.52799     2.148869  64.25   0.00377648    4.880    0.795
         2 -13.7100    229.4366     24.0266   3.3086938658e+01   2.5982919816e+01    0.9372141    0.8366876  62.42  0.002624892    1.446    0.308
         3 -13.8146    203.3780     45.3780   4.0297453560e+01   2.8849438384e+01     1.177094    0.9916471  41.37  0.004043063    1.540    0.351
         4 -13.9131    212.2667     39.7086   3.8013431315e+01   2.7650545577e+01     1.543908      1.17685 -18.31  0.007263307    1.835    0.455
         5 -12.1027    248.9462      4.1723   2.7944088798e+01   2.4375478095e+01    0.4636425    0.2426789 -49.58  0.002955075    1.537    0.349
         6  -9.0342     89.1588    211.1112   1.0154049481e+02   1.8244237150e+01    0.1863904     0.147383  69.24 0.0003954393    1.279    0.218
         7 -10.1405    117.7342    250.6269   1.0014786189e+02   5.9270879388e+00    0.1826559   0.09857944  42.92 0.0003271768    1.579    0.367
         8 -10.6172     87.0044    249.7481   1.0650123524e+02   1.0548123249e+01    0.2114638    0.1809559 -63.64 0.0007420789    1.361    0.265
         9 -12.5091     83.4000    217.0880   1.0364554796e+02   1.7778073772e+01     0.796292    0.4888501  82.12  0.001541832    2.119    0.528
        10 -16.4756     24.9790    243.0997   1.1855544614e+02   1.9700389101e+01     8.853374     2.535822  26.24   0.02639624    5.510    0.819
        11  -9.3624     99.4843    181.0094   9.4500050683e+01   2.3583437959e+01    0.2172285    0.1917989  42.21  0.000452694    1.108    0.098
        12 -13.2706     29.2284    201.0546   1.1454179749e+02   2.8380630741e+01    0.5407668     0.464752 -19.41  0.001358422    1.634    0.388
        13 -12.0996     58.4554    175.0762   1.0438566757e+02   3.1177412905e+01    0.4534001    0.3177721 -28.66  0.002203482    1.976    0.494
        14 -11.9991     63.8074    170.0104   1.0222408031e+02   3.1720811468e+01    0.3441772     0.279118 -39.12 0.0007541052    1.412    0.292
        15  -9.6107    187.6860    176.3586   7.2735101671e+01   8.6536297093e+00    0.2160046     0.181109  87.75  0.001123443    1.702    0.413
        16 -13.4873     61.0044    156.6145   1.0093491777e+02   3.5469897790e+01    0.5412942    0.3745901 -40.10  0.001317637    1.635    0.389
        17 -13.7260     68.9951    130.1383   9.3699022039e+01   4.1022146405e+01     4.861748     2.603826  79.92   0.01259946    6.288    0.841
        18 -15.1627      9.4230    207.9387   1.1947449444e+02   2.8790885542e+01     1.911322     1.131498 -80.07  0.005786391    1.475    0.322
        19 -10.0261     86.8113    173.3944   9.6555503949e+01   2.7482121330e+01    0.4228133    0.2705015  15.81  0.001818188    2.142    0.533
        20 -10.9146     47.4765    169.1181   1.0652263288e+02   3.4041867422e+01    0.3840312     0.238046 -76.30  0.001887443    1.559    0.358
        21  -9.0343    110.6005    167.7203   8.9225360068e+01   2.4856925112e+01    0.2052008    0.1453305 -68.91 0.0006695364    1.584    0.369
        22 -16.1553     33.0709    183.6097   1.1196227402e+02   3.2108197891e+01     9.838389     4.055197  80.84   0.03272654    4.190    0.761
        23 -11.9237     33.6324    157.7370   1.0884177040e+02   3.8444479977e+01    0.5893772    0.3247619  70.54  0.002618819    2.247    0.555
        24  -9.4490    174.6628    149.3247   6.9790015934e+01   1.6596432828e+01    0.2282734    0.1817237 -83.56 0.0009551218    1.694    0.410
        25 -10.0849    133.8123    145.3789   7.8529790646e+01   2.5730974920e+01    0.6775656    0.1265618 -52.13  0.001359133    7.354    0.864
        26  -8.9353    148.9880    147.4913   7.5239340623e+01   2.2186914327e+01    0.2508295    0.1695626 -88.69 0.0003635125    2.670    0.625
        27  -9.7660    147.0070    144.4937   7.5042976554e+01   2.3258092792e+01    0.2245808    0.1522094  43.68  0.000426081    1.488    0.328
        28 -10.2318    110.9215    204.0879   9.5350783445e+01   1.6374892872e+01    0.2285082    0.1869695  70.20  0.001230116    1.327    0.246
        29 -10.1777     28.3647    143.5673   1.0848311420e+02   4.2528730769e+01    0.2580777    0.2147044 -56.18 0.0008498675    1.152    0.132
        30 -10.7233     97.6569    140.0634   8.7190211339e+01   3.3892698969e+01    0.5987761    0.3915877 -16.19  0.002321521    2.523    0.604
        31 -12.4143     84.4653    139.5322   9.0932479069e+01   3.6276422931e+01    0.3190554    0.2731698 -45.84 0.0005698862    1.163    0.140
        32 -10.9907    193.0427    195.1420   7.5294810782e+01   4.1612974094e+00    0.8140558    0.4153018 -62.83  0.002440299    5.704    0.825
        33 -10.8210    107.1190    130.7734   8.2388359799e+01   3.4399094021e+01    0.4714811    0.3422348  28.23  0.001606825    1.511    0.338
        34  -9.6944    136.0000    129.4671   7.4268315882e+01   2.8905434431e+01    0.3455337   0.08820906 -46.85 0.0009288581    3.887    0.743
        35 -11.9834     73.9208    160.9838   9.8001829976e+01   3.2542270588e+01    0.4212706    0.3857735   9.77 0.0003563308    1.248    0.199
        36  -8.9892     82.1815    129.1794   8.9410691816e+01   3.9210121825e+01    0.2053523    0.1750355  76.87 0.0003991213    1.331    0.249
        37  -9.1435     96.4687    125.7287   8.4306215156e+01   3.7581666639e+01    0.2112101    0.1408746 -40.41 0.0009271065    1.557    0.358
        38  -8.8595    115.4408    124.5362   7.8550735744e+01   3.4244065084e+01    0.1564123    0.1477567 -14.40 0.0001116141    1.110    0.099
        39 -11.6689    242.7630    120.9855   5.1545213316e+01   8.9335145718e+00    0.3488671    0.2214342  -0.98  0.001444482    3.510    0.715
        40  -9.1923    160.9541    117.9729   6.5481616273e+01   2.6012903852e+01    0.2417061    0.1852068 -79.71 0.0007161641    1.677    0.404
        41  -9.3805    135.0000    119.9833   7.2190674872e+01   3.1224607957e+01    0.2577387   0.08810522 -45.83 0.0006713955    2.907    0.656
        42  -9.7449    105.8796    119.0851   7.9926550588e+01   3.7386402749e+01    0.2167918    0.2126042 -26.22 0.0002968594    1.019    0.018
        43  -9.0729    156.4838    111.7900   6.4942891369e+01   2.8269340422e+01    0.2059451    0.1420494 -57.66 0.0004230039    1.589    0.371
        44 -10.0946    205.2658    110.6105   5.5086080581e+01   1.7917419373e+01    0.3004852    0.2448947  34.94  0.001116014    1.447    0.309
        45  -9.0521     75.8089    111.5729   8.7345461003e+01   4.4499769876e+01     0.198048    0.1370073  47.45 0.0004696453    1.585    0.369
        46 -12.6645     81.3501    154.7050   9.4797306775e+01   3.2984531673e+01     1.017797    0.6302443 -38.11  0.002047141    1.919    0.479
        47 -11.2420     53.1788     92.7784   9.0438283768e+01   5.2176498984e+01    0.5690762    0.2249785 -57.78  0.002156167    2.587    0.613
        48  -9.4817     46.3353     91.6508   9.2671539265e+01   5.3296299460e+01    0.1377745     0.107264  73.02 0.0007047339    1.780    0.438
        49  -9.8645    249.6690     86.6626   4.3702875779e+01   1.3279379110e+01     0.116944   0.09769668  -3.89 0.0007052023    1.737    0.424
        50  -9.8969    161.8091     83.8345   5.6541681097e+01   3.2429497597e+01    0.2175389    0.2058965  16.37 0.0006278894    1.200    0.167
        51  -8.6554    184.4975     77.4804   5.0714833877e+01   2.8280073037e+01    0.1390471     0.133884 -80.08 -1.311628e-05    1.077    0.072
        52  -8.8761     24.3165     67.6953   9.5163108848e+01   6.0853054885e+01    0.1159926   0.09947178  67.67 0.0007026193    1.625    0.385
        53  -9.9130     32.3836     61.7185   8.9964215571e+01   6.1278013945e+01    0.2288251    0.1814591  40.96   0.00081783    1.558    0.358
        54 -10.2141     29.4715     60.4671   9.0844069839e+01   6.1831055521e+01    0.2854163    0.2094554  44.35   0.00118278    1.774    0.436
        55 -11.5375     13.1177     60.1202   9.8007356750e+01   6.3334931448e+01    0.3016605    0.2545024  41.05 0.0005724559    1.531    0.347
        56 -11.9644    163.0051    224.6408   8.6782615283e+01   3.6494580696e+00    0.3666869     0.265966  45.56  0.002019015    1.437    0.304
        57 -12.6297    220.4583     32.2649   3.5580388897e+01   2.6846945340e+01    0.5556795    0.3920066  51.06  0.001169528    1.795    0.443
        58  -8.8862    147.2785    187.3331   8.3822765634e+01   1.3739580397e+01    0.1476592    0.1129595 -11.95 0.0004139276    1.606    0.377
        59  -8.6626     80.7243    183.6855   9.9780137569e+01   2.5912291610e+01    0.1387014     0.110367 -30.59 0.0002683424    1.563    0.360
        60 -10.5027     34.2740     55.6073   8.7203925541e+01   6.2259173042e+01    0.2314391    0.2060769  24.23  0.000809201    1.284    0.221
        61 -11.1520     11.5033     52.7962   9.6692354494e+01   6.4922447073e+01    0.2128703    0.1611353   5.19 0.0009249949    1.343    0.256
        62  -9.9949      1.9724     49.0182   1.0015672275e+02   6.6287648647e+01    0.1660168    0.1425327  64.77  0.001136795    1.710    0.415
        63 -10.1834    131.0116     38.2849   4.9789572682e+01   4.6771585692e+01    0.2279863    0.1922665 -54.26 0.0003399651    1.299    0.230
        64  -8.7640    131.4590     30.6226   4.7327069579e+01   4.7603953647e+01    0.1343455     0.116225  63.39 8.358754e-05    1.028    0.028
        65  -9.5230    189.5107     15.0897   3.4827154117e+01   3.5659697900e+01    0.1715275    0.1171457 -38.71 0.0006089946    1.552    0.356
