#   1 NUMBER                 Running object number                                     
#   2 MAG_AUTO               Kron-like elliptical aperture magnitude                    [mag]
#   3 X_IMAGE                Object position along x                                    [pixel]
#   4 Y_IMAGE                Object position along y                                    [pixel]
#   5 X_WORLD                Barycenter position along world x axis                     [deg]
#   6 Y_WORLD                Barycenter position along world y axis                     [deg]
#   7 A_WORLD                Profile RMS along major axis (world units)                 [deg]
#   8 B_WORLD                Profile RMS along minor axis (world units)                 [deg]
#   9 THETA_WORLD            Position angle (CCW/world-x)                               [deg]
#  10 FWHM_WORLD             FWHM assuming a gaussian core                              [deg]
#  11 ELONGATION             A_IMAGE/B_IMAGE                                           
#  12 ELLIPTICITY            1 - B_IMAGE/A_IMAGE                                       
         1 -12.3417     21.5528     91.9298   7.0792722311e+01   5.6877245465e+01     3.780136     1.528439  84.53   0.01214338    3.803    0.737
         2 -12.1255    110.7850     39.7110   1.6991458989e+01   5.2387142865e+01     1.839019    0.8393038 -42.75  0.007012545    2.313    0.568
         3 -11.5037     78.9374     35.5127   2.5199316042e+01   6.1035788367e+01    0.8261029    0.5578367 -34.40   0.00340808    1.587    0.370
         4 -12.1176    104.7055     13.0826   7.2548319337e+00   5.7412571951e+01    0.5567163    0.4959165 -25.57  0.001908807    1.264    0.209
         5 -12.4582    113.3893     24.9637   1.0428376356e+01   5.3723637946e+01      1.47881    0.3687992  52.03  0.004459893    3.512    0.715
         6 -10.3274    155.1957     22.2830   2.4311854663e+00   4.2803487793e+01     1.052832    0.6279218 -33.41  0.005061546    1.689    0.408
         7 -12.0318    164.4467     27.3850   2.8692399171e+00   3.9804503598e+01    0.4155716    0.3350898 -63.86  0.001445051    1.144    0.126
         8 -12.3084     58.3999     29.0611   3.0901017304e+01   6.6655188568e+01    0.8551003    0.4214272 -25.64 0.0004766893    2.815    0.645
         9 -11.2263     49.7928     29.5840   3.5691065291e+01   6.8252549668e+01    0.9309021    0.5622759  17.65  0.003991924    2.253    0.556
        10 -11.9692     26.5011     27.7724   4.9825255428e+01   7.2239024676e+01    0.5470926    0.4987055 -55.91  0.002757116    1.257    0.205
        11 -11.3788     20.3494     21.9156   5.1645019688e+01   7.4158907438e+01    0.6378949    0.4581221  -9.80  0.002581259    1.405    0.288
        12 -11.5988    127.4561     16.5388   4.4301742429e+00   5.0878629633e+01    0.5480243    0.4755301  18.67 0.0006239608    1.395    0.283
        13 -11.3215    135.8061     14.7071   2.4732547592e+00   4.8805640133e+01    0.6090446    0.3586538  58.56   0.00226532    1.590    0.371
        14  -9.7240     45.9482     19.4231   3.2163292741e+01   7.0715041280e+01    0.3894196    0.2982931 -82.84  0.001901815    2.311    0.567
        15 -11.6125     36.3391     18.1583   3.7441653826e+01   7.2641799543e+01    0.6707978    0.4676647 -37.57  0.002575119    1.468    0.319
        16 -12.3284     48.8760     12.7670   2.6364845225e+01   7.1140118202e+01    0.7401445    0.3043185  48.09  0.003054811    2.223    0.550
        17 -10.4810      5.6925      9.6511   5.8691280026e+01   7.7995399656e+01    0.4270722    0.2933341 -52.92  0.001755025    1.399    0.285
        18 -10.4661     12.8136      8.6533   5.0766137454e+01   7.7570173665e+01    0.3476107    0.2863853 -17.62  0.002032693    1.049    0.047
        19 -10.7147      9.4562     19.4176   5.9864979921e+01   7.5684201817e+01    0.3842432    0.2207929 -20.36   0.00114311    1.788    0.441
        20 -11.5445     16.0731     14.2795   5.1125628419e+01   7.6146922581e+01     0.849674    0.3362326 -38.20  0.003588879    2.575    0.612
        21 -11.9485     22.7645     11.0303   4.3160434020e+01   7.5943160859e+01    0.6487955    0.4006542 -17.07  0.002260055    1.891    0.471
        22 -10.5372     68.5426     19.8579   2.1384377494e+01   6.5833261752e+01    0.4129137    0.3552592 -20.01  0.001863909    1.251    0.201
        23 -11.6324    247.5072     18.9991   3.5397738019e+02   2.2194465657e+01    0.3618393    0.3243946  42.61  0.002712062    1.585    0.369
        24 -11.8784    164.7164     18.0196   3.5997307412e+02   4.0797492754e+01    0.5791037    0.2903689  46.41  0.002283529    2.490    0.598
        25 -11.3484     86.1083     14.0114   1.2289078744e+01   6.2225341437e+01    0.7775295    0.4805166  21.29   0.00344261    2.157    0.536
        26 -11.1738     89.0310      8.4840   8.7262539825e+00   6.2044161336e+01    0.5837673    0.3592024 -72.17  0.002573559    2.192    0.544
        27 -11.3713    242.2824     15.0527   3.5341428501e+02   2.3593018851e+01    0.2358718    0.2051513 -58.98 0.0002154672    1.169    0.144
        28 -10.2393    196.7707     15.0395   3.5623552635e+02   3.3243101653e+01    0.4481083    0.1737517 -54.52  0.001529471    2.384    0.580
        29 -11.9707    227.8788     14.7443   3.5412528377e+02   2.6473927759e+01      0.45612    0.2391601 -76.02  0.001337883    1.898    0.473
        30 -10.0036    218.9944     12.7425   3.5418231456e+02   2.8534304283e+01    0.2477851    0.1987518   4.79  0.001557687    1.808    0.447
        31  -9.8579    190.8256     12.3800   3.5598534523e+02   3.4917272220e+01    0.3105584    0.1534106 -35.40  0.001068686    1.813    0.449
        32 -10.2930    192.9915      7.2966   3.5448445472e+02   3.4915412163e+01    0.4455136    0.2274958  -7.52  0.001892854    3.275    0.695
        33 -11.3388    212.1385      9.2369   3.5375706169e+02   3.0371119841e+01    0.4794624     0.323673  -3.52  0.001920137    2.211    0.548
        34 -10.6373    218.5820      3.4055   3.5202710832e+02   2.9555746071e+01    0.2722802    0.1976358 -87.97 0.0007750327    1.309    0.236
        35 -10.6259    223.6749      2.4041   3.5155015294e+02   2.8580050756e+01     0.222114    0.1883295 -58.35 0.0005669913    1.124    0.110
        36 -10.3084    120.7269     11.5784   3.6127333397e+00   5.3219042610e+01    0.3520763    0.2188831  85.83  0.001021598    1.589    0.371
        37 -10.7108    169.1770      9.5777   3.5698608526e+02   4.0526789996e+01    0.3935135    0.2199342  64.17  0.001458982    1.734    0.423
        38 -11.5846    247.0273      5.9919   3.5129051486e+02   2.3610184908e+01    0.3661684    0.2843581 -31.16  0.001824808    1.350    0.259
        39 -11.5902    243.9706      3.7218   3.5094538866e+02   2.4409543605e+01    0.3239252    0.2533919 -73.52   0.00227965    1.193    0.162
        40  -9.3081    153.0230      7.9864   3.5805623587e+02   4.4864583223e+01    0.3685936    0.2087879 -21.09  0.001743834    2.028    0.507
        41  -9.0639    145.2917      9.4205   3.5938838999e+02   4.6779988746e+01    0.2048487    0.1452023  44.91 0.0004610684    1.613    0.380
        42  -9.7342      1.1942      7.7872   6.2598136707e+01   7.8661740881e+01    0.3042436   0.08370311 -63.27  0.001001971    3.432    0.709
        43 -10.2443      1.8314      2.1827   5.8687613682e+01   7.9753870861e+01    0.2479828     0.133715 -42.62 0.0009226241    1.592    0.372
        44  -9.9363     70.5050      5.4724   1.2491618623e+01   6.7066454930e+01    0.2876205    0.1806868  34.14  0.001216043    1.648    0.393
        45  -9.9136     77.9121      7.2003   1.1120283929e+01   6.5040308841e+01    0.2586889    0.2176563  84.82 0.0006840453    1.268    0.211
        46 -10.2767     75.1315      3.0414   9.6323663176e+00   6.6141050130e+01    0.4826852    0.2369479  69.29  0.002079527    1.975    0.494
        47 -10.8440    232.9903      7.0143   3.5213669633e+02   2.6227615466e+01    0.2081538    0.1490428 -76.26  0.001395782    1.263    0.208
        48 -11.0005    235.4954      4.5047   3.5147441514e+02   2.5976875074e+01    0.2399742    0.1792825 -54.84  0.001063332    1.014    0.014
        49  -9.7921    184.9794      6.5105   3.5483604754e+02   3.6904814807e+01    0.3554656    0.1972396 -63.47  0.001804837    1.638    0.390
        50 -10.7753    122.1900      5.4496   9.5729060134e-01   5.3393194496e+01    0.2710283    0.1877782 -10.56  0.001016905    1.778    0.438
        51  -8.4921    157.6407      6.6606   3.5716742218e+02   4.3778629184e+01    0.1430994   0.09427293  44.75 0.0007037064    1.822    0.451
        52 -12.6343    105.8666     20.0781   1.0060253982e+01   5.6330837074e+01    0.3902983    0.3549581 -69.08 0.0004637769    1.150    0.130
        53 -11.0989    137.9018      3.9864   3.5836040245e+02   4.9261777265e+01    0.4147491     0.226332  75.30 0.0003485944    1.608    0.378
        54 -11.9680    132.3926      2.6891   3.5854469614e+02   5.0860830561e+01    0.9237295    0.2852205  76.25  0.003197085    2.940    0.660
        55  -9.2313     30.6657      4.3256   3.1950121345e+01   7.5795234523e+01    0.1837732    0.1232418 -37.00  0.001010507    1.606    0.377
        56  -9.9149     28.9651      1.4524   3.0959952983e+01   7.6495519384e+01    0.1847123    0.1706354  34.33 0.0003883733    1.250    0.200
        57 -10.8408    113.8664      2.3848   9.6797500460e-01   5.5921008212e+01     0.480924    0.2655604 -85.98  0.001447444    1.940    0.485
        58 -10.7463    205.6980      2.0404   3.5237428269e+02   3.2501794702e+01    0.3941417     0.195541 -85.21 0.0008810531    1.928    0.481
        59 -11.8002     64.1462      8.7908   1.6778836744e+01   6.8251993497e+01    0.5224274    0.4135712 -52.14  0.000514308    1.539    0.350
        60  -9.9313    105.5075      1.8886   2.1282627398e+00   5.8230498732e+01    0.2843412    0.2066763 -82.26  0.001157571    1.391    0.281
        61  -9.0077     33.7740      1.7938   2.7744177319e+01   7.5583018623e+01    0.2001523    0.1443112   1.37 0.0006836923    1.479    0.324
        62  -9.1938    152.2315      1.3240   3.5596943310e+02   4.5675905754e+01    0.1883544    0.1106836 -90.00 0.0003892276    1.548    0.354
        63 -10.4902     41.6154      3.8087   2.4292656009e+01   7.3802837521e+01    0.3522518    0.2116144  23.18  0.001506121    1.895    0.472
        64  -9.1635     82.2357      1.2621   6.7054634262e+00   6.4474217872e+01    0.1968315     0.111723  73.12 0.0006607902    1.672    0.402
        65  -8.6999     52.3527      1.7044   1.7193513508e+01   7.1744118148e+01    0.1290821    0.1047416 -79.72 0.0007033237    1.687    0.407
        66  -8.6662     12.6659      1.7262   4.6002362660e+01   7.8843561917e+01    0.1284743   0.08390623  -8.92 0.0003039346    1.599    0.375
        67  -9.4179     26.5652    127.4264   7.3223006797e+01   4.6901864279e+01    0.1941373    0.1699189  64.47 7.124589e-05    1.064    0.060
        68  -9.2555    188.2057    249.6242   4.7227436249e+01   1.7385501327e-01    0.1754805   0.08568793 -41.15  0.001032654    2.541    0.606
        69  -9.4476     27.2461    123.9906   7.2596050169e+01   4.7759604499e+01    0.2597205    0.1907198 -74.78 0.0002865244    1.297    0.229
        70  -9.6117     26.4328    131.4964   7.3693057436e+01   4.5830210248e+01    0.2777563    0.2077603 -62.07 0.0006455216    1.346    0.257
        71  -9.8937     22.8995    125.9871   7.4420061652e+01   4.7603643633e+01    0.2929229    0.1835064  89.80  0.001414354    1.561    0.359
        72 -10.7183    104.4947    122.3415   4.5027563773e+01   3.6728224108e+01    0.3922434    0.3140372  44.46  0.001008589    1.197    0.164
        73  -9.7101     50.1077    122.2295   6.3784629438e+01   4.5752128455e+01    0.3362384    0.2121635  -4.58  0.001374619    2.331    0.571
        74  -9.4401      2.1239    125.7022   8.1937238195e+01   4.9100675719e+01    0.2473434    0.1582404  78.30  0.001265329    1.421    0.296
        75  -9.6112     44.5090    119.5126   6.5462159791e+01   4.7166654499e+01    0.2683187    0.2096945 -88.84 0.0007279007    1.295    0.228
        76  -9.9744     43.4342    116.1955   6.5350626357e+01   4.8184698903e+01    0.3805394    0.2493428  37.87  0.001550702    1.477    0.323
        77 -10.4097     58.5538    115.3496   5.9383323571e+01   4.6446978854e+01    0.3175255    0.2567639 -70.55 0.0001617493    1.244    0.196
        78 -11.1906     16.9069     99.0235   7.3837397746e+01   5.5310039568e+01    0.8008863    0.3074775 -87.47  0.002254899    2.974    0.664
        79 -11.5066      9.3517     96.8328   7.6893635213e+01   5.6366587576e+01    0.4831513    0.4316427  57.33 0.0007685513    1.135    0.119
        80 -11.1498     43.4058     91.6815   6.0792677935e+01   5.4757879126e+01    0.8535094    0.2782599 -56.85  0.001529119    2.709    0.631
        81 -11.7427     14.2299    110.5477   7.6220783783e+01   5.2393359681e+01     1.027794    0.5521246  -8.06   0.00445173    2.471    0.595
        82  -9.3840    217.3198    249.3678   4.2076075944e+01  -3.0045749750e+00    0.1143906   0.06125092  -0.13            0    1.789    0.441
        83 -11.6033     30.8425     87.3295   6.5676977765e+01   5.7298046513e+01     1.683136    0.9988074  55.89  0.004771415    1.948    0.487
        84 -11.7465     45.0771     83.9607   5.8255106874e+01   5.6575891085e+01     1.255436    0.6979141  56.71  0.004977874    2.331    0.571
        85 -11.7329      7.0500     88.3492   7.7043392863e+01   5.8748057350e+01    0.8462883    0.4194791  18.94  0.003880709    2.131    0.531
        86 -11.2337      2.6761     81.5889   7.8414321317e+01   6.0727319178e+01    0.5478958    0.3089371 -86.34  0.001475081    1.669    0.401
        87 -10.6916      1.8269     71.2816   7.7722048879e+01   6.3456491648e+01     2.471382          nan -62.07   0.00596173    6.622    0.849
        88 -11.3151      8.0045    114.8830   7.9050982551e+01   5.1623522329e+01    0.2852775    0.2267072 -68.06 0.0003538705    1.203    0.168
        89 -12.5316      3.3525    109.2598   8.0456683601e+01   5.3365370696e+01    0.9286983    0.4238847 -75.27  0.002745762    1.932    0.482
        90 -11.5530     22.2439    114.0562   7.3396504170e+01   5.0858215978e+01    0.4916215    0.3376166  -3.04  0.001295529    1.767    0.434
        91 -12.0183     28.3882    112.6908   7.0782320972e+01   5.0698253603e+01    0.7874148    0.3969741  50.83  0.003314808    2.067    0.516
        92 -12.7322      7.2022     63.3978   7.3663500277e+01   6.5283938298e+01    0.4192961    0.2651401 -42.11 0.0004893932    1.493    0.330
        93 -12.4359      4.3360     61.2653   7.4984409467e+01   6.5951416700e+01    0.4557573    0.2195505 -32.89 0.0002466371    2.130    0.531
        94  -9.8027     79.1659    114.9749   5.1725004858e+01   4.3272388840e+01    0.2684969    0.2582827  63.83 0.0006949924    1.014    0.014
        95  -9.2472     67.2128    114.2150   5.5901390378e+01   4.5448564401e+01    0.2249569    0.1757434  68.56   0.00106351    1.402    0.287
        96  -8.8287    104.4707    112.5254   4.2663914074e+01   3.9067979746e+01    0.1596276    0.1517885  59.39 0.0001109318    1.037    0.036
        97  -9.7992     48.8128    111.9077   6.2513127538e+01   4.8680053667e+01    0.3154962    0.2036238  35.09 0.0008061629    1.507    0.336
        98 -11.9084     79.7766    108.0395   4.9895619137e+01   4.4927615315e+01    0.6155324    0.3885619  31.33  0.001265098    1.617    0.381
        99  -9.2094     85.9934    113.0616   4.8894050717e+01   4.2533410101e+01    0.2581269    0.1865136  69.62 0.0009295218    1.703    0.413
       100  -9.7389    174.8881    108.4097   2.3873479392e+01   2.4672257070e+01    0.2461974    0.2369543  25.20 0.0009144379    1.067    0.063
       101  -9.4280    120.2852    108.9976   3.7013356273e+01   3.6541503606e+01     0.226195    0.2064125 -46.80 0.0005385102    1.130    0.115
       102  -9.7975    102.0056    108.9812   4.2546061340e+01   4.0412250981e+01    0.4052669    0.2153411  28.13  0.001436405    2.390    0.582
       103  -8.9267    180.3267    106.3126   2.2322440979e+01   2.3892007369e+01    0.1454374    0.1112357   8.12 0.0007041983    1.665    0.399
       104  -9.6491     45.9059    104.6258   6.2340338788e+01   5.0997169026e+01    0.4983536    0.1276232 -51.68   0.00146705    3.701    0.730
       105 -10.8605     50.8611    100.7443   5.9507529796e+01   5.1393872553e+01    0.6668907    0.3204898 -43.82  0.002060407    2.356    0.576
       106 -10.3414     91.5929    102.0314   4.4192215748e+01   4.4183538442e+01    0.4961344     0.392405   1.92  0.002241774    1.643    0.391
       107  -9.7321     86.0199    103.3105   4.6478065285e+01   4.4956169188e+01    0.2936416    0.2667787 -11.16 0.0009228491    1.239    0.193
       108  -9.5613     57.3661    102.5440   5.7221172098e+01   5.0006787986e+01    0.3052154    0.1446262 -79.83 0.0009534822    3.441    0.709
       109 -12.0645     67.5818     95.2581   5.1364087208e+01   5.0298844268e+01     0.681419    0.5546899 -11.79   0.00214994    1.490    0.329
       110 -11.4770     79.9617     93.5640   4.6091274776e+01   4.8512206090e+01    0.8504006    0.7784967  54.17  0.004373919    1.082    0.076
       111  -9.6325    134.5160     99.9052   3.0698628316e+01   3.5315403111e+01     0.463787     0.207678  43.16  0.001654903    2.264    0.558
       112  -8.8055    120.6666    100.6823   3.4665948605e+01   3.8294154853e+01    0.1623255    0.1277268   4.73 0.0007048062    1.693    0.409
       113 -10.7219    210.4943     97.8877   1.5344532969e+01   1.9146290019e+01    0.2176896    0.2115961 -24.46 0.0002793752    1.097    0.088
       114  -9.2239    146.2785     98.3625   2.7383480101e+01   3.2922401309e+01    0.1558101    0.1226375   0.58 0.0004909026    1.671    0.402
       115  -9.9212    141.0652     95.2642   2.7774595139e+01   3.4743627553e+01    0.3254552    0.2251913 -21.95 0.0008339842    1.840    0.457
       116  -8.9061    183.6996     95.3642   1.8991760509e+01   2.5051151156e+01    0.1494046    0.1063608 -64.95 0.0005095814    1.727    0.421
       117 -10.4262    125.9758     93.9019   3.1273040098e+01   3.8536763670e+01    0.2692498    0.2482959 -44.63  0.001372975    1.112    0.101
       118 -10.6386    121.8801     93.6652   3.2338820283e+01   3.9533869327e+01    0.3076741    0.2768076 -71.13 0.0008907153    1.184    0.156
       119  -9.6361    116.7412     93.1230   3.3655398801e+01   4.0829697639e+01    0.3152579    0.2106037  21.45  0.001234605    2.134    0.532
       120 -10.0336     98.2363     90.6057   3.8720298035e+01   4.5510138714e+01    0.2934919    0.2424102  59.95 0.0006768819    1.255    0.203
       121  -9.8119     66.6017     88.4629   4.9960958853e+01   5.2186195086e+01    0.3603276    0.2549514   2.93  0.001020901    1.939    0.484
       122  -9.1992    199.0725     88.3186   1.4751880388e+01   2.2926308369e+01    0.1792277    0.1737429 -64.31 0.0004675898    1.081    0.075
       123 -11.6384    113.3480     83.5663   3.1786928360e+01   4.3662517259e+01    0.8481691     0.525474  70.99  0.003149367    2.378    0.580
       124  -9.6468    120.7147     81.3442   2.8970422746e+01   4.2378262456e+01    0.2671886     0.218372  73.07 0.0005603847    1.338    0.253
       125  -9.6637    118.9655     78.0609   2.8427801671e+01   4.3463904150e+01    0.2760425    0.2110168 -50.01 0.0006583093    1.356    0.263
       126 -10.1207    104.6252     87.0512   3.5556833520e+01   4.4907982175e+01     0.275423    0.2663483 -20.22 0.0009670772    1.100    0.091
       127  -9.9341     91.1858     85.7531   3.9697302506e+01   4.8131272510e+01    0.4678339    0.3094065  50.36  0.002007146    1.524    0.344
       128 -10.6898    143.2969     84.1963   2.4082884691e+01   3.6365450193e+01      0.28381    0.2489613 -59.38 0.0005392556    1.166    0.142
       129  -9.5152     82.8639     82.8609   4.1861456480e+01   5.0522107553e+01    0.3690795    0.2305575  40.21 0.0007503133    1.562    0.360
       130 -12.0417     75.2770     78.6930   4.3525410852e+01   5.3000722170e+01    0.7664077    0.5765474  76.51   0.00129487    1.753    0.430
       131  -9.7789    151.2820     83.2550   2.2023636305e+01   3.4616957459e+01    0.2358617    0.2217272   2.67 0.0005124242    1.181    0.153
       132 -11.1914     60.7758     83.3000   5.0998194721e+01   5.4452950748e+01    0.3003009     0.274048 -82.80 0.0003469294    1.158    0.136
       133 -10.9119     53.4383     76.1654   5.2264027801e+01   5.7393052840e+01    0.5042056    0.4126301 -70.05    0.0025596    1.299    0.230
       134  -9.8426     58.1677     77.4610   5.0470977065e+01   5.6331672876e+01    0.2818168    0.2546552  85.54 0.0005507374    1.212    0.175
       135  -9.9379     67.1363     81.5939   4.7776993831e+01   5.3801173855e+01    0.3658262    0.2957942 -42.24  0.001343756    1.275    0.216
       136  -9.3513    103.0023     79.5070   3.3719044873e+01   4.6925449956e+01    0.2503718    0.2092764 -48.22 0.0006076133    1.236    0.191
       137 -10.7647     89.0999     77.3943   3.7806142546e+01   5.0479635290e+01    0.5768294    0.3271197  48.90  0.002307007    1.762    0.432
       138 -10.5163     94.1343     75.9015   3.5521733736e+01   4.9709837369e+01    0.6318766    0.4665161 -68.60  0.002550596    1.666    0.400
       139  -9.6641    126.3012     76.9981   2.6094483765e+01   4.1889942709e+01    0.2708737    0.2164316  35.85  0.001278416    1.353    0.261
       140 -10.1332    180.3245     75.9349   1.4519183092e+01   2.9004875630e+01    0.3955057    0.2021737  58.27  0.001699258    2.034    0.508
       141  -9.8203     46.7130     75.1129   5.5166769866e+01   5.8629502009e+01    0.3819499    0.2218536 -42.58  0.001132695    1.797    0.444
       142 -10.9530     14.1712     74.0841   7.1596141838e+01   6.2133649303e+01     0.494891    0.2888281 -78.18  0.001796689    1.659    0.397
       143  -9.6583     13.6094     67.4175   7.0739122123e+01   6.3906270561e+01    0.4912282    0.1411882  11.42  0.001620275    3.988    0.749
       144  -8.6248    112.6239     75.2869   2.9364350693e+01   4.5551577481e+01    0.1653992    0.1246581  86.39 0.0007017474    1.723    0.420
       145  -9.8374    103.7337     74.6807   3.1904540142e+01   4.7781765276e+01    0.4090208    0.2743459  65.85  0.001697676    1.787    0.440
       146  -9.6691     65.3779     74.5586   4.6370213797e+01   5.5819262536e+01    0.4216816     0.258559  12.73  0.001510098    2.449    0.592
       147 -11.2567     27.5269     73.2940   6.4418616459e+01   6.1309857361e+01    0.5010284    0.3577561 -19.80     0.001113    1.569    0.363
       148 -10.7152     35.2331     71.6006   5.9989939510e+01   6.0956715213e+01    0.5664018    0.2352735  40.14  0.002153724    2.515    0.602
       149 -10.9656     41.3372     72.8805   5.7208387061e+01   5.9903268997e+01    0.2983958    0.2666705   1.57 0.0008748711    1.164    0.141
       150 -11.8190     40.5087     68.9357   5.6530294034e+01   6.1003316385e+01    0.5461678    0.2906114  29.62  0.001876594    1.875    0.467
       151 -10.3014    153.5007     72.1850   1.8328159969e+01   3.6043834621e+01    0.4623572    0.2526168  54.29  0.001928967    1.809    0.447
       152 -10.1216     80.7629     71.7144   3.9050791825e+01   5.3513193025e+01    0.4036463    0.3070099 -38.15  0.001679617    1.396    0.284
       153  -9.8014     77.9733     67.1764   3.8577052314e+01   5.5099193582e+01    0.2992538    0.2143901 -82.88   0.00124624    2.097    0.523
       154 -11.0942    122.6079     68.7055   2.4389775575e+01   4.4392481041e+01    0.5564662    0.3633356  55.36  0.001559478    1.486    0.327
       155  -8.6965     19.6136     71.7037   6.8276598631e+01   6.2386492196e+01    0.1539424   0.09195945 -34.30  0.000701568    1.774    0.436
       156  -9.4371     86.0969     69.5143   3.6250061952e+01   5.2867163300e+01    0.2647917    0.2290899  -8.18  0.001299982    1.346    0.257
       157  -9.7225    131.0792     67.0703   2.1701323009e+01   4.2564587882e+01    0.3024384    0.2178772  64.40  0.001381101    1.403    0.287
       158  -8.9842    216.7031     66.6501   7.1979460596e+00   2.2468266689e+01     0.125176   0.09978286   6.86  0.000415604    1.683    0.406
       159  -9.8793     91.9736     57.2443   2.9618014053e+01   5.4064263026e+01    0.3931701    0.2684734  88.30  0.001106447    2.399    0.583
       160 -10.9627     88.5550     53.6842   2.9442298803e+01   5.5549179194e+01    0.8853354     0.374475 -30.56  0.002790846    3.444    0.710
       161 -11.1724     92.3684     62.5502   3.1472767164e+01   5.2921527384e+01    0.5165298    0.3120485  58.82 0.0008549502    1.832    0.454
       162  -9.1515    192.2969     65.3867   9.9359979824e+00   2.7892525155e+01    0.1752463    0.1293452  84.12 0.0004186063    1.504    0.335
       163 -10.1575    105.3630     63.0412   2.7370593865e+01   4.9735774839e+01     0.469376    0.2557727  41.49  0.001827578    1.919    0.479
       164 -10.4185    106.3891     58.2468   2.5318761970e+01   5.0388744814e+01    0.3920505    0.2914136 -73.78   0.00137886    1.717    0.418
       165  -9.2078    201.6540     63.6768   8.2686907064e+00   2.6060944076e+01    0.1330335    0.1043942  20.34 0.0007049951    1.739    0.425
       166 -10.5732    158.8747     62.6709   1.4464263377e+01   3.6289383230e+01    0.4088075    0.2356137  49.91  0.000777623    1.803    0.445
       167  -9.4780     58.0105     62.1526   4.5564169560e+01   6.0026333600e+01     0.366212    0.2808623 -78.91  0.001632504    1.684    0.406
       168 -10.0240     61.5061     60.9326   4.3466941635e+01   5.9688278592e+01    0.3007678    0.2258219  27.39  0.001056162    1.364    0.267
       169 -10.6622     50.9954     56.4972   4.6999817597e+01   6.2491884337e+01    0.8687501    0.3169919 -55.50  0.002977799    2.943    0.660
       170 -10.8091     40.2189     56.5701   5.2816589774e+01   6.4064116305e+01    0.3649344    0.2301974  34.07  0.001156334    1.588    0.370
       171 -11.3894     43.2530     60.6275   5.2526803918e+01   6.2681900652e+01    0.4333218    0.2535114 -59.60 0.0007761375    1.747    0.428
       172 -11.3014     46.4160     59.1916   5.0359253607e+01   6.2571675534e+01    0.5419573    0.3079931  53.23  0.002209096    2.319    0.569
       173  -9.5784    169.1509     62.1449   1.2531828895e+01   3.3832165099e+01    0.2058074    0.2002379  26.57 0.0002878631    1.167    0.143
       174  -9.9156    150.3808     60.8108   1.5496318537e+01   3.8729603860e+01    0.3892579    0.1833045  56.16  0.001508313    2.050    0.512
       175 -10.3384    127.0964     50.7133   1.7101335452e+01   4.6388191025e+01    0.4393599    0.2867936 -23.81  0.001913874    1.838    0.456
       176 -11.2628    124.5694     56.3304   1.9675011228e+01   4.6114339374e+01     1.124661    0.5310166  45.81  0.004167479    2.215    0.549
       177 -10.3933    122.9168     44.4918   1.5834478659e+01   4.8464923629e+01     0.559018    0.2803919  65.84  0.001906767    2.030    0.507
       178 -10.1202     50.7720    249.4298   7.5646153777e+01   1.6815953227e+01    0.1627963   0.09409724  22.34 0.0009528046    1.645    0.392
       179 -11.7159    116.8571     47.9016   1.8571939147e+01   4.9516413936e+01    0.7054827    0.5207376  -7.79  0.002540329    1.829    0.453
       180 -11.3826    120.1704     40.6095   1.5031036918e+01   4.9777484107e+01    0.5513085    0.2511654  46.33 0.0007556872    2.314    0.568
       181 -11.6671    119.3542     36.9675   1.3837258303e+01   5.0524715767e+01     0.417672    0.3538106 -54.24  0.001131333    1.227    0.185
       182 -10.1689    113.9699     60.7253   2.4010758564e+01   4.8039718920e+01     0.340973    0.2939531  76.30  0.001139487    1.195    0.163
       183 -11.0865     32.2227     53.4152   5.6358259828e+01   6.5811910444e+01     0.442296    0.4268411   2.38  0.002436409    1.065    0.061
       184 -11.3328     26.3127     57.2806   6.1059046016e+01   6.5493548774e+01    0.7010157    0.5132257  45.79  0.002138323    1.528    0.346
       185  -9.5956     21.3237     57.6785   6.4142310964e+01   6.5841155726e+01    0.2108418    0.1141348  33.73 0.0002749197    1.920    0.479
       186 -12.1400     75.0097     53.7264   3.4699882096e+01   5.8569311605e+01    0.8391747    0.6196711 -63.70  0.003900034    1.677    0.404
       187 -12.1266     73.0107     47.0433   3.2757877575e+01   6.0316666889e+01    0.6468667    0.4483069 -72.81  0.002737101    2.263    0.558
       188 -10.9236    157.4492     55.0730   1.2422653219e+01   3.7837050411e+01    0.4781381    0.3763116 -66.71  0.001387534    1.297    0.229
       189  -9.5637    238.0395     55.5795   2.5257778101e+00   1.9747479466e+01    0.1849256    0.1326523 -38.45 0.0001662698    1.154    0.133
       190 -11.1195    154.9862     48.7799   1.0901380820e+01   3.9408655900e+01    0.4427499    0.2790016 -17.83 0.0009026815    2.058    0.514
       191  -9.1161     67.3838     54.7999   3.8424172825e+01   5.9915525049e+01    0.2079864     0.140645 -34.86  0.000934566    1.608    0.378
       192 -10.3599     60.6335     52.1826   4.0508160807e+01   6.1769233489e+01    0.5108271    0.2629485 -56.15  0.002000927    2.327    0.570
       193 -10.2676     61.3991     46.5236   3.7770349708e+01   6.2799228652e+01    0.5164931    0.3738385  11.40  0.002408767    1.726    0.420
       194  -9.3254    201.8093     52.8711   5.5150536184e+00   2.7524316015e+01    0.1953193    0.1804219  13.18  0.001204813    1.346    0.257
       195  -9.6678     93.7967     52.3740   2.7096593173e+01   5.4552974749e+01    0.2237896    0.1359456  41.96 0.0004598503    1.648    0.393
       196  -9.5733     27.2675     47.4399   5.7396465016e+01   6.7778828485e+01    0.2507239    0.1356948  14.20  0.001110383    2.032    0.508
       197 -10.3414     46.8737     48.8330   4.6239551767e+01   6.4869785211e+01    0.5336588    0.3257706 -18.21  0.002180198    2.418    0.586
       198 -12.5044     40.7223     44.2586   4.7881569946e+01   6.6810835128e+01     1.142496     0.413214  33.63  0.003256529    2.682    0.627
       199 -10.7501     20.5587     45.9609   6.1274921191e+01   6.8775111581e+01    0.3580819    0.2980999 -39.55  0.001051903    1.099    0.090
       200 -11.2250     25.3005     40.3621   5.6136047247e+01   6.9629789100e+01    0.7687521     0.517673  74.76  0.003565306    2.406    0.584
       201 -10.3558    243.9835     51.0602   1.0415209870e+00   1.9202833263e+01    0.1868282    0.1592404 -74.44 0.0004445574    1.223    0.182
       202 -10.7140    145.0244     50.1000   1.3120308414e+01   4.1793160749e+01    0.3410472    0.2794158  -4.53 0.0003889736    1.550    0.355
       203 -10.4631    146.1183     43.6899   1.0815779303e+01   4.2453119092e+01    0.5053568    0.2484936 -50.56  0.001469686    2.195    0.544
       204  -9.5986     18.0543     40.3896   6.1170218243e+01   7.0306577391e+01    0.3014285    0.1527384 -44.91  0.001282775    1.793    0.442
       205 -10.4277     13.1872     46.8010   6.6452028027e+01   6.9130213630e+01    0.4612831    0.1761969 -45.12  0.001592748    2.343    0.573
       206  -9.7511    188.9671     49.2991   6.1096582895e+00   3.0941328324e+01    0.2347547    0.1642731 -49.10 0.0005173599    1.299    0.230
       207  -9.3963     55.0902     50.2401   4.2459284075e+01   6.3190715827e+01    0.2191525    0.1883702   0.95  0.001159377    1.225    0.184
       208  -9.6622     51.8631     48.2142   4.3296644874e+01   6.4185524345e+01    0.2771069    0.2026018 -31.26 0.0007597073    1.453    0.312
       209  -9.2037    137.2603     49.3707   1.4416354403e+01   4.3935249065e+01    0.1496111    0.1183819  19.21 0.0004227388    1.651    0.394
       210 -10.0978     83.1912     46.5572   2.8494618219e+01   5.8127443520e+01    0.4395844    0.2778437 -12.06  0.001696519    2.589    0.614
       211  -9.6217    174.1638     48.4474   7.8284053751e+00   3.4618862130e+01    0.3372145    0.1407015  77.56  0.001156121    3.272    0.694
       212  -9.0442      2.0267     48.5446   7.4299824376e+01   6.9242502580e+01    0.1830074    0.1263909   6.54 0.0008112825    1.552    0.356
       213  -8.7120    161.4961     47.4377   9.4189212563e+00   3.7935719171e+01    0.1470589    0.1328463 -77.46 0.0008072175    1.025    0.025
       214  -9.7267    199.7821     45.0059   3.7282531814e+00   2.9019978486e+01    0.3933645    0.1756927  87.06  0.001486727    3.324    0.699
       215 -10.4738    138.3742     44.5402   1.2550694231e+01   4.4369929104e+01    0.4357026    0.2215471  41.58  0.001644313    2.461    0.594
       216  -9.1658    233.5424     44.5359   4.5116097387e-01   2.1969188442e+01    0.1231151    0.1000392 -49.14 0.0001433997    1.014    0.014
       217  -9.5615     97.0009     65.2882   3.0874395824e+01   5.1290936254e+01    0.2447739    0.2207474 -17.01 0.0004824119    1.234    0.190
       218 -10.2935    156.0370     42.2660   8.6829787039e+00   4.0065262295e+01    0.3003601    0.2498102 -37.06  0.001009691    1.240    0.194
       219 -10.2197     98.7097     41.5093   2.1113525844e+01   5.5220217210e+01    0.3796079    0.2647989  85.22  0.001592622    1.883    0.469
       220  -9.9665     56.7499     41.7256   3.7936921478e+01   6.4648427438e+01    0.2923511    0.2206076  49.93 0.0008030238    1.404    0.288
       221  -9.2725     90.9108     41.1171   2.3435727913e+01   5.7230066242e+01    0.2216484    0.1999148  89.48 0.0003733577    1.209    0.173
       222 -10.6135    173.9479    246.2894   4.9464617704e+01   2.2677900400e+00    0.3350458    0.1420647  22.08  0.001708889    2.109    0.526
       223  -9.1802     12.5362     35.6132   6.3595886915e+01   7.1842281402e+01    0.2394516    0.1275209 -82.48  0.001035719    2.577    0.612
       224  -9.2672     12.1116     29.7888   6.1873491722e+01   7.3208205421e+01     0.410654    0.2710031 -35.99  0.001901994    1.378    0.274
       225 -10.8939      3.7369     36.0299   7.0398057496e+01   7.2227083984e+01    0.4991823    0.3455677 -66.97  0.001601372    1.348    0.258
       226  -9.6663      6.3718     30.8313   6.6860033152e+01   7.3326433339e+01    0.3500189    0.1522828 -18.46  0.001132387    2.658    0.624
       227 -10.4303    249.8067     39.0887   3.5806063500e+02   1.9556977575e+01    0.2406222    0.1433004 -51.36 0.0003064524    1.363    0.266
       228  -8.6053    189.0000     37.9754   3.0488377885e+00   3.2419937097e+01    0.2203712   0.07266364 -29.96  0.000564296    2.919    0.657
       229 -10.7892     61.1123     36.0240   3.3092399969e+01   6.4875863703e+01     0.483217    0.3048534 -26.81  0.001451102    1.858    0.462
       230  -9.6929     67.3438     32.2814   2.8381925691e+01   6.4209293105e+01    0.3837332    0.2412541  28.23   0.00169709    1.861    0.463
       231  -9.5473    227.1730     37.4027   3.5934242567e+02   2.4089547067e+01      0.16698    0.1057236 -81.78 0.0007033656    1.688    0.408
       232  -9.1480    206.2155     37.1706   1.0886493968e+00   2.8565182039e+01    0.1783975    0.1265039 -60.88 0.0003036105    1.272    0.214
       233 -10.7433    153.3758     35.6552   6.9942390340e+00   4.1648756124e+01    0.3069692    0.2692347 -85.57 0.0005809665    1.048    0.046
       234 -11.4096    174.4411     33.2524   3.3997805008e+00   3.6557491946e+01    0.6503601    0.3254853 -61.70  0.002719849    2.245    0.555
       235 -10.1230    177.6334     28.6258   1.6989170099e+00   3.6326274504e+01    0.3286898    0.2274984  59.14  0.001734891    1.518    0.341
       236  -9.3057    213.9619     34.5355   3.5974724442e+02   2.7189360784e+01    0.1736488    0.1455629 -76.64 0.0003653993    1.135    0.119
       237  -9.4081    216.9982     31.9910   3.5888344068e+02   2.6839643452e+01    0.1717192    0.1491188  28.11 0.0003256444    1.572    0.364
       238 -11.7296    126.1951    240.6476   5.8480811729e+01   9.0999109378e+00    0.3460686    0.2047895  40.88  0.002025675    1.500    0.333
       239 -11.8097    107.2155     31.4229   1.4548071628e+01   5.4526252092e+01    0.7347879    0.3891309  39.61  0.002902345    2.218    0.549
       240 -11.0180    131.4402    240.6187   5.7359884572e+01   8.4230415070e+00     0.228016    0.1691618  25.25 0.0009697071    1.023    0.023
       241  -9.3841     93.9741     35.3227   1.9937485771e+01   5.7389804938e+01    0.2177641    0.1750312  59.76 0.0004888587    1.168    0.144
       242 -10.4652    239.7837     32.2505   3.5727108389e+02   2.2204142615e+01    0.3197958    0.2015553  57.94  0.001411764    1.962    0.490
       243 -10.1034    169.2605     23.1062   1.0110604757e+00   3.9071132310e+01    0.7745003    0.1832975  71.41  0.002406107    3.979    0.749
       244 -10.3060     67.8462    240.2590   7.1320202971e+01   1.6493392814e+01    0.2010815    0.1461753 -26.25  0.001224926    2.044    0.511
       245 -10.0642    150.7857     27.1314   4.6045327910e+00   4.3400689839e+01    0.3719501    0.2292376  48.68  0.001413814    1.776    0.437
       246 -11.1224    144.2986     25.4563   4.9944033284e+00   4.5326040783e+01    0.6700553    0.4385304  65.10  0.003272263    1.415    0.293
       247 -10.9933    159.8594     29.3792   4.0748920026e+00   4.0749758728e+01     0.429407    0.2771915  51.76  0.001167113    1.663    0.399
       248 -11.5917    147.0757    237.7999   5.3743216457e+01   6.8100954236e+00    0.4575021     0.289841  39.69  0.002756955    1.506    0.336
       249  -9.8444     45.4089     25.2683   3.5866531928e+01   6.9827264391e+01     0.427754    0.2296053 -24.82  0.001770834    2.492    0.599
       250 -10.2875     73.2596    238.0525   6.9940163077e+01   1.6241614870e+01    0.2150763    0.1765023  55.21  0.001483094    1.207    0.172
       251  -9.9188    167.1717    237.8055   4.9675735817e+01   4.2274293083e+00    0.1686041    0.1148896   4.83 0.0008473069    1.353    0.261
       252  -9.2098     15.5094    233.4927   8.2629914045e+01   2.3268442053e+01    0.1739802   0.09451649 -67.54  0.001026169    2.260    0.558
       253  -8.9202    247.4531    230.5231   3.4549588586e+01  -4.0905343870e+00    0.1066615   0.07112651  -1.13 -3.923537e-05    1.049    0.046
       254 -12.1275    127.4661     28.3563   8.8816751988e+00   4.9502366778e+01     1.032603    0.4431815  76.77  0.003266527    2.783    0.641
       255 -10.6809    189.1627     27.4833   1.9038982584e-01   3.3656598865e+01    0.4044013    0.3191661  20.49  0.002207831    1.794    0.443
       256 -10.9070    183.1705     25.6244   2.7022419249e-01   3.5317434932e+01     0.389511    0.2374934 -62.99  0.001792381    1.577    0.366
       257 -10.4115    250.3070     27.0652   3.5550955378e+02   2.0812825412e+01    0.1860313    0.1317345 -38.43 0.0006751772    1.186    0.157
       258 -10.3511    229.9933     27.3793   3.5685016827e+02   2.4676373850e+01    0.2723584    0.2117779  81.47  0.001229682    1.382    0.276
       259  -9.9170    200.7542     24.4117   3.5833728098e+02   3.1300638153e+01    0.2288212    0.1604118  29.52   0.00119961    2.178    0.541
       260  -9.4231     97.8678     26.0671   1.4704103054e+01   5.7704831630e+01    0.2312322    0.1952106 -81.24 0.0006390591    1.295    0.228
       261  -9.8716    212.8050     23.5949   3.5718404151e+02   2.8701857316e+01    0.2517662    0.1658154  -1.48  0.001286132    2.417    0.586
       262  -9.7089    216.6782     20.0165   3.5604802692e+02   2.8258426130e+01    0.1861192    0.1613013  84.18 0.0003422436    1.251    0.201
       263 -10.6105    133.8557     22.0283   5.4225702969e+00   4.8535490023e+01    0.4791436    0.4038951  86.11  0.002018522    1.081    0.075
       264  -9.1143    189.5565    229.5341   4.4221204823e+01   2.5253516517e+00    0.1182344   0.08819102   9.78  0.000142446    1.012    0.012
       265  -8.7336    108.3045    229.3004   6.1173563910e+01   1.3315716063e+01    0.1213837   0.08875138   2.18 0.0006304101    1.591    0.371
       266  -9.2688     86.0267     23.5159   1.7006897490e+01   6.1084771178e+01    0.2141204    0.1328355  56.14 -5.432811e-05    1.451    0.311
       267  -9.2688    197.6430    227.6760   4.2455781862e+01   1.7706018149e+00    0.1241215   0.07171953   2.19  0.000704515    1.770    0.435
       268  -9.0474    200.6434    225.7094   4.1619993035e+01   1.6554566981e+00    0.1217511   0.07117925   3.86 0.0007027695    1.684    0.406
       269  -8.9996    233.6708    219.6689   3.5062231212e+01  -1.4529778215e+00     0.116525   0.06486946  -1.07 0.0007051717    1.716    0.417
       270  -9.5771     10.1702    217.5834   8.3341333417e+01   2.6859261653e+01    0.1478812    0.1033654  17.71 0.0003783464    1.582    0.368
       271  -9.8370      4.5218     22.2727   6.5526423619e+01   7.5368548481e+01    0.3975033    0.2270814  21.44  0.001979535    1.809    0.447
       272  -8.9464    164.5137    211.4630   4.6494783721e+01   8.4263259172e+00    0.1277179    0.1030132  16.79 0.0002040854    1.025    0.024
       273  -9.2960     40.4853    207.5264   7.5569202166e+01   2.5993602445e+01    0.1322737    0.1007999  49.15 6.787958e-05    1.053    0.050
       274 -11.0548      5.8902    198.7935   8.3792927609e+01   3.1158303849e+01    0.3644732    0.1605751 -68.96  0.001819142    2.478    0.596
       275  -9.1404     78.5151    203.5182   6.5583635430e+01   2.2225616662e+01    0.1368938    0.1122419  41.14 0.0002482392    1.013    0.013
       276 -10.8300    178.9881     20.6075   3.5927171994e+02   3.6911486684e+01    0.5923956    0.2515219  51.53  0.002409427    2.790    0.642
       277  -9.4867    233.8474    196.1494   3.1252648954e+01   1.3467191947e+00    0.1631622    0.1317924  -7.59 0.0005968079    1.170    0.145
       278  -9.5009     16.0674    190.3277   8.0887941823e+01   3.2172192034e+01    0.2380044    0.1344262  70.08  0.001012855    1.616    0.381
       279 -11.8601      4.9192    183.8146   8.3561784786e+01   3.4571597775e+01    0.5947284    0.4009785  62.85  0.003345736    1.228    0.185
       280  -9.7050     74.8763     19.2173   1.8613962880e+01   6.4411714791e+01    0.2454782     0.198916  17.04 0.0006978315    1.353    0.261
       281  -9.1076    250.4642    176.4872   2.5366418164e+01   1.7787008270e+00    0.1132068   0.08535835 -11.78 7.789449e-05    1.018    0.018
       282  -9.4592     27.9250    175.8601   7.6856138741e+01   3.4437928000e+01    0.1897818    0.1813173 -52.28 0.0007195434    1.274    0.215
       283  -9.5669     16.1606    173.9587   8.0077251339e+01   3.5963871619e+01    0.2386234    0.1075561  61.64  0.001083276    2.043    0.510
       284 -11.2372    238.2095     16.3674   3.5391099670e+02   2.4242118197e+01     0.350321    0.1714054  89.12  0.001702047    2.192    0.544
       285  -9.7513     39.1691    173.1930   7.3422950213e+01   3.3924136424e+01    0.2048879    0.1359654  54.08 0.0008928521    1.339    0.253
       286  -9.1938     50.7955    170.0680   6.9724726668e+01   3.3352136088e+01    0.1721752    0.1097316 -78.04 0.0004208375    1.657    0.396
       287  -9.8255    211.1183     16.0053   3.5545895333e+02   2.9895737976e+01    0.1845608    0.1486825 -57.68            0    1.021    0.021
       288  -9.3651    147.1818     15.8897   1.3484976518e+00   4.5624903154e+01    0.2915936    0.1483183  49.58  0.001242888    2.147    0.534
       289  -9.7276    186.7629     14.8422   3.5697060023e+02   3.5633975024e+01     0.214753    0.1677285  70.89   0.00110171    1.318    0.241
       290 -11.6595      9.3138    166.9052   8.1687506403e+01   3.8212883611e+01    0.5024571    0.2528379  28.66  0.002414166    1.814    0.449
       291 -12.2902     13.0176    160.5092   8.0281050032e+01   3.9489812997e+01    0.6243674    0.4632249 -36.33   0.00200926    1.724    0.420
       292 -10.3361     18.1042    165.2519   7.9035149143e+01   3.7904105392e+01    0.3271691     0.198201 -67.85  0.001704632    1.700    0.412
       293  -9.7531    205.0814    162.9326   3.0122458307e+01   9.9247103909e+00    0.1982846    0.1625198  -7.34 0.0007204539    1.057    0.054
       294 -10.8261     28.4256    161.2311   7.5660787164e+01   3.7963176724e+01    0.3880197    0.2510198 -83.16  0.001914161    1.523    0.343
       295  -9.7565    214.9546    161.2514   2.8090581198e+01   8.6628464059e+00    0.2103465     0.155744 -25.28 0.0005233078    1.196    0.164
       296  -9.1011    223.7068    156.3376   2.5711407829e+01   8.0680940775e+00    0.1125977   0.09413367 -52.50  0.000318119    1.646    0.393
       297  -9.6973    104.5900    154.2145   5.1558768333e+01   2.9178650717e+01      0.32634    0.2449889 -73.01   0.00157429    1.591    0.372
       298 -10.3369      9.7464    154.9099   8.0976984921e+01   4.1131130660e+01    0.2677487    0.1534645  69.38    0.0013541    1.594    0.373
       299  -8.6019    144.3501    154.2815   4.1065243178e+01   2.1950275543e+01    0.1502544    0.1105709   4.37 0.0007014666    1.649    0.394
       300 -11.7472     16.6207    148.4572   7.8434831769e+01   4.2235023791e+01    0.8035802    0.3319485  81.84  0.003197374    2.598    0.615
       301 -11.3922     21.2247    150.5630   7.7106545422e+01   4.1314971565e+01    0.2994702    0.2619285  -8.37 0.0004667875    1.388    0.279
       302 -11.5489     24.0075    147.9963   7.6010878247e+01   4.1729350355e+01    0.3448859    0.3022981  68.39 0.0009079819    1.013    0.013
       303 -10.7300      4.3432    153.2769   8.2554122330e+01   4.1918541534e+01     0.326944     0.165503  29.23  0.001619232    1.835    0.455
       304  -9.1459     55.4351    152.4762   6.6293953948e+01   3.7153399684e+01    0.1455456    0.1321298  58.34  6.64698e-05    1.008    0.007
       305 -11.3946     48.1043    147.0062   6.7991204814e+01   3.9467350124e+01    0.6744123    0.4808567 -30.07  0.002894624    1.821    0.451
       306 -10.1934    104.2511    147.4822   5.0403502359e+01   3.0805331760e+01    0.3129174    0.2511755 -69.38 0.0005617684    1.405    0.288
       307 -12.0394      3.3635    142.1580   8.2354604440e+01   4.4783426642e+01    0.7500745    0.3502037  47.65    0.0035335    1.895    0.472
       308 -10.4446     15.4923    140.8883   7.8282768727e+01   4.4271833940e+01    0.2613595    0.2052049   4.13  0.001467486    1.500    0.333
       309 -11.6595     11.9410    136.0602   7.9149163116e+01   4.5787886261e+01    0.6801491    0.3778964 -50.79  0.003236081    1.983    0.496
       310  -8.2955     70.3246    151.2953   6.1397851233e+01   3.5409996957e+01    0.1463039    0.1154289 -19.58 0.0005740022    1.622    0.384
       311 -10.5874     33.0561    143.9662   7.2658111600e+01   4.1917173498e+01    0.3106718    0.2724952  76.76 0.0008140883    1.057    0.054
       312 -10.6723     40.5212    138.0882   6.9468004169e+01   4.2671442308e+01    0.3634485    0.2755934 -81.70 0.0006899261    1.299    0.230
       313  -9.2522     31.8652    137.1738   7.2366043888e+01   4.3816347584e+01    0.3099322    0.1808751  28.15 0.0007600026    1.667    0.400
       314 -11.0513     24.2574    135.8877   7.4884485049e+01   4.4861550810e+01    0.5921395    0.3755689 -30.22  0.002790583    2.064    0.516
       315  -9.7423     20.5124    134.0051   7.6023950027e+01   4.5674301773e+01    0.3340691    0.2509122  32.87  0.001154621    1.315    0.239
       316 -10.7475     30.4564    132.4981   7.2362060115e+01   4.5190560025e+01    0.6326604    0.2714675 -49.79  0.002463146    2.586    0.613
       317  -9.3846     79.6338    138.0386   5.6222252557e+01   3.7320149395e+01    0.2122554     0.193968 -77.48 0.0006111227    1.135    0.119
       318  -9.6126     36.0545    133.5139   7.0486794673e+01   4.4360882802e+01    0.2896557     0.137425  24.48 0.0006897257    2.106    0.525
       319  -9.2438     73.3303    132.3328   5.7274683985e+01   3.9780414755e+01    0.1577415    0.1187869 -22.72 0.0007052048    1.723    0.420
       320  -9.7185    103.8751    130.8246   4.7123144082e+01   3.4821878035e+01    0.2215637    0.2035359  15.62 0.0003049803    1.145    0.126
       321  -9.8150     63.3229    150.5507   6.3513159439e+01   3.6591626182e+01    0.6822571    0.3347302   1.57  0.001693598    6.699    0.851
       322  -9.0403     50.6326    129.7574   6.4773459794e+01   4.3680953353e+01    0.2081545    0.1362733 -87.26 0.0005573159    1.671    0.402
       323 -11.0257     11.1744    125.5545   7.8673113176e+01   4.8597176866e+01    0.6528772    0.2892512 -60.56  0.002583105    2.150    0.535
       324  -8.7613    182.4765    129.4542   2.7355316166e+01   1.9389639699e+01    0.1382581    0.1307414 -17.94 7.450212e-05    1.049    0.047
       325  -8.8935     93.3370    129.3047   5.0080257417e+01   3.7148207299e+01    0.1582623    0.1238403 -10.32 0.0007039647    1.671    0.402
