#   1 NUMBER                 Running object number                                     
#   2 MAG_AUTO               Kron-like elliptical aperture magnitude                    [mag]
#   3 X_IMAGE                Object position along x                                    [pixel]
#   4 Y_IMAGE                Object position along y                                    [pixel]
#   5 X_WORLD                Barycenter position along world x axis                     [deg]
#   6 Y_WORLD                Barycenter position along world y axis                     [deg]
#   7 A_WORLD                Profile RMS along major axis (world units)                 [deg]
#   8 B_WORLD                Profile RMS along minor axis (world units)                 [deg]
#   9 THETA_WORLD            Position angle (CCW/world-x)                               [deg]
#  10 FWHM_WORLD             FWHM assuming a gaussian core                              [deg]
#  11 ELONGATION             A_IMAGE/B_IMAGE                                           
#  12 ELLIPTICITY            1 - B_IMAGE/A_IMAGE                                       
         1 -12.7082    235.7077     44.7246   3.5726717437e+02   2.2927948866e+01     4.105387     1.169939 -57.06   0.01310936    5.540    0.820
         2 -12.7313    242.0735     89.8328   6.3885404184e+00   1.5847628441e+01     2.671734    0.6037406 -41.01  0.004864949    3.227    0.690
         3  -8.1496    100.5546     10.0073   2.7355660298e+00   5.8572661397e+01    0.2024746    0.1710953  74.02 0.0003651002    1.074    0.069
         4  -7.1055    232.5958      8.7355   3.4959453165e+02   2.7574217444e+01    0.1004462   0.08381867  47.20 0.0006968062    1.738    0.425
         5  -7.7738    236.8266      2.6531   3.4810952291e+02   2.7382238222e+01    0.1579911   0.08385532 -76.82 0.0009532034    1.762    0.433
         6  -9.7008     70.6202    226.0117   6.5513988052e+01   1.8010607999e+01    0.2236652    0.2079954 -30.43 0.0005936956    1.316    0.240
         7  -9.2547    244.1117    250.1231   3.4488125433e+01  -5.4093415198e+00    0.1636171   0.09706245  -4.42  0.001239966    1.270    0.213
         8  -7.8269     77.0535    224.9617   6.3916680591e+01   1.7446864194e+01    0.1803332    0.1421787  -6.68 0.0004083888    1.572    0.364
         9  -8.3010    163.0969    217.5941   4.3936171526e+01   7.6053877005e+00    0.1754063    0.1588566 -17.92 0.0005018371    1.239    0.193
        10  -7.1316     78.6660    218.2841   6.2902318094e+01   1.8566935204e+01    0.1355422   0.08159227  51.68 0.0003820553    1.619    0.383
        11  -7.7543    244.0111    209.4688   2.8480530457e+01  -8.0968668464e-01    0.1517647   0.09035469  21.03  0.001035186    1.618    0.382
        12  -7.9375     10.9729    208.0000   7.8666709479e+01   2.7974132070e+01    0.1991488   0.06189656  23.31 0.0008088128    2.987    0.665
        13  -8.9255     15.4821    200.0465   7.7215523380e+01   2.9349823339e+01    0.2123825    0.1610434  33.36  0.001318739    1.245    0.197
        14  -8.9391    192.1749    193.5417   3.4458329401e+01   7.5321290078e+00    0.5105661    0.2755026 -58.96  0.001962953    4.757    0.790
        15  -9.8173    218.2283    185.2175   2.8469598736e+01   5.3620735318e+00    0.3347297    0.2621532  34.35  0.002272178    1.537    0.349
        16  -9.8451    214.7541    182.7549   2.8610607933e+01   6.1675434543e+00     0.350999    0.1929011   1.30  0.001347805    2.613    0.617
        17  -8.8528     91.5881    184.0782   5.5641328014e+01   2.4125966584e+01    0.3232553     0.238803 -35.37   0.00113244    1.598    0.374
        18  -7.8852    246.5006    181.0761   2.3419164943e+01   2.5080713249e+00    0.1638748    0.1251891  -7.24 0.0006038148    1.101    0.092
        19  -9.5697    220.8497    174.9591   2.6218824816e+01   6.5117039807e+00    0.4551996    0.2989924 -56.40 0.0008463113    2.625    0.619
        20  -8.1283     29.9430    178.3600   7.2061247903e+01   3.3115709338e+01    0.1812779     0.156967  36.78 0.0004554345    1.154    0.133
        21 -10.2699    196.6597    173.6563   3.0102192556e+01   1.0057995926e+01    0.5550429    0.3709436 -48.83  0.001827418    1.774    0.436
        22  -9.1685    204.3559    165.9853   2.7303444339e+01   1.0168607561e+01    0.5591302    0.2866178  25.43  0.002694815    2.354    0.575
        23 -10.7847    206.2449    172.1601   2.8134352027e+01   8.9251312164e+00     0.439879     0.392353 -61.99  0.002562153    1.653    0.395
        24  -9.9423    209.2819    170.7047   2.7346109400e+01   8.7238400900e+00    0.4126906    0.2883286 -65.32  0.002071554    2.933    0.659
        25  -9.6761    230.8938    168.3121   2.3445566676e+01   6.1592746652e+00    0.4473092    0.1837949 -45.43  0.002048522    2.841    0.648
        26  -9.4497    186.1567    169.6427   3.1297197825e+01   1.2283335806e+01    0.3697755     0.302812  40.93  0.001461944    1.414    0.293
        27  -9.3062    186.9665    165.0272   3.0262955026e+01   1.2945292310e+01    0.4310135    0.2546997  35.71  0.001737692    1.752    0.429
        28  -8.8680    178.8130    167.5422   3.2318038916e+01   1.3781941539e+01    0.3179938    0.2744372  39.31  0.001945005    1.317    0.241
        29  -7.3349     72.9736    164.0304   5.7997033191e+01   3.1530547333e+01    0.1680429    0.1581608  67.62            0    1.032    0.031
        30  -7.7704    220.6484    161.9156   2.3840111774e+01   8.4743622377e+00    0.1680128    0.1303035 -28.77 0.0005569573    1.125    0.111
        31 -12.0246    238.5856    147.0049   1.8345331827e+01   8.1869591841e+00      2.82951     1.093936 -28.36   0.01267086    2.576    0.612
        32  -9.1271    250.3830    248.7831   3.3372857739e+01  -5.8146168452e+00     0.223299    0.1245264 -28.84  0.001642464    1.629    0.386
        33  -9.3320    161.7015    154.6714   3.3296711845e+01   1.8971665523e+01     0.523102    0.2984257 -46.37  0.002434969    1.757    0.431
        34  -8.2457    164.3562    151.7170   3.2126487329e+01   1.9079510734e+01    0.2707393    0.2186389  73.89 0.0006260554    1.790    0.441
        35 -10.0985    156.1111    155.0132   3.4582280993e+01   1.9872260373e+01    0.5407661    0.3008722 -41.49   0.00246887    1.758    0.431
        36 -10.4247    155.6406    149.5383   3.3560613575e+01   2.1037860111e+01    0.5789341    0.3968396  27.68  0.002290227    1.556    0.357
        37  -9.1200      6.4360    154.7114   7.7429781931e+01   4.1098067835e+01    0.2616069    0.1178035 -89.89    0.0011365    2.086    0.521
        38  -8.6690     15.9348    152.7656   7.4343590209e+01   4.0881372479e+01     0.311967    0.2135027  -7.54  0.001086117    1.931    0.482
        39  -8.8229    134.2088    147.6263   3.8182277319e+01   2.5295003011e+01     0.436458    0.2178594 -55.72  0.001711438    2.299    0.565
        40  -8.7794    132.6785    139.4810   3.6827379992e+01   2.7348950842e+01    0.6806363    0.2301347 -55.62  0.001958269    4.129    0.758
        41  -8.0659    172.5897    147.1473   2.9473992043e+01   1.8508693266e+01    0.2684162     0.126582 -45.05 0.0009752156    2.067    0.516
        42  -7.9495    225.6315    146.4951   2.0106620448e+01   1.0088732452e+01    0.2060311    0.1294472 -47.84   0.00109922    1.753    0.429
        43  -9.0004     67.9252    144.1475   5.6502652351e+01   3.7307688831e+01    0.6466802    0.3037285  53.57  0.002348618    2.550    0.608
        44  -9.2327    154.1895    139.0467   3.1635301792e+01   2.3403712722e+01    0.2396675    0.2090173  49.42 0.0002532758    1.243    0.196
        45 -10.3545    238.8971    114.8876   1.1946489850e+01   1.2787068427e+01      0.40887    0.3036105 -16.96  0.000937351    1.354    0.261
        46 -10.5456      4.7564    137.6683   7.6958231601e+01   4.5679622059e+01    0.2915886     0.244113  86.30 0.0002357437    1.054    0.051
        47 -11.0602    232.3120    109.2446   1.1597889160e+01   1.4649406925e+01    0.6966395     0.405641  52.86  0.001454231    2.141    0.533
        48  -8.6275    167.3369    138.1427   2.8614061542e+01   2.1148801443e+01    0.2223167    0.1860652  20.91 0.0003568635    1.260    0.207
        49  -8.0852    212.5865    133.9483   1.9559127577e+01   1.4037751563e+01    0.3998248     0.175132 -27.08  0.001651908    2.638    0.621
        50  -8.5579     14.9544    143.1494   7.3935531764e+01   4.3496405115e+01    0.2138701    0.1641909  60.86 0.0005687959    1.198    0.165
        51  -8.3726    228.9091    131.1823   1.6580174742e+01   1.1908890847e+01    0.1809938    0.1428221 -46.00 0.0004260948    1.311    0.237
        52  -8.7210    160.7497    129.6766   2.8097128727e+01   2.4029132657e+01    0.3906673    0.1899284 -36.89  0.001477934    2.078    0.519
        53  -9.7588    147.1965    151.4755   3.5873043098e+01   2.2149781288e+01    0.4784944     0.333218 -55.48  0.001714721    1.600    0.375
        54 -11.0093      3.0049    118.4540   7.6255034570e+01   5.0946611455e+01    0.9507654    0.3860397 -84.46  0.003851929    2.251    0.556
        55  -9.6070    186.1376    121.5184   2.1259643998e+01   2.0734128880e+01    0.5476497    0.1763135 -39.78  0.001963539    2.790    0.642
        56 -10.1720     52.9851    112.5407   5.6036648614e+01   4.7831196219e+01    0.5181013    0.3519939 -34.52  0.001540044    1.750    0.429
        57 -10.6508     49.0257    118.5182   5.8665610992e+01   4.6735182606e+01    0.7321612    0.4812382 -60.70  0.002288513    1.451    0.311
        58 -11.4068     40.6410    116.3855   6.1488374190e+01   4.8334433662e+01     1.006197    0.8632554 -46.79  0.004400831    1.213    0.176
        59 -10.4284     32.4198    116.6908   6.4719408775e+01   4.9139672292e+01    0.5378556    0.3127056  22.73  0.001357957    1.833    0.454
        60  -9.5279    136.6089    120.2529   3.1396350051e+01   3.0760156684e+01    0.6419222    0.3322026  40.72  0.002574806    2.013    0.503
        61  -8.1508     82.8931    121.0255   4.7139782736e+01   4.0938041595e+01    0.2213765    0.2145157  80.71            0    1.009    0.009
        62  -9.6495    186.3709    110.9082   1.8757465915e+01   2.2560553899e+01    0.3538848    0.2545944 -36.26 0.0007799091    1.254    0.203
        63  -9.9325    178.2564    111.0623   2.0237329218e+01   2.4122592629e+01    0.4744436    0.3400626  42.46  0.002455237    1.538    0.350
        64  -7.7051    150.0044    111.9787   2.6188046816e+01   2.9719662594e+01    0.2317525    0.1830779  -0.28 0.0006299203    1.637    0.389
        65  -7.1949    126.0266    112.0189   3.2025573951e+01   3.4737354800e+01    0.1760231    0.1718375 -54.04 0.0009376323    1.006    0.006
        66  -9.8923    201.9867    110.0157   1.5997095658e+01   1.9766053152e+01    0.3778225    0.2421142  53.88  0.001991211    1.832    0.454
        67 -10.4258    196.0022    109.9885   1.6935378800e+01   2.0882026828e+01    0.4499509    0.2924054  55.87  0.001562817    1.813    0.449
        68  -9.8648     60.0905    109.2592   5.2641206563e+01   4.7698530878e+01    0.4451602    0.2524165  42.47   0.00185781    1.777    0.437
        69  -9.7542    159.0297    105.5284   2.2607497450e+01   2.9095833532e+01    0.3575838    0.3302105  63.94 0.0007526393    1.160    0.138
        70  -8.6495    134.8697    105.2681   2.8002635040e+01   3.4318662485e+01    0.4677001    0.2099681 -49.85  0.001696137    2.300    0.565
        71 -10.4084    177.3242    102.7743   1.8386137684e+01   2.5800153452e+01    0.4171875    0.3239203 -32.97 0.0009255849    1.225    0.183
        72 -11.0470    249.5002     89.8332   5.6212628558e+00   1.4657156787e+01     1.694241      0.15642 -35.80  0.004663236    6.302    0.841
        73  -8.2235    160.8872    111.1515   2.3640111071e+01   2.7623096743e+01    0.2659129    0.2064424  40.11 0.0006808711    1.387    0.279
        74  -8.7351     58.6527    101.2471   5.1381215348e+01   5.0035001546e+01    0.2528513    0.2400303 -26.77 0.0002570575    1.119    0.106
        75  -8.5936    215.8050     97.5542   1.1190053870e+01   1.9234337951e+01    0.3436678    0.2246411 -73.80  0.001553774    2.318    0.569
        76  -8.2807    143.6747    103.9347   2.5548761997e+01   3.2694823790e+01    0.2735185    0.2207893  64.83 0.0008865945    1.370    0.270
        77  -9.7511    226.5823     89.9249   8.1409098202e+00   1.8459202259e+01    0.3454734    0.1968269 -42.40 0.0008555432    1.434    0.303
        78  -8.0658    110.9840     91.6946   3.0596280548e+01   4.2455546248e+01    0.2066735    0.1943591  61.42 0.0002593385    1.068    0.064
        79  -7.7227    219.4081     90.1911   9.0696237613e+00   1.9700387949e+01    0.1884873   0.09734802 -44.13 0.0007223411    1.640    0.390
        80  -7.2636     60.6973     84.7774   4.6263769010e+01   5.3961036871e+01    0.1431005    0.1169739  -9.26 0.0002123842    1.465    0.318
        81  -8.0860    218.4320     82.9788   7.5544025655e+00   2.0951843983e+01    0.2064614    0.1780581  25.54 0.0006878769    1.482    0.325
        82  -9.1496    183.9056     79.1195   1.1296002682e+01   2.8462472809e+01     0.295077    0.2513196   3.10  0.001118114    1.485    0.327
        83  -8.4083    151.9023     79.9999   1.7155923479e+01   3.5464714092e+01    0.2155629    0.2007486 -57.22 0.0003107981    1.010    0.010
        84  -8.1934    192.0184     79.3775   1.0159205840e+01   2.6707113218e+01    0.3257985    0.1703185  62.52  0.001493594    2.196    0.545
        85 -11.6096    235.8091     66.6439   2.0538564155e+00   2.0089545611e+01     1.227234    0.4177527 -45.57  0.003414575    2.378    0.579
        86  -7.8634    195.1569     75.0776   8.6429104522e+00   2.6726220639e+01    0.1977569    0.1724274 -21.83 0.0003937914    1.253    0.202
        87  -8.2456    177.4578     72.0567   1.0430339473e+01   3.1010021192e+01    0.2119514    0.1273679 -38.25 0.0003690006    1.513    0.339
        88  -8.0515    169.6475     64.8244   9.6693747949e+00   3.3929869070e+01    0.2110931    0.1146277 -45.17  0.000359369    1.686    0.407
        89  -8.4694    194.0848     56.0400   3.9474569588e+00   2.9774733122e+01    0.1949059    0.1667441 -52.11            0    1.019    0.018
        90 -10.0091    224.5467     52.8869   2.0824042042e-02   2.3988761575e+01    0.4775927    0.3645094  -0.59  0.002842403    1.914    0.477
        91 -10.1128    225.9877     47.2714   3.5861500921e+02   2.4435006894e+01      0.39289    0.1746047 -34.27  0.001960232    1.856    0.461
        92  -8.0411    171.0138     49.8278   5.2245973721e+00   3.5870683961e+01    0.2408214    0.1459013 -75.24  0.001007347    1.985    0.496
        93  -7.6391    208.5087     49.5264   7.4616755181e-01   2.7619645630e+01    0.1280803    0.1094569 -50.15 0.0004155288    1.059    0.056
        94  -7.9669    213.9592     47.3444   3.5969679751e+02   2.6793485353e+01    0.2388835    0.1576558  -0.02  0.001158606    2.701    0.630
        95  -7.3793    188.3318     45.2923   1.8067037372e+00   3.2523868794e+01    0.1248363    0.1035746  29.29 0.0002202032    1.632    0.387
        96  -7.8010    179.5350     43.2267   2.2714116569e+00   3.4800518085e+01    0.1822284    0.1296674 -19.41 0.0008041835    1.675    0.403
        97  -7.4628    203.1818     45.6753   3.2751049350e-01   2.9240142786e+01    0.1665407    0.1119995  61.56 0.0005807218    1.676    0.403
        98  -7.7513     80.0064     36.7555   2.0491444671e+01   6.0249834698e+01    0.1944955    0.1767281  49.74 0.0001935902    1.052    0.050
        99 -12.0063    217.5753    109.4275   1.3582577140e+01   1.7083358107e+01     1.450936    0.9319523  56.94  0.008086363    1.935    0.483
       100 -13.0046    241.3812    120.0744   1.2689989605e+01   1.1662980059e+01     4.099095    0.8819627  41.16   0.01141902    9.508    0.895
       101  -8.0360    102.0465     26.8104   9.7007697508e+00   5.6298521562e+01    0.2074931     0.181485 -82.55 0.0002751577    1.166    0.143
       102  -8.6126     85.9291     25.7413   1.3507478096e+01   6.0458369585e+01    0.2357863    0.1979369 -46.47            0    1.270    0.213
       103  -7.5708    248.9916     19.5047   3.5107769643e+02   2.3432170983e+01    0.1624606   0.06515482 -66.39 0.0008104751    2.580    0.612
       104  -7.9613    243.3841    240.6962   3.3274691264e+01  -4.3424307357e+00   0.08464584    0.0741898  12.63 0.0007020397    1.789    0.441
       105  -9.2199    150.0016    148.0123   3.4508770344e+01   2.2354581980e+01    0.5141135    0.2757004 -59.50  0.002012641    2.614    0.617
       106  -7.8844    250.4759     16.4946   3.5039054340e+02   2.3491021035e+01    0.1144713   0.08119004 -51.11 0.0008101353    1.014    0.014
       107  -8.2498    217.4643     13.8171   3.5152011399e+02   3.0027903898e+01     0.186891    0.1470374 -84.18 0.0004281768    1.250    0.200
       108  -7.4382    148.4612     10.5681   3.5602594913e+02   4.6197987545e+01    0.1331661    0.1184513 -87.09 8.479903e-05    1.061    0.058
       109  -7.9145    172.5174    234.4753   4.4483391403e+01   3.9029272130e+00    0.1175916   0.09164828   8.59 0.0005394626    1.001    0.001
       110  -7.8614     16.3143    228.0522   7.8191455470e+01   2.3296621129e+01    0.1605418    0.1250327  61.59 0.0004340408    1.109    0.098
