#   1 NUMBER                 Running object number                                     
#   2 MAG_AUTO               Kron-like elliptical aperture magnitude                    [mag]
#   3 X_IMAGE                Object position along x                                    [pixel]
#   4 Y_IMAGE                Object position along y                                    [pixel]
#   5 X_WORLD                Barycenter position along world x axis                     [deg]
#   6 Y_WORLD                Barycenter position along world y axis                     [deg]
#   7 A_WORLD                Profile RMS along major axis (world units)                 [deg]
#   8 B_WORLD                Profile RMS along minor axis (world units)                 [deg]
#   9 THETA_WORLD            Position angle (CCW/world-x)                               [deg]
#  10 FWHM_WORLD             FWHM assuming a gaussian core                              [deg]
#  11 ELONGATION             A_IMAGE/B_IMAGE                                           
#  12 ELLIPTICITY            1 - B_IMAGE/A_IMAGE                                       
         1 -12.8555    190.3121     60.5077   7.9878040903e+01   2.9710962796e+01     1.058962    0.7509732  12.29  0.004805964    1.569    0.363
         2 -10.6454    155.3391     13.8701   7.0309845057e+01   4.4720616169e+01    0.4065145    0.1981241 -12.37  0.001557507    2.243    0.554
         3 -11.6107    106.6254      7.8068   7.8685206589e+01   5.7563640274e+01    0.2818027    0.1979935 -16.71 0.0008333623    1.352    0.260
         4 -10.1309    151.2920      8.9250   6.9133581329e+01   4.6290105754e+01    0.2671102    0.2018983 -64.42  0.001016274    1.693    0.409
         5  99.0000    207.8583      7.4966   6.0611802311e+01   3.1312269846e+01    0.4712585    0.2090468  -0.13  0.001648667    3.155    0.683
         6 -10.7376     38.3885      2.7714   1.0251860034e+02   7.0480721158e+01    0.1878128   0.09360545 -31.87 0.0009516231    1.693    0.409
         7  -9.9119    159.4784      1.3382   6.4834938267e+01   4.4788813390e+01    0.1499914      0.12808  44.41 0.0002023473    1.078    0.072
         8 -13.1916     68.1679    144.7816   1.2910854241e+02   3.7159393607e+01     2.750994     1.096881  61.19  0.008613599    4.229    0.764
         9 -14.7135    161.6557     68.4432   8.8245693515e+01   3.5574925378e+01     2.913199     1.413595  54.99  0.002757142    2.204    0.546
        10 -11.7930    134.9254    120.9298   1.0886462149e+02   3.1683116092e+01    0.6572018     0.186299 -47.15   0.00192215    3.727    0.732
        11 -12.7956    134.5819    107.5286   1.0583937566e+02   3.4357563624e+01     1.154839    0.2828631 -45.13  0.003361249    4.182    0.761
        12 -13.2050    160.9309    128.1906   1.0446891420e+02   2.5268986385e+01    0.4944232    0.4430175  10.51  0.001834528    1.083    0.077
        13 -12.6688    152.7249    119.6314   1.0437425934e+02   2.8450140520e+01    0.4457057     0.326593  -1.17  0.002147146    1.738    0.424
        14 -11.7075    121.8787    113.1134   1.1034636101e+02   3.5647110958e+01    0.2886969    0.2244104 -89.94  0.001059806    1.749    0.428
        15  -9.5305    111.5447    113.4643   1.1307274700e+02   3.7399163885e+01    0.1338563    0.1331852 -76.12 0.0001812508    1.003    0.003
        16 -18.4184    248.2940    117.8589   8.5359682848e+01   8.8965658580e+00      14.6853     1.557014 -29.02   0.03524437    7.081    0.859
        17  -9.4755    113.6850    121.7235   1.1425827387e+02   3.5338965362e+01    0.1319918    0.1071935  -3.79 0.0001798569    1.566    0.361
        18 -12.8663    120.2446    102.5787   1.0830018024e+02   3.8085534206e+01    0.5681862    0.3783547 -32.54  0.002703558    1.658    0.397
        19 -11.4121    111.9448    104.2989   1.1090825533e+02   3.9230906988e+01    0.2560236    0.2039012 -78.72  0.001163077    1.547    0.354
        20 -10.8529    139.1256    103.8882   1.0380767613e+02   3.4159929238e+01    0.2147567    0.2036309  78.11 0.0003530295    1.202    0.168
        21 -11.9100    143.8223     99.7386   1.0158272504e+02   3.3989672462e+01    0.3680013    0.2910152  -3.52 0.0007857253    1.453    0.312
        22 -11.3868    131.3623     96.3558   1.0382703126e+02   3.7190275881e+01    0.2686513    0.2495079 -89.51 0.0002142141    1.259    0.206
        23 -10.8328    113.4427     95.0307   1.0824460497e+02   4.0886335233e+01     0.216567    0.1899822  36.14 0.0003459852    1.163    0.140
        24  -9.9477    101.0179    136.3242   1.2008576361e+02   3.4409591949e+01    0.1770186    0.1560702  48.35 0.0004157903    1.098    0.089
        25 -11.9862    136.7583     89.2380   1.0051163426e+02   3.7471337684e+01     0.344471    0.3113167 -88.78 0.0007703712    1.364    0.267
        26 -13.0643    148.7748     83.0153   9.5724826906e+01   3.6035119737e+01    0.4043951    0.3627558 -71.18  0.001226957    1.380    0.276
        27 -10.6077    207.8808     78.1431   8.1904473051e+01   2.2914322752e+01    0.3555796    0.1902375  -9.60  0.001115264    2.348    0.574
        28 -10.9958    142.9128     79.5140   9.6137283292e+01   3.7977615952e+01    0.2234338    0.1486517  45.06 0.0003763666    1.504    0.335
        29 -10.7169    218.0219     76.4474   7.9691787742e+01   2.0760031927e+01    0.3522008     0.245495  77.13  0.001577221    2.109    0.526
        30 -15.5732    179.7621     75.7977   8.6597378048e+01   3.0018222057e+01     12.04744     4.346559 -43.25   0.02684247    3.354    0.702
        31 -13.2717     58.5441    172.7877   1.3414205783e+02   3.2816996361e+01     0.305253    0.2679886 -52.90  0.001027446    1.461    0.316
        32 -10.4307    205.0821     64.8609   7.8559549719e+01   2.5439050575e+01    0.2234293    0.1996196 -55.72 0.0008377896    1.329    0.248
        33 -16.7519    201.8879     23.5030   6.6340887198e+01   3.1319891458e+01     14.52662     1.940464  59.53   0.03848571    4.691    0.787
        34 -13.2362    202.6636     50.3071   7.4589595555e+01   2.7974947790e+01     0.623271    0.3101528  46.07  0.002491714    1.974    0.493
        35 -14.5245     65.2038    167.3176   1.3225962404e+02   3.3083971863e+01     0.782592    0.5680978  53.53  0.002953406    1.213    0.175
        36 -14.1888     70.0216    160.9880   1.3057873879e+02   3.3722137104e+01    0.8059601    0.4586778  51.82  0.001649347    1.614    0.380
        37 -12.7616     72.1897     59.2988   1.1101987124e+02   5.5193396233e+01    0.6507351    0.2654089  23.23  0.002160403    4.425    0.774
        38 -10.4385    225.7253     55.1054   7.2482360160e+01   2.1682189219e+01    0.1978992    0.1774394 -51.24  0.001082856    1.267    0.211
        39 -11.3938    135.9007    129.9128   1.1055379888e+02   2.9779389143e+01    0.5923501    0.1698384 -47.94  0.001947814    3.755    0.734
        40 -11.0068    215.3669     49.1825   7.2277456271e+01   2.4933032331e+01    0.1916414    0.1630422 -30.60 0.0004530994    1.168    0.144
        41  -9.7567    211.2456     47.6108   7.2426795318e+01   2.6153018163e+01    0.1552818    0.1056239 -47.39 0.0001826712    1.663    0.399
        42 -11.2858    219.6674     44.8638   7.0386270657e+01   2.4388372427e+01    0.2057508    0.1983435 -18.25 0.0007378847    1.080    0.074
        43  99.0000    204.7354     42.8154   7.1961290542e+01   2.8386086706e+01    0.4303284    0.1430473  47.50  0.001346327    2.912    0.657
        44 -10.0126    189.6828     40.7860   7.3741497253e+01   3.2517249863e+01    0.1532419    0.1053106  34.54 0.0002167397    1.483    0.326
        45 -11.9638    216.4646     37.0020   6.8505099094e+01   2.6097649524e+01    0.3118194    0.2127893  54.82   0.00122854    1.471    0.320
        46 -12.4460    195.8792     52.0539   7.6263041912e+01   2.9466618945e+01    0.3371956    0.2698362 -59.37  0.001197014    1.539    0.350
        47 -11.2917    230.1598    166.9106   9.9009003413e+01   6.3579016921e+00    0.3022271    0.1706952 -39.20  0.001301198    2.310    0.567
        48 -12.6502    192.2016    152.2516   1.0307831952e+02   1.5254868435e+01     0.351888    0.2397877 -46.79  0.001634108    1.902    0.474
        49 -10.5377    207.4472     35.1376   6.9195675148e+01   2.8599723660e+01    0.2066959    0.1378847 -27.18 0.0004432338    1.438    0.304
        50 -12.7052    189.4042    148.1922   1.0279869135e+02   1.6392002581e+01    0.2956715    0.2748477  31.91  0.001645304    1.191    0.160
        51 -12.2000    167.9050    148.2748   1.0719566310e+02   2.0503088939e+01    0.3987463    0.2450565  64.04  0.001719395    2.621    0.619
        52 -10.8298    192.5995     15.5797   6.5048791781e+01   3.4578293101e+01    0.1835954    0.1355595 -30.03 0.0005095017    1.354    0.261
        53 -14.4600     11.3074    205.6451   1.4474455368e+02   3.1642086877e+01     1.154296    0.5290933  57.04  0.008421062    1.599    0.375
        54 -11.1684    133.4374    144.0910   1.1389629571e+02   2.7562483587e+01    0.9242303     0.226097 -55.02    0.0021194    8.970    0.889
        55 -15.0377     21.2216    199.5496   1.4284324982e+02   3.1792347050e+01     2.049014    0.6733255  61.57    0.0114687    2.672    0.626
        56 -15.2693     34.0254    192.4648   1.4024274312e+02   3.1818438305e+01    0.8352077    0.7214419  72.69  0.003581195    1.214    0.176
        57 -11.4959    192.5051    194.4592   1.1062776275e+02   9.4713441252e+00    0.7587244    0.4110405 -60.58  0.002350877    8.857    0.887
        58 -13.9034     50.6507    177.6298   1.3611959020e+02   3.2781033493e+01     1.397516    0.7533995  61.05  0.008786621    1.677    0.404
