#   1 NUMBER                 Running object number                                     
#   2 MAG_AUTO               Kron-like elliptical aperture magnitude                    [mag]
#   3 X_IMAGE                Object position along x                                    [pixel]
#   4 Y_IMAGE                Object position along y                                    [pixel]
#   5 X_WORLD                Barycenter position along world x axis                     [deg]
#   6 Y_WORLD                Barycenter position along world y axis                     [deg]
#   7 A_WORLD                Profile RMS along major axis (world units)                 [deg]
#   8 B_WORLD                Profile RMS along minor axis (world units)                 [deg]
#   9 THETA_WORLD            Position angle (CCW/world-x)                               [deg]
#  10 FWHM_WORLD             FWHM assuming a gaussian core                              [deg]
#  11 ELONGATION             A_IMAGE/B_IMAGE                                           
#  12 ELLIPTICITY            1 - B_IMAGE/A_IMAGE                                       
         1 -11.1328     20.0803     29.4554   7.6627756401e+01   7.0209482474e+01    0.5955547    0.5047236  59.62   0.00254582    1.867    0.464
         2 -11.4543     70.2689     12.3777   4.5041553546e+01   6.4154435702e+01    0.6049425    0.4055004 -64.96  0.001597465    2.496    0.599
         3  -9.5386     80.0319     21.0175   4.5939309175e+01   6.1133305777e+01    0.4290906    0.2618739 -16.81  0.001843776    1.894    0.472
         4 -10.5871     62.9740     16.3253   4.9392960377e+01   6.5233811440e+01     0.795917    0.2836251  47.32  0.003083748    2.411    0.585
         5 -11.1869     62.7658     23.9230   5.3078562177e+01   6.4352703500e+01    0.6228904    0.4219465 -52.68  0.002384363    2.095    0.523
         6 -11.5346     75.6371     29.0802   5.0824498299e+01   6.1076857403e+01     1.184722    0.5788074  60.45  0.005010499    2.482    0.597
         7 -10.4925     89.4679     27.5521   4.5953834828e+01   5.8287916816e+01      0.59176    0.2462295 -25.25  0.001483201    2.820    0.645
         8 -10.7986    132.1793     21.7901   3.4600445766e+01   4.8974400579e+01    0.3876345    0.3363169 -18.12  0.001214956    1.323    0.244
         9 -11.3839     35.3350     26.8145   6.6809862054e+01   6.8684844600e+01    0.7685603    0.4140425  41.40  0.003022881    1.987    0.497
        10 -11.0355     31.0758     12.5274   6.1631332172e+01   7.1405328472e+01    0.2826419    0.2748323  42.21 0.0004866294    1.491    0.329
        11 -10.1415     40.8674     21.5309   6.1373490719e+01   6.8621204530e+01    0.3462966    0.2436282 -45.94  0.001651548    1.796    0.443
        12  -9.8143     36.1990     20.2300   6.3059163333e+01   6.9549805588e+01    0.3916864    0.2522306  -9.46  0.002142875    1.705    0.414
        13 -12.1284    105.0091     21.1878   3.9572130681e+01   5.5472165407e+01    0.3741381    0.2756042  -4.59 0.0004802455    1.638    0.390
        14  -9.6625      1.8005     25.1720   8.6476056238e+01   7.2651726851e+01    0.6811743    0.1970542 -37.92   0.00276219    3.086    0.676
        15  -9.2605     14.2346      7.9774   6.9220840320e+01   7.4355240078e+01    0.3779726    0.1574991  36.35  0.001875068    2.437    0.590
        16 -10.4629      7.4123      9.0325   7.4608281273e+01   7.4964149355e+01    0.6252136    0.3317762  28.71  0.002088052    1.859    0.462
        17 -11.4877      5.2999     16.2057   7.9960886019e+01   7.3995854143e+01    0.3938934    0.3074946   4.10  0.001124154    1.181    0.153
        18 -10.4099      9.3090     15.2992   7.6685043868e+01   7.3771383300e+01    0.2750249    0.1810525  -5.60 0.0007028829    1.409    0.290
        19 -10.8032    174.4327     13.5266   2.6784649128e+01   3.9947961757e+01    0.5596853     0.388254  -3.38  0.002247222    2.148    0.534
        20  -9.1747    220.5359     13.5127   2.3046386344e+01   3.0152140916e+01    0.2141302    0.1433231 -43.89 0.0006788345    1.307    0.235
        21  -9.3530    218.4915     10.5802   2.2558035855e+01   3.0866892069e+01    0.2492547    0.1529114 -81.03  0.001563822    1.483    0.325
        22 -10.1029    243.6730     14.0796   2.1738635045e+01   2.5707947131e+01    0.2587259    0.1670282  57.36  0.001558414    2.056    0.514
        23 -10.8936    116.6336     15.3164   3.5084032223e+01   5.3337757041e+01    0.4263873    0.2763982  79.40 0.0005790023    1.580    0.367
        24 -10.2444     16.6710     16.7208   7.2519335725e+01   7.2745480211e+01    0.3781333    0.2301026  12.71  0.002173181    1.607    0.378
        25 -10.5751    144.8577     12.8356   2.9929374010e+01   4.6870711642e+01    0.3908721    0.2124739  69.21  0.001160868    1.641    0.391
        26 -10.5607    126.2741     13.4024   3.2782496257e+01   5.1230800540e+01    0.5268328    0.3263469 -59.53  0.001913456    1.849    0.459
        27 -11.3077    133.0114     12.6767   3.1513598881e+01   4.9696172654e+01    0.2481624    0.2142265 -62.11 0.0002826242    1.180    0.152
        28 -10.0303    210.0171     13.0368   2.3672455732e+01   3.2318878214e+01    0.3034976    0.2739613  45.06   0.00158971    1.517    0.341
        29  -9.7981    211.6066      9.7843   2.2845011890e+01   3.2333725471e+01    0.3166485    0.1511041 -48.39 0.0009444545    1.716    0.417
        30 -10.0518    208.9916      4.7287   2.1911203015e+01   3.3377042985e+01    0.2416015    0.1938027 -44.83 0.0009059967    1.248    0.199
        31  -9.7557    206.4801      2.4030   2.1561044260e+01   3.4119026295e+01    0.2206569    0.1446661 -67.87 5.902312e-05    1.269    0.212
        32  -9.0360    152.4193     13.2039   2.9092740124e+01   4.5054675428e+01    0.2905858    0.1518179 -53.16  0.001435009    1.978    0.494
        33  -9.3940    200.1992     12.5592   2.4298000986e+01   3.4410405016e+01    0.2381252    0.1355853 -44.67  0.001388118    1.527    0.345
        34  -8.9210     98.7170      5.6183   3.4875716002e+01   5.8420144514e+01    0.3962592    0.2236536  10.43  0.001886861    2.540    0.606
        35  -9.4192     96.9842     12.9638   3.8163509911e+01   5.8167954974e+01    0.2125136    0.1822526  16.87 0.0004555685    1.258    0.205
        36  -8.9288    111.4730      3.9924   3.1913687473e+01   5.5566874125e+01    0.2165766    0.1246061  -3.02 0.0009114203    2.365    0.577
        37 -10.2293    101.6239     11.1505   3.6449604161e+01   5.7261928590e+01    0.4026595    0.3231403  34.95  0.002053517    1.267    0.211
        38 -10.1876    107.6158      7.2577   3.3796261652e+01   5.6204025562e+01    0.3946566    0.2134223  66.60  0.001290472    1.630    0.387
        39  -9.9802    106.4019      2.8624   3.2366802835e+01   5.6848941426e+01    0.4116321    0.1875957  42.05  0.001889476    2.310    0.567
        40  -9.4890    191.5366     11.0486   2.4632219876e+01   3.6416701918e+01    0.2677224     0.198277 -30.35   0.00111938    1.490    0.329
        41  -9.2763    190.6821      7.1210   2.3760938041e+01   3.6993138445e+01     0.214406    0.1758495 -64.33 0.0005146601    1.062    0.058
        42  -9.6490     54.7069      9.0611   4.8827435470e+01   6.7659731381e+01    0.2945756    0.2386394 -78.99  0.001033635    1.972    0.493
        43  -9.5612     90.6936      9.0303   3.7996730963e+01   5.9972861549e+01     0.418322    0.1657564  48.61  0.001841992    2.180    0.541
        44  -9.0045     87.9586      6.4892   3.7567448223e+01   6.0816353542e+01    0.1990259    0.1870984 -15.11 0.0008833196    1.197    0.164
        45 -10.8496     79.2115      4.3448   3.8776728677e+01   6.2957774417e+01     0.242871    0.2097124 -18.77 0.0009996024    1.298    0.230
        46 -11.0856     74.5013      3.0379   3.9421878918e+01   6.4101628842e+01    0.6159366    0.4828092 -33.95   0.00388238    1.478    0.323
        47 -11.8349    156.1144      3.5055   2.5905775459e+01   4.5091230401e+01    0.4440939    0.2228504  54.45 -3.887658e-05    2.017    0.504
        48 -12.1385    160.0010      1.7952   2.5046077558e+01   4.4343290338e+01    0.4467553    0.3158104 -63.22  0.001372957    1.325    0.245
        49  -9.2889    138.9604      6.7590   2.8825205242e+01   4.8824930643e+01    0.2385084    0.1472921  72.45 0.0008084817    1.429    0.300
        50 -10.4455    136.9540      3.0083   2.7909129174e+01   4.9619160319e+01    0.4557505    0.2456075 -75.37  0.002105752    2.163    0.538
        51  -8.8500    124.0110      6.4318   3.0783501730e+01   5.2397658341e+01    0.2386436    0.1569277 -46.63  0.001335718    1.631    0.387
        52  -9.5755     37.9619      4.7181   5.3613429857e+01   7.1215000669e+01     0.318801    0.1852904  10.23  0.001667504    2.052    0.513
        53  -9.8050     42.0212      1.4028   4.9817972684e+01   7.0827685151e+01    0.2479176    0.1148968  45.75 0.0003740992    1.839    0.456
        54 -10.3068     13.4502      3.1972   6.6822408065e+01   7.5114596317e+01    0.2543904    0.1882774 -36.35  0.001694803    1.552    0.355
        55 -11.5154     21.6989      5.7162   6.3054166414e+01   7.3678067494e+01    0.4727525     0.298609  53.17  0.002225973    2.626    0.619
        56 -10.6322     21.5225      1.3741   6.0443466508e+01   7.4239755304e+01    0.2951458   0.09847704  39.39 0.0008516528    2.723    0.633
        57 -11.8320    218.7236      3.1699   2.0977173188e+01   3.1573869704e+01    0.3141835     0.213632 -86.22 0.0006440151    1.304    0.233
        58  -9.0992    170.6714      6.0997   2.5200694510e+01   4.1521724222e+01    0.2278547    0.1296927  58.53 0.0006428463    1.777    0.437
        59 -10.5222    238.0798      3.8535   2.0054957843e+01   2.7803407878e+01    0.3354045    0.1990748  63.76  0.002200858    1.995    0.499
        60  -9.8109    232.6897      2.8157   2.0130557309e+01   2.8913040086e+01    0.2552369    0.1258483 -67.92  0.001147683    1.768    0.434
        61 -10.1432    195.1811      3.6239   2.2600685494e+01   3.6366481988e+01    0.2602909    0.1785506 -80.42 0.0006920436    1.259    0.206
        62  -9.2965    200.0340      1.7664   2.1839223822e+01   3.5518383787e+01    0.3145202    0.1218336  57.27  0.001493907    2.938    0.660
        63 -10.3559     91.7329      2.5523   3.5076687199e+01   6.0277482607e+01    0.5243298    0.2314976  71.05  0.001903807    2.280    0.561
        64  -9.2831     46.2919      4.1511   4.9553703513e+01   6.9767039561e+01    0.2051933    0.1363003  32.94 0.0006742854    1.301    0.231
        65 -10.0037     30.6876      2.7520   5.6103011276e+01   7.2657764535e+01    0.2588714    0.1765683 -42.59 0.0009877352    1.999    0.500
        66 -10.6708    249.9165      1.6312   1.9061521174e+01   2.5891814173e+01    0.1714195    0.1175525 -70.04 0.0004190539    1.160    0.138
        67  -9.0922    142.1218      2.2304   2.7052385361e+01   4.8466355848e+01    0.3041497    0.1632873 -78.30  0.001489762    2.084    0.520
        68  -9.3982    180.1209      2.0202   2.3349601148e+01   3.9784107744e+01    0.2624585    0.1471143  85.84  0.001134464    1.623    0.384
        69  -9.5507    126.6174      1.5969   2.8793614868e+01   5.2177212832e+01       0.2251    0.1449424  71.47  0.000446165    1.346    0.257
        70 -10.0974    115.7177      1.9916   3.0510286583e+01   5.4724015669e+01    0.2141041    0.1541288  62.18 0.0002708849    1.204    0.170
        71  -9.2584      5.3838      1.9084   7.1825410196e+01   7.6236480866e+01     0.242485    0.1341253   8.35  0.001041911    1.850    0.459
        72  -8.7855     48.5801      7.7018   5.0553519083e+01   6.8974949506e+01    0.1564021    0.1126674 -32.92 0.0009398249    1.584    0.369
        73 -10.1147     45.8056    119.8534   9.1112972727e+01   4.6589424290e+01    0.3591625    0.2546004  53.85  0.001625089    1.613    0.380
        74 -10.1940    201.4389    249.6575   7.3796882465e+01  -3.6981020466e+00    0.2376774    0.1584683  -3.79 0.0007814043    1.302    0.232
        75 -11.1171     21.2419    118.6427   9.9736216408e+01   4.9309318602e+01    0.5418985    0.4379376  80.48  0.003033394    1.292    0.226
        76  -9.9032    221.3584    119.4756   4.6179866845e+01   1.4859792110e+01    0.2573647     0.234204  15.84 0.0007014198    1.288    0.224
        77  -9.4363     62.4640    119.8965   8.5262454640e+01   4.4448378598e+01     0.337304    0.2311663  13.74  0.001514472    1.741    0.426
        78  -9.3633     93.8089    119.0328   7.4700585941e+01   3.9654261682e+01    0.2573504    0.2262229  19.72 0.0008034511    1.209    0.173
        79  -8.7005     57.9047    119.1278   8.6687105958e+01   4.5271238442e+01    0.2045047    0.1669917 -32.45 0.0004146245    1.275    0.216
        80  -9.8289     39.0346    124.3047   9.4314189637e+01   4.6158697872e+01    0.2921474    0.2205288 -51.26  0.000930753    1.234    0.190
        81  -8.5711     53.8027    117.4053   8.7775578928e+01   4.6257165286e+01      0.19717    0.1449099   6.47 0.0005386816    1.616    0.381
        82 -10.9026     11.4119    114.0953   1.0265792471e+02   5.1220580245e+01    0.4737627    0.4208523 -19.47  0.002896323    1.255    0.203
        83 -10.3117     35.5974    115.3835   9.3972314006e+01   4.8875791340e+01    0.4436081    0.2037151  40.80  0.001799699    2.387    0.581
        84  -8.2779    104.4287    115.4476   7.0555174208e+01   3.8564490317e+01    0.1539224    0.1489839 -55.80 9.890806e-05    1.042    0.040
        85  -8.6468     84.0179    121.2338   7.8341071567e+01   4.0795880978e+01    0.1976052    0.1304175  33.24 0.0003811003    1.580    0.367
        86  -8.9078     45.6732    112.9882   8.9806236433e+01   4.8406855935e+01    0.2705856    0.1772095  42.91  0.001271199    1.676    0.404
        87  -9.4928     38.6521     99.6168   8.9649110045e+01   5.2652822868e+01    0.4865804    0.2173975  11.44   0.00175525    3.202    0.688
        88 -11.1216     37.0555    109.9253   9.2403327764e+01   5.0159077196e+01    0.3761117    0.2412172 -64.67 0.0005176365    1.431    0.301
        89 -10.9382     32.1396    106.0159   9.3518685189e+01   5.1671459857e+01    0.5116702    0.3402753 -23.91  0.001595097    1.736    0.424
        90 -10.1150     25.4593    111.0008   9.6969956928e+01   5.0976801731e+01    0.2374961    0.2070158  16.92  0.000342771    1.283    0.221
        91 -10.7735     21.4239    108.9749   9.8156326708e+01   5.1841804100e+01    0.5028799    0.2663144 -65.11  0.001495155    1.623    0.384
        92  -9.9819      5.2230    110.1930   1.0442237136e+02   5.2615878049e+01    0.4712863    0.1619157 -44.69   0.00163894    2.801    0.643
        93  -8.9087     90.1922    108.3881   7.3146473591e+01   4.2886403092e+01    0.2543302    0.2179049 -48.16 0.0006022324    1.127    0.113
        94  -9.3248     93.6829    105.6885   7.1308333483e+01   4.2891109299e+01    0.3603207    0.3300614  87.64  0.001626948    1.231    0.188
        95  -8.8053    116.4459    107.7513   6.5046535117e+01   3.7980146642e+01    0.2119322    0.1449153 -35.65 0.0006011435    1.521    0.342
        96 -10.1548     52.0010    105.3345   8.5791696483e+01   4.9606584309e+01     0.392361    0.2625246 -77.40  0.001775247    1.780    0.438
        97 -10.6697     56.6062    101.2332   8.3081009238e+01   5.0029963492e+01    0.5813134    0.2942281 -35.07  0.002214719    2.398    0.583
        98  -9.4251    142.3610    103.5425   5.7211020727e+01   3.3460355983e+01    0.2533999    0.2440482 -45.17 0.0005160624    1.006    0.006
        99 -10.3286     64.6408    102.8657   8.0509717433e+01   4.8469026722e+01    0.3984509    0.2864046   2.27  0.001227741    1.740    0.425
       100  -9.1134     41.0063    103.9791   8.9678382851e+01   5.1275987896e+01     0.216957     0.204011 -74.44 0.0005599721    1.101    0.092
       101  -9.1476      7.2337    104.3663   1.0288256539e+02   5.4017015287e+01    0.1668621    0.1211024  32.98 0.0001920122    1.568    0.362
       102  -8.9720    101.0006     98.2525   6.6956232264e+01   4.3206716490e+01    0.2818834     0.209431 -37.92 0.0009591923    1.347    0.258
       103  -9.6172    100.8211    102.9568   6.8328275342e+01   4.2172957570e+01    0.3440679    0.2509224 -23.25  0.001216256    1.640    0.390
       104  -9.9460    105.0138    100.0000   6.6230513911e+01   4.2019576885e+01     0.434381     0.175498  37.97  0.001307942    2.678    0.627
       105 -10.0805     70.9290    102.2113   7.8072385082e+01   4.7661013972e+01    0.3557234    0.2422238 -48.29 0.0009710279    1.386    0.279
       106  -9.1329     85.4970    101.4727   7.2836743951e+01   4.5377720454e+01    0.2599137    0.2113339  19.21 0.0007262097    1.341    0.254
       107  -8.7826    121.6404    100.7037   6.1685072949e+01   3.8457677325e+01    0.1581557    0.1224605   2.56 0.0006010776    1.705    0.414
       108 -10.0792     50.6802     99.5616   8.4932213298e+01   5.1238935150e+01    0.5532844    0.2449158 -36.57  0.001950852    2.831    0.647
       109  -9.1343     45.8299     99.6317   8.6830926322e+01   5.1826068242e+01    0.3066488    0.1385104  26.91  0.001215482    2.362    0.577
       110  -8.5917     30.0933     99.8515   9.3102285259e+01   5.3460469345e+01      0.19234    0.1475036 -32.65            0    1.308    0.236
       111 -11.1895    117.6141     98.0287   6.2037032132e+01   3.9876205685e+01    0.2714717    0.2574433  -9.56 0.0002477954    1.088    0.081
       112  -9.8707    125.6907     97.2112   5.9629063497e+01   3.8342232201e+01    0.3260634    0.2473854  80.18   0.00147622    1.780    0.438
       113  -8.9923      7.4384     98.1951   1.0189791947e+02   5.5598280949e+01    0.4938538    0.1920886  24.39  0.002093331    2.755    0.637
       114  -9.2258      3.5737     79.9853   1.0052343053e+02   6.0397345842e+01    0.4614136     0.184179 -42.73  0.001786819    2.201    0.546
       115  -9.3070      1.9148     92.0659   1.0321889428e+02   5.7454371960e+01    0.4208641    0.2285532  65.31  0.001908269    2.467    0.595
       116 -10.2820      2.4701     85.8499   1.0201451963e+02   5.8994042574e+01    0.3771572    0.1908703 -58.01 0.0009867066    1.570    0.363
       117  -9.4166    141.5265     96.1657   5.5408172918e+01   3.5135383916e+01     0.257031    0.2195123  47.92 0.0005789836    1.215    0.177
       118  -9.2828     88.5035     95.4096   7.0137063536e+01   4.6243577136e+01    0.5468982    0.2537065  22.24  0.001553618    4.424    0.774
       119  -9.8266     81.2738     95.5173   7.2613022777e+01   4.7527487234e+01    0.4690389    0.2733488  45.95  0.001977086    1.868    0.465
       120  -9.3448     42.1409     95.1773   8.7241478980e+01   5.3384744607e+01    0.2216339     0.176517 -42.57 0.0005319812    1.157    0.136
       121 -11.1692     32.1088     92.5013   9.0715509705e+01   5.5135642716e+01    0.5467259    0.3619995 -34.57  0.002271755    1.516    0.340
       122  -8.5294    166.3035     94.3621   4.9614215030e+01   3.0096377713e+01    0.1477013    0.1156006  -0.73 0.0007037494    1.729    0.422
       123  -9.3722     39.4518     90.3410   8.7169053278e+01   5.4897714240e+01    0.4003384    0.1614315 -43.19  0.001505947    2.434    0.589
       124  -9.3878     47.4536     92.4026   8.4426921880e+01   5.3432882818e+01    0.3564047    0.2631005 -72.10  0.001475209    1.510    0.338
       125 -10.2640     44.3599     87.5956   8.4445878656e+01   5.4994951900e+01    0.5848953    0.2914774 -43.88  0.002477658    1.890    0.471
       126 -10.7053     26.2306     86.9036   9.1937865731e+01   5.7091639921e+01    0.6856176     0.383823 -33.73  0.001980467    1.864    0.464
       127 -10.9079     18.0449     90.8581   9.6260381422e+01   5.6772787741e+01    0.4969303    0.2638848 -19.65 0.0003141141    2.358    0.576
       128  -9.5902     13.9821     88.5272   9.7539013468e+01   5.7651020673e+01    0.3931777    0.1666748 -50.16  0.001711401    1.947    0.486
       129  -8.5508    131.0507     93.2573   5.7136827845e+01   3.8001773812e+01    0.1898038     0.131574  46.23 0.0004211459    1.482    0.325
       130  -9.5798    108.6914     90.7330   6.2465916709e+01   4.3295898645e+01    0.4433391    0.2476962  31.14  0.001380506    2.215    0.549
       131  -8.7938     70.9993     91.3001   7.5064378119e+01   5.0267434477e+01    0.2067927    0.1939047  12.61 0.0004689919    1.086    0.079
       132  -8.4676    104.4204     90.4083   6.3635699586e+01   4.4244681864e+01    0.1486684    0.1462252 -28.93 7.704577e-05    1.016    0.016
       133 -10.9174     79.8277     83.1625   6.9456272202e+01   5.0588724501e+01    0.6853884    0.3858453  26.79  0.001458602    2.126    0.530
       134  -9.1308     66.3552     89.8926   7.6385634504e+01   5.1347750611e+01    0.3047735    0.2018862 -27.43 0.0007774593    1.748    0.428
       135 -10.7700     64.4290     86.5601   7.6154650824e+01   5.2431292592e+01    0.5285342    0.3243737  20.24  0.001766406    1.922    0.480
       136  -9.5755     70.0058     85.2796   7.3669219247e+01   5.1824498437e+01    0.3013073    0.2725704  -1.16   0.00081255    1.119    0.106
       137 -11.0013     73.0046     80.3198   7.1034680398e+01   5.2426590047e+01    0.5197042    0.3189568 -38.03  0.001483553    1.642    0.391
       138  -8.8295     52.4937     90.0277   8.1792501252e+01   5.3354480238e+01    0.2221148     0.137094 -55.54 0.0004780872    1.533    0.348
       139  -9.1209     98.0131     88.6146   6.5066975869e+01   4.5924945576e+01    0.2959309     0.210222 -61.03  0.000886223    1.639    0.390
       140  -9.6135     86.8231     88.1510   6.8566493909e+01   4.8194783703e+01    0.4535525    0.2983878  -8.58  0.001793172    2.436    0.589
       141  -8.6220      6.7008     88.5950   1.0065976415e+02   5.8083839634e+01      0.16244    0.1236201  29.68 0.0005172649    1.517    0.341
       142  -9.1449    138.3709     84.4633   5.2853038656e+01   3.8111633653e+01    0.3793128    0.2248302  31.31  0.001071163    2.322    0.569
       143  -9.9808    143.0759     83.3793   5.1471188510e+01   3.7261893732e+01    0.4040713    0.2037447 -42.87  0.001033098    1.915    0.478
       144 -10.1469    129.0224     85.4832   5.5403278181e+01   3.9994060547e+01    0.4637634    0.2553827  31.48  0.001741643    2.554    0.608
       145 -10.3274    124.3302     86.3265   5.6846939667e+01   4.0860083823e+01    0.3282363     0.255924  -9.87  0.001551538    1.624    0.384
       146 -10.9363    120.3843     85.2058   5.7552231046e+01   4.1944800593e+01    0.4926538    0.3611553  72.92   0.00224647    1.765    0.433
       147  -9.9296     56.3195     86.8621   7.9401322044e+01   5.3579571822e+01    0.4790697    0.2122138  46.60  0.001735528    2.927    0.658
       148 -10.3645    155.1265     85.0276   4.9355838242e+01   3.4263530195e+01    0.2651217    0.2367069  45.44 0.0002884252    1.193    0.162
       149 -10.3987    155.1015     79.6503   4.7876757563e+01   3.5235531606e+01    0.3934603     0.326609  16.31  0.001081359    1.521    0.343
       150  -9.9145    150.9673     79.9527   4.8803231364e+01   3.6112505804e+01    0.3203992    0.3011685  81.21  0.001098214    1.082    0.075
       151  -9.0750    109.0814     85.5602   6.0802788497e+01   4.4296846533e+01    0.2233785    0.1486338  45.42  0.001002812    1.524    0.344
       152 -10.3490     51.8296     81.9717   7.9816595546e+01   5.5364620913e+01    0.4275006    0.2862351 -35.84  0.001201499    1.477    0.323
       153 -11.2691     52.9433     75.5343   7.7428157842e+01   5.6687329847e+01    0.4093937    0.2577118 -48.74            0    1.494    0.331
       154 -12.3446     55.9694     57.1465   6.9898309079e+01   6.0119106460e+01     0.898756    0.5106451 -40.08 0.0004534976    1.707    0.414
       155 -10.0051     61.0491     52.0337   6.5828538861e+01   6.0244368410e+01    0.2508067    0.2217537  51.04 0.0006289902    1.326    0.246
       156  -9.9922     47.9401     63.6618   7.5720643633e+01   6.0001910094e+01    0.3357563    0.2613777 -55.29  0.001688697    1.382    0.277
       157  -9.3425     49.2822     60.0463   7.3864758703e+01   6.0564304724e+01    0.2636988    0.1914137  43.01 0.0002986217    1.560    0.359
       158  -9.9653     53.2817     70.6643   7.5741220386e+01   5.7720496710e+01    0.2397009    0.2190899 -36.43 0.0002600786    1.077    0.071
       159 -10.7152     50.6386     67.7698   7.5920642076e+01   5.8735563068e+01    0.3448281    0.3004129  -4.08  0.001279482    1.115    0.103
       160 -10.8257     39.6286     81.2493   8.4751033296e+01   5.7090977734e+01    0.5689754    0.3435375   3.57  0.001036314    2.101    0.524
       161 -10.2665     17.5985     80.0494   9.4208200734e+01   5.9499024125e+01    0.5853943    0.2010481  38.53  0.002166363    3.508    0.715
       162  -9.1369     12.6061     78.2233   9.6079709257e+01   6.0301680496e+01    0.2520579    0.1221779 -37.34  0.000646969    1.986    0.497
       163  -8.7901    106.3650     79.7917   5.9815774562e+01   4.6042974950e+01    0.2184773    0.1390563 -32.47 0.0009466651    1.700    0.412
       164  -9.0107     92.9435     79.7515   6.3941902647e+01   4.8815361879e+01    0.3268317    0.1938013 -18.36  0.001185927    2.833    0.647
       165 -10.3995    166.9491     77.8474   4.5128524842e+01   3.2897997895e+01    0.2625338    0.2187646 -43.03  0.001437874    1.138    0.121
       166  -9.9612    169.5157     74.1209   4.3676185610e+01   3.2954302449e+01    0.3120539    0.2292975 -36.54  0.001051666    1.329    0.248
       167 -11.0491    165.5422     70.8886   4.3500948470e+01   3.4377797204e+01    0.5162023    0.3379403 -35.47  0.001254395    1.510    0.338
       168 -10.0747     29.1695     76.0225   8.7979261686e+01   5.9464093561e+01    0.5931956    0.1961786 -51.45   0.00226214    2.450    0.592
       169 -10.5908     14.7915     65.0760   9.1939695571e+01   6.3283972433e+01    0.9406578    0.4099252   3.51  0.003866612    2.975    0.664
       170  -9.7171     19.1450     72.4409   9.1705721851e+01   6.1216039364e+01    0.8642063    0.4038422 -41.31  0.003886618    1.945    0.486
       171 -11.4577      7.4568     51.2516   9.1990829410e+01   6.6920368640e+01    0.6990862    0.5090237 -26.58  0.003789557    1.227    0.185
       172 -11.2645      2.3964     66.2051   9.8376318158e+01   6.3788099545e+01    0.4096846    0.1868958 -53.54  0.001408946    1.702    0.412
       173 -11.2716      5.5853     61.0655   9.5592386696e+01   6.4819501456e+01    0.7185022    0.3582631  17.21  0.002128938    2.171    0.539
       174 -10.4207     30.2068     68.1646   8.5311297658e+01   6.1192319694e+01    0.4483363    0.2944618 -18.51  0.001468739    1.661    0.398
       175  -8.8395    141.4996     75.9469   4.9674772587e+01   3.8973748844e+01    0.2060949    0.1882032 -49.67 0.0004221481    1.068    0.064
       176  -9.5820    145.3164     74.9187   4.8551760329e+01   3.8286780391e+01     0.419881    0.2370485 -45.35   0.00163077    1.739    0.425
       177  -9.2707    145.8823     70.1050   4.7033682538e+01   3.8989370276e+01    0.2999112    0.2641931 -45.59  0.001157965    1.110    0.099
       178  -9.5924    141.4738     71.4857   4.8369393041e+01   3.9764276972e+01    0.2578303    0.2268906  43.25 0.0007726062    1.195    0.163
       179  -9.0761    140.8873     68.3114   4.7552951902e+01   4.0443055631e+01    0.2134202    0.1909872 -83.15 0.0004843351    1.161    0.139
       180  -9.5439     93.3061     66.8217   5.9559952250e+01   5.1307347570e+01     0.370578     0.282791 -58.83  0.001516515    1.543    0.352
       181 -10.9025     88.7370     73.8894   6.3423812964e+01   5.0852625009e+01    0.6558923    0.4384331 -29.37  0.001675508    1.646    0.392
       182 -10.4498     94.7932     71.9797   6.0824517880e+01   5.0008711274e+01     0.305036    0.2919969  29.52 0.0004671642    1.040    0.039
       183  -9.9735     64.4276     75.1866   7.2667894686e+01   5.4998879005e+01     0.294108    0.2663975 -82.21 0.0009599161    1.350    0.259
       184  -9.5549     68.4556     74.5140   7.0888914120e+01   5.4472373219e+01    0.2795224    0.2256894   3.79  0.000515604    1.351    0.260
       185 -10.1331     25.2145     67.6067   8.7528174961e+01   6.1817072839e+01    0.3948491    0.2791834   5.46  0.001194174    1.508    0.337
       186  -8.1749    211.4766     75.4423   3.7746511609e+01   2.3884734724e+01    0.1319576    0.1113378 -54.00 0.0001121558    1.020    0.020
       187  -8.9663    101.3188     75.4400   5.9935393405e+01   4.7972090070e+01    0.2819673    0.1414801  40.05  0.001108708    2.076    0.518
       188  -9.8960    109.2316     72.9805   5.6825194870e+01   4.6754836840e+01    0.3605211    0.2693828  33.12  0.001753695    1.438    0.304
       189  -9.1119    152.1022     73.1393   4.6646818295e+01   3.7048470779e+01    0.2047469    0.1939514   9.15 0.0002735986    1.193    0.161
       190  -8.6634    136.8305     72.8307   4.9792646364e+01   4.0591760627e+01    0.2074483    0.1700187 -70.48 0.0008828449    1.357    0.263
       191  -8.6609    117.6664     73.3115   5.4623392746e+01   4.4836478597e+01    0.1515064    0.1180005 -82.14 0.0006818594    1.679    0.404
       192  -9.4696      2.8807     72.7989   9.9492448171e+01   6.2187370210e+01    0.2272149    0.1685505 -39.66 0.0003707465    1.189    0.159
       193  -8.0632    226.3400     70.2530   3.4817914009e+01   2.1799297461e+01    0.1098233   0.09690498  15.17 0.0002118792    1.574    0.365
       194 -10.2857    218.7354     69.8975   3.5603048636e+01   2.3301818507e+01    0.2037981    0.1820916 -70.03 0.0002974364    1.115    0.103
       195  -9.1622    102.3738     69.5522   5.7692511183e+01   4.8882190606e+01    0.2962931    0.2395885 -12.80  0.001473687    1.417    0.294
       196  -9.5472     45.3393     69.3357   7.8745373804e+01   5.9127730241e+01    0.2550808    0.2234137  73.95 0.0003940253    1.504    0.335
       197 -10.0801    173.5767     68.8855   4.1598935115e+01   3.2902955970e+01    0.2472066    0.1973988  81.88 0.0004114279    1.330    0.248
       198  -9.0911    157.1609     68.3503   4.4317726168e+01   3.6696394625e+01    0.2464243    0.1943945 -25.86  0.001290785    1.396    0.284
       199  -8.7932     64.1166     69.5037   7.0917547726e+01   5.6268950782e+01    0.2142175    0.1403416  33.19  0.001018956    1.551    0.355
       200  -9.0776    119.8516     67.1240   5.2090076002e+01   4.5466065981e+01    0.2045303     0.174981  21.57 0.0008703544    1.310    0.237
       201  -9.2786     83.8426     65.8175   6.2341564012e+01   5.3412834786e+01    0.2454087    0.2387862  54.93 0.0007874132    1.126    0.112
       202  -9.6647     82.7346     61.4303   6.1173642700e+01   5.4462837228e+01    0.5229447    0.3234905 -15.08  0.001780636    2.413    0.586
       203  -9.4949     83.4046     54.3080   5.8342858889e+01   5.5610789657e+01    0.4744592    0.2756514  18.99  0.001835452    2.792    0.642
       204 -10.3091     76.1346     66.0926   6.5165620475e+01   5.4839418613e+01    0.4565284    0.2408792  43.77  0.001515117    1.930    0.482
       205 -10.3208     77.0643     61.9553   6.3363074475e+01   5.5467071729e+01     0.453867    0.2801848 -24.86  0.002007722    1.948    0.487
       206  -8.9860    136.0064     76.7271   5.1140382651e+01   4.0080892539e+01    0.1981306    0.1946504  68.04 0.0005060262    1.033    0.032
       207  -8.8496     59.5146     72.5460   7.3772953711e+01   5.6361791853e+01    0.1459329    0.1316549 -16.94 0.0001477575    1.044    0.042
       208 -11.0084    134.6546     63.3666   4.7403997915e+01   4.2711638824e+01    0.7090673    0.3803658 -52.68  0.001222087    2.157    0.536
       209  -9.0330    136.3951     56.7695   4.4990212957e+01   4.3365872697e+01      0.25929    0.2062925  -7.50 0.0008730373    1.576    0.365
       210  -8.7747    106.0153     65.5417   5.5296575264e+01   4.8832016100e+01    0.2245551    0.1425243  51.37  0.001020452    1.580    0.367
       211  -8.7084    166.0988     63.8808   4.1492553000e+01   3.5376092324e+01    0.1798035    0.1649867  22.49 0.0004136121    1.304    0.233
       212  -9.8842    167.9103     59.2357   3.9924765762e+01   3.5679381641e+01    0.3549804    0.2617921   6.74  0.001734391    2.102    0.524
       213 -10.1657     97.6988     63.6737   5.7111892522e+01   5.0966959765e+01    0.3138954    0.2399621 -60.62   0.00042349    1.574    0.365
       214 -10.1890     66.1413     61.6822   6.7387924750e+01   5.7517985998e+01    0.5723101    0.2600423  30.01  0.002184769    2.600    0.615
       215  -9.4039     70.6586     60.2880   6.5134499488e+01   5.6981676109e+01    0.2538632    0.2122609 -63.30 0.0007367629    1.478    0.323
       216  -9.2866     27.3053     62.9923   8.5159734722e+01   6.2660750410e+01    0.3103425    0.1933619   4.67  0.001550446    1.805    0.446
       217  -9.9984     33.5892     58.8418   8.0759928342e+01   6.2887276859e+01    0.4436335    0.2818129   0.59  0.001595938    1.839    0.456
       218  -9.7514     35.4738     53.6468   7.8029199206e+01   6.3752843208e+01    0.3804674    0.2777416   0.13  0.002090746    1.421    0.296
       219  -9.4507     29.2282     52.2332   8.0658858334e+01   6.4782078466e+01    0.3403123     0.146395  27.75  0.001194874    2.368    0.578
       220 -10.9666     24.6850     54.7010   8.3840066839e+01   6.4742872953e+01    0.3580294    0.2695716 -46.34  0.001088006    1.212    0.175
       221 -10.2017     19.7304     54.8132   8.6454985415e+01   6.5190033533e+01    0.3568385    0.2572082 -68.13  0.001526911    1.613    0.380
       222  -9.0205     93.9596     59.5473   5.6822155801e+01   5.2500487317e+01    0.2978235     0.195616 -16.09   0.00131341    2.024    0.506
       223  -9.4666    155.2817     61.2331   4.2643220616e+01   3.8269373388e+01    0.2308476    0.1835397  51.58  0.001242542    1.310    0.236
       224  -8.7677    150.4507     61.5027   4.3617443475e+01   3.9345279771e+01    0.1398163    0.1341534 -73.56 1.542905e-05    1.020    0.020
       225  -9.2024    213.0844     59.9839   3.4008482421e+01   2.5855868524e+01    0.1849589    0.1538388 -54.86 0.0002859256    1.013    0.013
       226 -10.5472    193.4083     62.1479   3.6941006152e+01   2.9611808407e+01    0.3415609    0.2137775 -32.90  0.001240656    1.594    0.373
       227  -8.7454    142.6560     58.7047   4.4303996367e+01   4.1599974047e+01    0.1437104    0.1097046  26.22 0.0002550381    1.666    0.400
       228  -9.4126    126.8583     57.6558   4.7355826853e+01   4.5449918691e+01    0.4940334    0.2229083  67.57  0.001699144    3.208    0.688
       229  -8.6639    190.2153     57.0173   3.6091922736e+01   3.1049421073e+01    0.1747407    0.1549077 -56.23 0.0002315274    1.045    0.043
       230 -10.1546    225.8452     55.4690   3.1649542611e+01   2.3986941304e+01    0.2244894    0.1643015 -50.55 0.0002708962    1.115    0.103
       231  -8.3759    206.5154     56.5307   3.3960569667e+01   2.7678535324e+01    0.1291741    0.1100988 -58.65 0.0008096757    1.008    0.008
       232  -9.7055    161.7146     53.4896   3.9337998007e+01   3.7953833653e+01    0.4856148    0.1958672 -43.83  0.001947604    2.365    0.577
       233 -10.3151    136.3666     49.3320   4.2673787796e+01   4.4494044520e+01     0.430954    0.2377354  65.12  0.001446292    1.867    0.464
       234 -10.1906    145.5976     52.2014   4.1775505287e+01   4.1900476614e+01    0.4213532    0.2794205 -26.02  0.002062911    1.705    0.413
       235  -9.7915    141.6633     48.7242   4.1457070365e+01   4.3332869729e+01    0.3712148    0.2614747  84.66 0.0008410393    1.624    0.384
       236  -8.7838    116.1309     55.5302   4.9224011052e+01   4.8267154504e+01    0.2705081    0.1407127  59.59 0.0007991177    2.030    0.507
       237  -8.9160     92.3643     54.3147   5.5438573776e+01   5.3744047036e+01    0.2593724    0.2368807  29.28  0.000792871    1.056    0.053
       238  -9.3233     95.4709     52.4845   5.3822217206e+01   5.3381772178e+01    0.2607664    0.2156712  49.18 0.0006264648    1.183    0.155
       239  -9.5336     51.5658     40.1891   6.5061377868e+01   6.3950546446e+01    0.6452837    0.2897012  29.71  0.001898681    2.518    0.603
       240  -9.9763     43.0357     52.2094   7.3851979882e+01   6.3043178414e+01    0.5159305    0.2640802 -57.08  0.002204921    2.472    0.595
       241 -10.4368     46.7184     46.9852   7.0092475564e+01   6.3509418326e+01    0.4483353    0.3872567 -69.31  0.002600382    1.595    0.373
       242 -11.1308     70.9597     50.3113   6.1256823893e+01   5.8753905877e+01    0.6200346    0.4819564   1.91  0.001831632    1.425    0.298
       243 -12.9980     61.6720     44.5425   6.2580459930e+01   6.1463345633e+01    0.6630817    0.3760672  42.08 0.0003165538    1.737    0.424
       244  -9.7414    122.7858     51.7572   4.6367783702e+01   4.7319490273e+01    0.3404917    0.3087845  76.10  0.001378785    1.113    0.101
       245  -9.2548    121.6535     45.3169   4.4475106111e+01   4.8536869438e+01    0.2736385    0.1853972  61.02  0.001273055    1.434    0.303
       246 -10.5147    128.0539     48.2088   4.4032121661e+01   4.6615835440e+01    0.3412864    0.3051278 -68.45 0.0009663202    1.159    0.137
       247  -8.9554    125.4690     44.4787   4.3359584777e+01   4.7759452772e+01    0.2478269    0.2221048  36.80 7.564947e-06    1.172    0.147
       248  -9.2706    192.2020     51.8954   3.4562926891e+01   3.1347522436e+01    0.3581742    0.1609391 -33.96  0.001602871    2.146    0.534
       249  -9.0466    183.6962     52.2957   3.5763957053e+01   3.3149735271e+01    0.1379538   0.09135596 -66.16 0.0005081297    1.580    0.367
       250  -9.7753    110.9111     51.7807   4.9270620109e+01   5.0055185266e+01    0.2260799    0.2208457 -55.71 0.0002143537    1.064    0.061
       251 -10.0726    175.7328     48.6276   3.5895408243e+01   3.5441872343e+01    0.3319396    0.2799566   1.49  0.001137288    1.583    0.368
       252  -9.1014    129.8148     53.8612   4.5477692526e+01   4.5355843912e+01    0.2227542     0.190784 -19.95 0.0004599055    1.293    0.226
       253  -8.7883    228.3841     49.7747   3.0175677889e+01   2.4269393640e+01    0.1571538    0.1043298 -31.64 0.0005126701    1.534    0.348
       254 -10.0316     87.0289     49.0036   5.5151967571e+01   5.5753545581e+01    0.4329464    0.2643006  48.48  0.002058132    1.589    0.371
       255 -10.5048      3.0270     43.3040   9.2151367675e+01   6.8916354137e+01    0.7997017    0.5221735 -54.19  0.002834283    1.341    0.254
       256  -9.6594     22.9989     46.5751   8.1907517056e+01   6.6615702421e+01    0.3492905    0.2978459  37.43  0.002173445    1.432    0.302
       257  -9.2146     18.2410     21.9539   7.4205073546e+01   7.1713061822e+01     0.201961    0.1767561  18.55 0.0006079017    1.297    0.229
       258  -8.5933    150.5257    249.4897   8.3711987712e+01   2.4413547701e+00     0.122463    0.1009667  15.22 4.765328e-05    1.021    0.020
       259 -10.3122     17.3056     46.9868   8.5174716732e+01   6.7076675739e+01     0.501992    0.3983191 -56.91  0.001605248    1.342    0.255
       260 -11.8126     13.6516     36.6737   8.3507479858e+01   6.9492977737e+01    0.5706403    0.3394022 -45.74 0.0002350594    1.474    0.322
       261 -11.5751      7.5055     35.8867   8.6945189687e+01   7.0151574117e+01    0.5143976      0.43035  44.73  0.002432671    1.621    0.383
       262 -10.6576      9.7035     31.7329   8.3976222859e+01   7.0793844273e+01    0.4571388    0.2186664  27.54  0.002340042    2.173    0.540
       263  -9.9004    154.4386     48.2901   3.9054510884e+01   4.0391737499e+01    0.3762042    0.2637526  87.29  0.001352307    1.588    0.370
       264  -8.1577     97.2761     48.3233   5.1765756279e+01   5.3654970973e+01    0.1414292    0.1075597  13.61  0.000397212    1.581    0.368
       265 -10.4798    115.6737    248.2693   9.0885718786e+01   7.0937209142e+00    0.2386348    0.2195772  -9.95  0.001066202    1.177    0.150
       266 -11.1958     78.4565     45.6481   5.6714768345e+01   5.8066467102e+01    0.7865654    0.5433193 -16.70  0.003924425    1.684    0.406
       267 -10.8510     86.1268     22.1353   4.4653039373e+01   5.9670394671e+01     0.460348    0.2092144  54.19 0.0005033923    1.947    0.486
       268  -8.7720     57.1136    249.0898   1.0354550050e+02   1.4069590752e+01    0.1533445    0.1129626  55.16            0    1.197    0.165
       269  -9.0798      1.4786    243.9989   1.1469951057e+02   2.0625263341e+01    0.1563796    0.0955476  88.96 0.0003871066    1.521    0.343
       270 -10.7999     29.5831    118.7363   9.6742162752e+01   4.8569280232e+01    0.5546051    0.3224231  68.96   0.00236613    2.303    0.566
       271 -11.1029     86.7198     37.7106   5.0855823665e+01   5.7542809395e+01    0.6762837    0.4574519 -66.23  0.002437189    2.346    0.574
       272 -10.0956     78.0839     34.8562   5.2458803584e+01   5.9778001654e+01    0.3423873    0.2622415  23.00  0.001222438    1.340    0.254
       273  -9.1772    245.1358    242.3313   6.5124195696e+01  -7.3230610954e+00    0.1764155    0.1192136  21.99   0.00126831    1.524    0.344
       274  -9.5227     32.0471     47.5863   7.7507500776e+01   6.5399109928e+01    0.1946861    0.1684927 -36.23 0.0006455846    1.147    0.128
       275  -9.0958    235.0524     47.0644   2.9004889726e+01   2.3370518923e+01    0.1807892    0.1361748 -57.56 0.0005123928    1.069    0.064
       276 -10.4248    115.1417     45.3129   4.5978779139e+01   5.0056767340e+01    0.3161889    0.2690171  57.90  0.000585642    1.126    0.112
       277  -8.9967     52.0662     46.1534   6.7328537065e+01   6.2823234150e+01    0.1915334    0.1699874 -84.31 0.0007066526    1.629    0.386
       278  -9.7687    185.3478     44.3981   3.3532839112e+01   3.3868384517e+01     0.223158    0.1816162  49.70  0.001074978    1.440    0.305
       279  -9.8383    103.8658     41.6880   4.7507373810e+01   5.3170887624e+01    0.4794089    0.2815508 -56.19  0.002091498    2.315    0.568
       280  -9.2991    108.4942     43.4898   4.6969175579e+01   5.1854983566e+01     0.247253    0.2113309  43.47  0.000798596    1.130    0.115
       281  -9.3873    108.3948     40.2392   4.5826522518e+01   5.2337441484e+01    0.2390792    0.1971085 -41.26 0.0006258796    1.282    0.220
       282  -9.1363    200.9910     42.9969   3.1380835274e+01   3.0671345801e+01    0.2417828    0.1655877  71.60 0.0008099751    1.497    0.332
       283  -8.4618    150.3174     43.2622   3.8267017423e+01   4.2053854220e+01     0.132377    0.1018101  36.65 0.0001459762    1.546    0.353
       284  -9.2018    247.4168    239.1255   6.4259032676e+01  -7.1405583343e+00    0.2006636    0.1343713  25.30   0.00126793    1.636    0.389
       285 -10.0490     28.3137     42.5847   7.7522374881e+01   6.6826211449e+01     0.312091    0.1918591  -9.02  0.001521154    1.897    0.473
       286 -10.3505    229.0870     39.5509   2.7931510576e+01   2.5455498615e+01    0.3462554    0.3091086 -13.72  0.002146506    1.518    0.341
       287 -10.3069    144.5711     41.0337   3.8574712733e+01   4.3709787506e+01    0.2712981    0.2249447  73.34 0.0005585138    1.154    0.134
       288  -9.6519    222.6846     40.5365   2.8696651944e+01   2.6570172663e+01    0.2152263    0.1742833 -56.14 0.0006437463    1.037    0.036
       289  -8.4609    138.4918     41.5055   3.9808214007e+01   4.5087313331e+01    0.1361176    0.1285556  78.62 -7.679523e-05    1.021    0.021
       290  -9.0796     35.0672     41.5436   7.3558003835e+01   6.6179648678e+01    0.2608967    0.1235799  28.02  0.001187788    2.143    0.533
       291  -9.9711    127.8761     40.0290   4.1385591617e+01   4.7802599436e+01    0.9175463    0.2519295  63.47  0.002789116    4.101    0.756
       292  -9.5603    130.6974     36.9745   3.9825687242e+01   4.7534938334e+01    0.2867541    0.2338037 -53.67 0.0009607355    1.272    0.214
       293  -8.5475     24.0972     39.1952   7.8468577306e+01   6.7960299856e+01    0.3510123    0.2064903  -8.23  0.001224848    2.024    0.506
       294 -10.2356    246.8430     38.5571   2.6334903328e+01   2.2302701269e+01    0.2422417    0.1550855 -50.50  0.001037617    1.195    0.163
       295  -9.2617    245.4895     44.4859   2.7619053629e+01   2.1802109542e+01    0.1720766    0.1091579  75.42 0.0008496881    1.754    0.430
       296  -9.0018    158.4499     39.0968   3.5764283089e+01   4.0696141075e+01    0.2232675    0.1658117 -78.78 -3.508293e-05    1.398    0.285
       297  -9.9298    238.2932     37.1497   2.6692497973e+01   2.4025043045e+01    0.3041461    0.1736345 -59.63   0.00182238    1.513    0.339
       298  -9.1815    187.7044     37.8364   3.1593197118e+01   3.4201561216e+01    0.3288502     0.155518 -71.04  0.001319119    3.046    0.672
       299  -9.5333    177.9546     37.4914   3.2665523534e+01   3.6417245554e+01    0.2573792    0.1724703 -63.62 0.0008629984    1.470    0.320
       300  -9.1364     93.6313     38.1870   4.8991863134e+01   5.5964653821e+01    0.1807699    0.1303011 -15.52 0.0002037851    1.594    0.373
       301  -9.3233    165.6812     36.6272   3.4032359214e+01   3.9330271931e+01    0.3404197    0.1396678  63.03   0.00130672    2.298    0.565
       302  -9.5203    153.7038     37.0625   3.5895236205e+01   4.2070065260e+01    0.2144297    0.1712984 -88.00 0.0003803193    1.234    0.189
       303  -9.8963    119.2955     31.4841   4.0249263140e+01   5.0929318050e+01    0.2631819    0.2149389  25.98 0.0009146331    1.391    0.281
       304  -8.7855    102.4486     31.5859   4.4108977772e+01   5.4851066895e+01    0.1945505      0.17025 -14.35 -4.684316e-05    1.240    0.193
       305 -10.8960    113.2824     34.3711   4.2564640031e+01   5.1983587609e+01    0.5510321    0.4421047  28.78  0.003082836    1.372    0.271
       306 -11.9282    107.5674     29.5524   4.2121392306e+01   5.3918233225e+01      0.44632    0.3077413  -7.60  0.001250165    1.834    0.455
       307  -8.9735    112.4815     28.4844   4.0630679797e+01   5.2896970199e+01    0.4109244    0.2646679 -24.62  0.002107015    1.731    0.422
       308  -9.4163     71.6573     35.1834   5.4820387592e+01   6.1043273920e+01    0.3412948    0.2244678  27.12  0.001293723    1.618    0.382
       309 -10.1821    224.9506     34.3029   2.7155725847e+01   2.6903804562e+01    0.3255983    0.2713651  65.90  0.002272096    1.429    0.300
       310  -8.3772    198.7094     36.6855   3.0114700423e+01   3.1963004272e+01    0.1128944   0.09815038  27.41 0.0006364557    1.592    0.372
       311 -10.5994     97.7361     35.1021   4.6665665273e+01   5.5468807895e+01    0.2770575    0.2326561  51.95 0.0004439192    1.115    0.103
       312  -9.1235     46.7420     34.4499   6.4741483325e+01   6.5696312016e+01    0.2995708    0.1925675  48.08  0.001238852    1.841    0.457
       313  -9.5611     56.8093     35.8928   6.0915420247e+01   6.3751406831e+01    0.2981738     0.254971 -70.39 0.0003606741    1.711    0.415
       314  -9.4380     50.9842     32.6679   6.1996917370e+01   6.5273868260e+01    0.2755197    0.1815978  39.15 0.0007842688    1.469    0.319
       315  -9.2442     54.9945     31.9909   5.9938583882e+01   6.4677233188e+01    0.2358338     0.167856  -5.05  0.001271831    1.552    0.356
       316  -9.7381     60.9048     34.6933   5.8698110367e+01   6.3192116745e+01    0.2210848    0.1826028 -30.90 0.0002746019    1.258    0.205
       317  -8.7047    242.4582     34.4789   2.5841439963e+01   2.3589114407e+01    0.1163889   0.08838678 -57.03  4.78593e-05    1.004    0.004
       318 -10.3414    248.1130     30.8222   2.4723629322e+01   2.3011806608e+01     0.229366    0.1573219 -41.05 0.0004796828    1.281    0.219
       319 -10.2284    233.9890     30.7934   2.5712555429e+01   2.5597699678e+01    0.3401309    0.1976243  61.72  0.001304144    2.000    0.500
       320  -8.0734    190.2912     32.7031   3.0028147543e+01   3.4271928156e+01    0.1316003   0.08182982 -63.81 0.0004100915    1.558    0.358
       321 -10.3185    163.8979     31.7520   3.2918446702e+01   4.0344752160e+01    0.2250365    0.1746894 -56.72 0.0002283268    1.224    0.183
       322  -9.4426    158.2578     32.1300   3.3796600610e+01   4.1613320396e+01    0.2930331    0.1933817 -80.79  0.001100974    1.659    0.397
       323  -9.1977    154.0810     31.4486   3.4196705071e+01   4.2675645557e+01    0.2615266    0.1718907  62.58 0.0003934709    1.444    0.307
       324 -10.3592    133.4807     30.5261   3.7215507230e+01   4.7673752540e+01    0.4720067    0.3207631 -41.14  0.001956635    1.513    0.339
       325  -9.5414    145.9738    242.2330   8.3685344438e+01   4.2220492987e+00    0.1780925    0.1446435  17.15 0.0007248541    1.039    0.037
       326 -10.3601    142.5175     30.0267   3.5535572353e+01   4.5581597187e+01     0.459087    0.2819414  25.73  0.001496614    2.549    0.608
       327 -10.4722    146.1282     28.9669   3.4644596205e+01   4.4849102876e+01    0.2977414     0.239145  64.79 0.0004174109    1.179    0.152
       328  -8.2889    203.3925     31.4467   2.8413658288e+01   3.1615726660e+01    0.1242015    0.1002915 -62.67 0.0001409902    1.036    0.035
       329  -9.6476    178.8560     30.3464   3.0693115324e+01   3.7092843959e+01    0.2933104    0.1433595 -47.57  0.001082481    1.896    0.472
       330  -9.4796    126.2288     30.3594   3.8490108046e+01   4.9420581949e+01    0.3642961    0.1576194  53.53  0.001554111    2.108    0.526
       331  -8.0707     61.3145     30.3348   5.6588229541e+01   6.3758831886e+01    0.1395071   0.09536743  11.78 0.0004188147    1.689    0.408
       332  -9.1756    102.3467    242.3198   9.3100970556e+01   9.8846217729e+00     0.126344   0.09218509  -8.40 0.0007049156    1.732    0.422
       333  -9.1113    189.3115    240.4201   7.4696394115e+01  -9.5197852915e-01    0.2205156    0.1014041  25.40  0.001121867    1.994    0.498
       334  -9.2603     32.5066     19.0881   6.4415801154e+01   7.0276809443e+01    0.2149396     0.185447   3.53 0.0008212575    1.085    0.078
       335  -9.0668    171.5079    239.0001   7.7978594568e+01   1.4703954326e+00    0.1734949   0.08948576 -22.06  0.000809684    2.471    0.595
       336  -9.6742    221.9256    235.0858   6.7888320123e+01  -3.9550504783e+00    0.3329615    0.1428324 -35.61  0.001778762    2.101    0.524
       337  -9.0631    229.5078     27.4650   2.5353173155e+01   2.6841828176e+01    0.1842054    0.1082979 -23.13 0.0009104551    2.180    0.541
       338  -8.7135    189.3688     28.3195   2.9039986966e+01   3.4998144994e+01    0.2531691     0.101787  66.68  0.001151557    2.382    0.580
       339  -8.9706    211.9033     26.5406   2.6535396631e+01   3.0434011376e+01    0.1808378    0.1316444 -45.84  0.000527015    1.218    0.179
       340  -9.9311     48.4239     26.7460   6.0380876703e+01   6.6606322643e+01    0.4812425    0.3110917  58.50  0.001210767    2.298    0.565
       341 -10.7355     50.5418     22.0084   5.7131142805e+01   6.6899134468e+01    0.2666526    0.2066466  -5.47 0.0006647026    1.270    0.212
       342  -9.3256    222.0441     26.5187   2.5716049192e+01   2.8402289198e+01    0.1610808    0.1058851  82.77 0.0003243494    1.514    0.340
       343  -8.0766    161.3003     26.3688   3.1750702119e+01   4.1580599898e+01     0.128794   0.09691107  32.61 0.0007032227    1.738    0.425
       344  -9.7340    188.0403    235.5062   7.4192966180e+01  -4.9813057943e-02    0.1816389    0.1046323  25.67 0.0006341444    1.565    0.361
       345  -9.0562    109.4654     23.4612   3.9450374994e+01   5.4181408744e+01    0.2016826    0.1836898  57.01 0.0005209427    1.010    0.010
       346  -9.3857     82.9066     26.0171   4.7218744695e+01   5.9917941213e+01    0.1881563    0.1739241  39.06  0.000281349    1.043    0.041
       347  -9.0530    192.6369    234.6998   7.3184809873e+01  -4.9042185665e-01    0.1292889   0.07892348  -3.66 0.0007035031    1.723    0.420
       348  -9.2466     32.0307    232.0673   1.0775220535e+02   2.0202423134e+01     0.183181    0.1491089  59.39 0.0004264059    1.023    0.022
       349  -8.6794    228.7353    234.0025   6.6540830703e+01  -4.5483902355e+00    0.1670312   0.09848568   2.34 0.0006171909    1.621    0.383
       350  -8.2245    178.6803    231.3230   7.5385601848e+01   1.7875378411e+00    0.1115327   0.09778949  52.50 0.0003221476    1.673    0.402
       351  -8.6596    207.4724    226.5010   6.9101061339e+01  -1.0481699045e+00    0.1236092   0.09475803  -6.10 3.641072e-05    1.039    0.038
       352  -8.8297    163.3096    226.6709   7.7802538740e+01   4.5866607165e+00    0.1176912    0.1002031  57.75 0.0007040767    1.664    0.399
       353  -9.4081    179.0604     13.3206   2.6287092577e+01   3.8929183722e+01    0.2147691    0.1558709 -81.02 0.0004300076    1.237    0.192
       354  -9.0043    169.5210     23.4184   2.9933314704e+01   4.0013667779e+01    0.1839299     0.121631 -33.10 2.986882e-05    1.564    0.361
       355 -10.0661    173.6289     22.1423   2.9129569595e+01   3.9217551162e+01    0.3521154    0.2621639  34.48 0.0008829336    1.819    0.450
       356  -9.7632    153.8170     22.6450   3.1664474474e+01   4.3748151977e+01     0.294802    0.2308854 -29.45  0.001056049    1.403    0.287
       357 -10.6332    152.0052     18.1279   3.0581869334e+01   4.4655585725e+01    0.3307078    0.2001831  67.60 0.0002611546    1.504    0.335
       358  -9.1324    246.5170     23.5243   2.3403712263e+01   2.4145317673e+01    0.1137854   0.08377174 -58.49 2.068786e-06    1.017    0.016
       359  -9.1185    230.0901     23.0523   2.4393396023e+01   2.7240409931e+01    0.1557768    0.1466359 -71.88 0.0005117378    1.300    0.231
       360  -9.9155    220.4661     21.3257   2.4719272537e+01   2.9309009413e+01    0.2494229     0.208893 -76.31  0.001343454    1.116    0.104
       361  -9.6696    217.3515     17.6254   2.4148482473e+01   3.0340338678e+01    0.2268377    0.1975998  69.42 0.0007083985    1.377    0.274
       362  -8.6291    224.1319    225.0976   6.5896933417e+01  -2.7916189652e+00    0.1446791    0.1236818 -10.19 0.0005196453    1.271    0.213
       363  -8.6345    132.1784    225.1263   8.4298776921e+01   9.1405920515e+00    0.1698297    0.1476945  50.01 0.0003957138    1.301    0.232
       364  -8.6709    188.6690     22.5745   2.7690431608e+01   3.5810811894e+01    0.2262205    0.1177021 -52.30  0.001170726    1.755    0.430
       365  -8.7924    116.9293     22.5222   3.7582696227e+01   5.2524465631e+01    0.1745867    0.1718323 -12.25  0.001125209    1.121    0.108
       366  -9.1574     26.6031     22.0573   6.9243959217e+01   7.0660657243e+01    0.2494931    0.1293526 -32.41  0.001278161    1.869    0.465
       367  -8.5649    208.3565     22.7073   2.5966241714e+01   3.1602850036e+01    0.1305307   0.07246823 -64.64 0.0007030088    1.689    0.408
       368  -9.1042    139.6535     21.5911   3.3357445508e+01   4.7214888510e+01     0.337032    0.1813451  45.51  0.001597667    2.052    0.513
       369  -8.6683    144.1290     20.8082   3.2454968409e+01   4.6235064602e+01     0.208984    0.1445989  89.61  0.001137841    1.458    0.314
       370  -9.0885    121.9871     22.0188   3.6448330706e+01   5.1378317489e+01    0.2139459    0.1459156 -64.09 0.0005833488    1.715    0.417
       371  -8.6925    125.4996    225.4897   8.5845254223e+01   9.9962991540e+00    0.1311661    0.1165337  23.82 -3.174324e-05    1.030    0.029
       372 -10.3230    238.5143     17.0855   2.2632027823e+01   2.6324479380e+01    0.2418458    0.1806673  72.50 0.0008978068    1.517    0.341
       373 -10.0612    205.2946     18.3290   2.5220362241e+01   3.2725638861e+01    0.2105294    0.1801467 -62.09   0.00019552    1.096    0.088
       374  -8.6870    199.6836     19.1791   2.5878300014e+01   3.3811938933e+01    0.1585756    0.1080428 -24.12 0.0003837159    1.743    0.426
       375 -11.0986    182.4403     18.2315   2.7209791134e+01   3.7662028227e+01    0.2671916     0.219045  64.02 0.0003921903    1.311    0.237
       376 -10.2770    166.5278     17.8083   2.8752594383e+01   4.1308294027e+01    0.3596521    0.1797238  54.35  0.001763785    2.080    0.519
       377  -9.5787     89.3475    220.8334   9.3596305114e+01   1.5856740703e+01    0.2463391    0.2037496   2.65 0.0008853785    1.371    0.270
       378  -8.6623    174.9653    217.8046   7.3988527514e+01   4.5349618126e+00    0.1864808    0.1191083 -24.29 0.0005845419    1.586    0.369
       379 -10.7946    230.0498     14.9034   2.2718158965e+01   2.8154032626e+01    0.4023649    0.1786168  88.07  0.002128128    2.400    0.583
       380  -9.4323    144.1740     16.4016   3.1103368449e+01   4.6680921040e+01    0.2343112    0.1621059  88.99 0.0007341508    1.419    0.295
       381  -8.4783    117.9846    212.0176   8.5670623723e+01   1.3744476489e+01    0.1663563    0.1445302  26.04 0.0004518229    1.060    0.056
       382  -8.7413     28.3471    212.3227   1.0725394975e+02   2.4884460649e+01    0.1223829   0.09269479 -37.01 0.0007049591    1.740    0.425
       383  -8.5524    242.5671    209.7887   6.0250542117e+01  -2.6788572865e+00     0.151362   0.09446966 -39.35 0.0004715011    1.601    0.376
       384  -8.4455    230.6733    209.6730   6.2189626765e+01  -1.2970384508e+00     0.126761   0.07548818  -9.83 0.0007050115    1.699    0.412
       385  -8.1425     34.6750    201.6637   1.0491431470e+02   2.6712434588e+01    0.1291467   0.09502945 -38.82 0.0007051312    1.718    0.418
       386  -8.3429    221.3481    198.7333   6.1873834453e+01   1.5221475182e+00    0.1021222    0.1008329 -83.67 0.0002804589    1.615    0.381
       387  -8.6715    218.3031    195.6570   6.1855202109e+01   2.4065605330e+00    0.1112158    0.0987908 -57.43 0.0005923735    1.681    0.405
       388 -10.5755     43.1733     15.3740   5.7070084659e+01   6.9061571403e+01    0.3723938    0.1976071  42.67  0.001936112    1.747    0.428
       389  -8.7555    195.0685     15.0511   2.5294323227e+01   3.5241147047e+01    0.1761061    0.1415657 -72.36 0.0003378196    1.037    0.035
       390  -9.1018      6.4251    194.8187   1.1133965035e+02   3.0918280713e+01    0.1774455   0.09859233 -66.74 0.0009395648    1.726    0.421
       391  -8.6844     91.7974     13.8275   3.9720279697e+01   5.9273429209e+01    0.1684456    0.1444147 -86.60 0.0005276317    1.334    0.250
       392  -9.4164    248.6963    191.9086   5.6178616275e+01  -7.8500213660e-01    0.2720577    0.1221428 -47.03  0.001294106    2.734    0.634
       393  -9.1712    184.7923     12.9819   2.5678224945e+01   3.7691707319e+01    0.2079455    0.1569276  89.95 0.0007875848    1.183    0.155
       394 -10.3035     17.3841    173.7631   1.0707007208e+02   3.5174710510e+01    0.2933356    0.1768055  64.57  0.001344572    1.633    0.388
       395  -9.0149      5.4942    174.5410   1.1030715596e+02   3.5921258692e+01    0.1300823    0.1095286  81.27 0.0006043416    1.011    0.011
       396  -9.3757     11.6397    167.2041   1.0810913335e+02   3.7304066305e+01    0.1958758    0.1032455 -67.55 0.0009502321    1.680    0.405
       397 -12.7250     34.7731    157.4419   1.0046829052e+02   3.7788087459e+01      2.07074    0.4937732  41.34   0.00657814    3.914    0.744
       398 -10.6135     20.6145    158.1605   1.0474440576e+02   3.8906951844e+01    0.3375667    0.2085637 -79.52 0.0005687048    1.465    0.318
       399 -11.9129     21.8340    150.1246   1.0354286003e+02   4.0909132313e+01    0.9510444    0.5065283 -13.33   0.00388568    3.033    0.670
       400  -9.5847    225.4655     17.0090   2.3452600967e+01   2.8807786064e+01    0.2042472    0.1443702 -21.23 0.0007755199    1.829    0.453
       401 -10.1102     28.8781    144.0874   1.0063871199e+02   4.1884836928e+01    0.2660275    0.2236027 -14.11  0.001492909    1.409    0.290
       402  -9.8040     24.2128    163.1828   1.0419952630e+02   3.7288986020e+01     0.196462    0.1731731 -60.92 0.0005540783    1.162    0.139
       403 -10.0566     10.2981    158.3103   1.0775579075e+02   3.9686074998e+01    0.2914196    0.1490416  61.68  0.001169468    2.056    0.514
       404  -9.7399      2.1245    157.1499   1.1000062398e+02   4.0553895057e+01    0.3156273     0.181747 -80.65 0.0007664646    1.491    0.329
       405  -9.5759      2.4824    153.4928   1.0962168809e+02   4.1469750867e+01    0.2130264    0.1956514  70.08    0.0013805    1.126    0.112
       406  -9.3345    249.0264    153.7497   4.9096285614e+01   4.9969429627e+00    0.1711088     0.136659 -26.53 0.0008533245    1.044    0.042
       407  -8.8686     58.3067    150.9603   9.2394515367e+01   3.6829548283e+01    0.1976866    0.1770282 -65.61 0.0003144176    1.061    0.057
       408  -9.5838     10.6911    147.3097   1.0665502435e+02   4.2517813416e+01    0.2471807    0.1445385 -25.79  0.001158299    2.290    0.563
       409  -9.6601      2.9284    141.0002   1.0846042565e+02   4.4681288982e+01    0.3737254    0.2394452 -79.37  0.002004933    1.333    0.250
       410  -9.3799      2.6210    146.6814   1.0903752988e+02   4.3221951808e+01    0.2484996      0.15316 -50.05  0.000722434    1.644    0.392
       411  -9.4118      5.6995    143.6737   1.0784453488e+02   4.3808914921e+01    0.2646587    0.1779144 -33.56 0.0009579899    1.753    0.430
       412 -10.5226    240.4057    143.0793   4.8253931608e+01   7.9099607997e+00    0.3673786     0.168858 -50.15   0.00166126    2.464    0.594
       413  -8.3026    121.7579    139.6436   7.1467108436e+01   2.9556776383e+01    0.1571502    0.1156592 -24.38 0.0002399123    1.589    0.371
       414  -9.4456     40.4889    137.8315   9.6012336648e+01   4.2399771701e+01    0.2723102    0.1919125  -8.74 0.0009376749    1.825    0.452
       415 -10.1103     14.3646    141.2001   1.0490247796e+02   4.3856370718e+01    0.2017411    0.1597833 -82.88 0.0004027415    1.117    0.105
       416  -8.3539     83.3988    135.4762   8.1706030152e+01   3.7279018440e+01    0.1529011    0.1439598 -51.15 5.416425e-05    1.025    0.024
       417 -10.4323     60.7597    132.9822   8.8483171150e+01   4.1254684790e+01     0.529842    0.3433126 -49.29  0.001539822    1.478    0.323
       418  -8.7661     75.6850    133.9974   8.3831910221e+01   3.8859058611e+01    0.2152071    0.1888768 -57.61 0.0004861064    1.091    0.083
       419 -10.2973      8.1792    133.2068   1.0604575785e+02   4.6394492661e+01    0.3242503    0.2255779 -20.53  0.001438905    1.759    0.432
       420 -10.8978     41.6181    130.5122   9.4469306610e+01   4.4230277694e+01    0.5093716    0.3060818 -72.69   0.00231786    1.623    0.384
       421  -8.9141     23.0122    131.9788   1.0098708764e+02   4.5622196752e+01    0.2623322    0.1335308  80.27  0.001031673    2.560    0.609
       422  -9.2977     16.3642    131.8264   1.0319143279e+02   4.6188326960e+01    0.2734002    0.1114468 -65.08 0.0006962646    2.012    0.503
       423  -9.7102     18.8253    126.8933   1.0173791469e+02   4.7310603855e+01    0.3263732    0.1707437 -70.48  0.001033723    1.662    0.398
       424  -9.8587      2.8495    131.2095   1.0758288578e+02   4.7246455351e+01    0.3081184    0.1851199 -54.54  0.001596599    1.525    0.344
       425  -8.5196     86.9894    130.0505   7.9411620980e+01   3.8077571778e+01    0.1895016    0.1684708 -53.86 0.0005476839    1.085    0.078
       426 -10.0297     33.2431    127.6863   9.6883844737e+01   4.5844282353e+01    0.3666342    0.2159832 -50.60    0.0012046    1.583    0.368
       427  -8.8459     12.5480    126.8868   1.0388313128e+02   4.7770847142e+01    0.2166741    0.1194569 -73.82  0.001023752    1.578    0.366
       428  -8.4542     50.5111    126.4940   9.0718013901e+01   4.4276591383e+01    0.1485507    0.1368429 -57.17 -7.354545e-05    1.020    0.019
       429  -9.2886    241.8011    124.3308   4.4309882650e+01   1.0721874791e+01    0.2285839    0.1402674 -44.61 0.0009331875    1.374    0.272
       430 -10.1250      7.8381    122.1348   1.0493962671e+02   4.9332537524e+01    0.3571289    0.1453228 -61.65   0.00153449    1.970    0.493
       431  -9.9217      3.5387    120.9615   1.0629643985e+02   4.9893728807e+01      0.54792     0.115623 -75.15  0.001661977    4.053    0.753
       432  -9.7178     72.0295    121.5541   8.2364837903e+01   4.2624955590e+01    0.3656537    0.2085037 -51.96 0.0004523101    1.639    0.390
