#   1 NUMBER                 Running object number                                     
#   2 MAG_AUTO               Kron-like elliptical aperture magnitude                    [mag]
#   3 X_IMAGE                Object position along x                                    [pixel]
#   4 Y_IMAGE                Object position along y                                    [pixel]
#   5 X_WORLD                Barycenter position along world x axis                     [deg]
#   6 Y_WORLD                Barycenter position along world y axis                     [deg]
#   7 A_WORLD                Profile RMS along major axis (world units)                 [deg]
#   8 B_WORLD                Profile RMS along minor axis (world units)                 [deg]
#   9 THETA_WORLD            Position angle (CCW/world-x)                               [deg]
#  10 FWHM_WORLD             FWHM assuming a gaussian core                              [deg]
#  11 ELONGATION             A_IMAGE/B_IMAGE                                           
#  12 ELLIPTICITY            1 - B_IMAGE/A_IMAGE                                       
         1 -11.4571    203.7956     25.2048   3.7674650761e+01   3.1729362862e+01      1.94746    0.4025469 -42.57  0.006954011    3.729    0.732
         2 -13.6178    242.9579    110.6295   5.1845113612e+01   1.0524162337e+01      4.36655      1.57694 -43.25   0.01790517    2.316    0.568
         3 -13.4857    219.5115     30.8872   3.7375707671e+01   2.7529598649e+01     2.787149     1.367766 -44.32   0.01431587    1.799    0.444
         4 -12.7566    239.6908     24.5143   3.4258420572e+01   2.4077771550e+01     1.275507    0.8150766 -32.33    0.0069803    1.780    0.438
         5 -13.1039    245.3515     11.1780   3.1223660951e+01   2.4524924069e+01     1.854672    0.7645774 -55.58  0.009772841    2.001    0.500
         6 -14.4518    241.8642     62.6561   4.1894606685e+01   1.8433016749e+01     2.509884      1.60726  60.02   0.01431476    1.758    0.431
         7 -13.4408    248.6802     39.0665   3.6425780992e+01   2.0407766481e+01     1.541072    0.9263841 -33.99  0.008845871    1.776    0.437
         8  -9.8661    142.1933     13.2882   4.2365500497e+01   4.7587602643e+01    0.5892724    0.2536811 -14.91  0.002319509    3.740    0.733
         9  -7.9989    163.1944     14.6338   3.9746645124e+01   4.2430534468e+01    0.1978149    0.1587209 -55.74 0.0004061437    1.268    0.211
        10  -9.1028    156.5460     11.5238   3.9767938986e+01   4.4334780614e+01    0.3233762    0.2381906  -7.40  0.001267812    1.844    0.458
        11 -10.8518    119.1285      9.9487   4.5271735342e+01   5.3335206557e+01     0.650197    0.3626338  49.18  0.003297626    1.599    0.375
        12  -8.0992    182.0495      5.3872   3.5169589232e+01   3.8917899967e+01    0.3525144    0.1403486  47.13   0.00142284    3.480    0.713
        13  -7.8108    166.9078      2.6866   3.6090520984e+01   4.2720240984e+01    0.1691741    0.1305873  83.16 0.0002687225    1.087    0.080
        14  -8.9822    192.9495    194.9397   7.7862085698e+01   4.1455524241e+00    0.3005333    0.1941174 -66.58  0.001311911    2.699    0.630
        15  -8.5891    197.8883    249.1974   8.6009116574e+01  -5.5398546944e+00    0.1804775    0.1542849  -4.74 0.0004457324    1.134    0.118
        16  -8.6896    176.4956    196.1747   8.1483903233e+01   6.7276198767e+00    0.2409855    0.1845137  27.82  0.000337795    1.275    0.215
        17  -9.2310     38.1079    195.2171   1.1369094215e+02   2.8784726796e+01    0.2087918    0.1781009 -82.09 0.0003486966    1.141    0.124
        18  -9.8961    230.3291    194.4490   7.0708521902e+01  -1.7242071741e+00      0.43132    0.2199015  52.82  0.001845713    3.322    0.699
        19  -7.4085    161.9918    193.4435   8.4113672159e+01   9.8144072192e+00      0.18879    0.1178943  60.41 0.0004306805    2.253    0.556
        20 -11.6897    248.2827    184.0170   6.5713736600e+01  -2.6703998346e+00    0.9149677     0.415251 -43.71  0.004391245    2.119    0.528
        21  -9.6090    235.9113    188.5442   6.8632885916e+01  -1.5930258941e+00    0.2817502     0.195101 -58.22   0.00149559    2.128    0.530
        22  -8.3307    221.3401    186.3105   7.0785947106e+01   1.0213952621e+00    0.1373232   0.09498074  -3.74 0.0003019602    1.692    0.409
        23  -7.5794    103.6016    183.4780   9.6156230954e+01   2.2308223228e+01    0.1447882      0.13398  76.97 0.0008011584    1.033    0.032
        24 -10.1288    221.8187    177.4896   6.8994472652e+01   2.4745978186e+00    0.4589459    0.3368253  80.90   0.00218509    2.727    0.633
        25 -10.2968    224.2225    173.7141   6.7823122933e+01   2.7425273091e+00    0.3801762    0.1937758 -40.93  0.001789016    1.795    0.443
        26  -8.2420    212.3314    180.3080   7.1290144397e+01   3.5444551367e+00    0.1398651   0.09967405  -3.67 0.0003451068    1.665    0.400
        27  -8.5622     40.1022    179.8513   1.1165985856e+02   3.2234572995e+01    0.1911553    0.1684596 -85.53 0.0004399673    1.088    0.081
        28 -11.7369      5.2795    159.8975   1.1847959678e+02   4.0419903535e+01    0.9377271    0.6245715 -79.14  0.004519294    1.225    0.183
        29  -7.4634    135.6814    165.7276   8.4951280835e+01   2.0693975918e+01     0.148136    0.1204194  -3.45 0.0003194452    1.566    0.361
        30  -9.9215     10.1093    161.1374   1.1736102782e+02   3.9739625868e+01    0.3262227    0.2603382 -53.18  0.001379184    1.379    0.275
        31  -7.6139    236.5359    244.4151   7.8239599987e+01  -9.9403216351e+00    0.1158703   0.08817188   1.82 -1.026899e-05    1.033    0.032
        32 -11.8450    213.0331     79.8046   4.9260855920e+01   2.1741763695e+01      1.68357     1.156207 -44.58  0.007669602    1.324    0.245
        33  -8.3834      7.4430    236.4763   1.2297503280e+02   2.2998007209e+01    0.1913055    0.1532062 -28.68  0.001291356    2.205    0.547
        34  -9.0883    196.9064    231.8363   8.3487372928e+01  -2.7786315470e+00     0.278813    0.2425437 -88.06  0.001728983    1.884    0.469
        35 -10.1814    216.9251    225.8038   7.8701772474e+01  -4.7291821437e+00    0.2185494     0.188982  -7.68 0.0004017202    1.104    0.094
        36  -9.0505    185.2048    226.0116   8.4844398363e+01  -7.0417782114e-02    0.2548462    0.1665574  36.97 0.0004261853    1.428    0.300
        37  -8.9450    186.2686    221.3574   8.3865234985e+01   5.4993233030e-01    0.2130079    0.1938566  12.15 0.0002676422    1.070    0.066
        38 -11.2053     53.3056    142.9797   1.0316543667e+02   3.9897085196e+01    0.8865542    0.5310848 -74.64  0.002748804    1.658    0.397
        39 -10.5327     37.9738    148.4051   1.0840780650e+02   4.0298893350e+01    0.4618756    0.3418442   6.05  0.001234356    1.808    0.447
        40 -11.3743     45.6920    145.0346   1.0570896522e+02   4.0291587349e+01     0.835089    0.6909016 -75.59  0.003134108    1.078    0.073
        41  -8.3346    134.0000    146.4972   8.1347273384e+01   2.5477346725e+01    0.5216376   0.08747242 -49.70  0.001154609    5.917    0.831
        42 -10.9349     67.4862    143.1747   9.9040520012e+01   3.7955085540e+01    0.9561137    0.6745566  89.95  0.004045579    1.614    0.380
        43  -8.7688    126.0270    141.0275   8.2184461858e+01   2.8348158770e+01    0.2243233    0.2192292  78.51  0.001195788    1.017    0.017
        44  -8.1260    188.0491    140.0258   6.7584915132e+01   1.5800295429e+01    0.2258694    0.1787195  -1.12 0.0003412423    1.613    0.380
        45  -7.9021    222.8261    137.6246   6.0649962644e+01   9.4828271600e+00    0.2106422    0.1599886 -70.75 0.0007321316    1.689    0.408
        46  -7.6436    221.0000    134.0037   6.0181187862e+01   1.0486260363e+01    0.1937986    0.1155894 -40.83 0.0005416136    1.497    0.332
        47  -9.7257    249.0886    144.6388   5.7937628689e+01   3.6855444037e+00    0.3716686     0.288736 -27.71  0.001570944    1.173    0.148
        48  -8.9233    199.0124    133.5271   6.3991330251e+01   1.4870874854e+01    0.2175387    0.1456452  48.36  0.001036975    1.607    0.378
        49  -9.6219    182.7503    143.2011   6.9376507469e+01   1.6229860042e+01    0.2473725    0.2423532 -53.73 0.0002773152    1.041    0.039
        50  -8.3466    136.0000    129.4650   7.6936258829e+01   2.9002881344e+01    0.3456269   0.08798873 -47.70 0.0009268622    3.871    0.742
        51  -8.4333    160.3202    127.9630   7.0721697280e+01   2.4152517226e+01    0.2886343    0.2239811  80.73  0.001330412    1.628    0.386
        52 -12.0429    227.1906     89.8077   4.9535766604e+01   1.7095735679e+01     1.891757    0.5611115 -50.77  0.005978412    3.954    0.747
        53  -8.5853    131.3055    115.5451   7.4710506215e+01   3.3143306674e+01    0.2076931    0.1513021  32.56 0.0009280805    1.534    0.348
        54  -8.5446     74.3175    110.9705   9.0275855063e+01   4.4958193624e+01    0.2235333    0.2122838  27.89 0.0003865046    1.118    0.105
        55  -7.5619    189.3445    108.6947   6.0038606725e+01   2.1742031687e+01    0.1534928    0.1132592 -78.07 0.0007041732    1.690    0.408
        56  -8.7115    148.5267    105.0757   6.7725945767e+01   3.1621916499e+01    0.2920434    0.2488026  10.74  0.000904103    1.451    0.311
        57 -10.3138    134.6420    101.7107   7.0228023958e+01   3.5429544935e+01    0.6158238    0.2604534 -45.03  0.002192152    2.345    0.574
        58 -10.4037    125.2915    103.7549   7.3213012345e+01   3.7029708713e+01    0.3419204    0.3187921  88.27  0.001493057    1.121    0.108
        59  -9.5655    158.9940    101.0959   6.4300037813e+01   3.0061200002e+01    0.4936062    0.2820036  38.45  0.001986778    2.070    0.517
        60 -10.2733    109.0002     99.7339   7.6655844010e+01   4.1309881399e+01    0.4317736    0.2753819  42.90  0.001055184    1.590    0.371
        61  -8.9916    187.9062     96.7342   5.7392976915e+01   2.4324591980e+01    0.4240393     0.288437 -45.20  0.001372933    1.387    0.279
        62  -8.6735    184.6720     95.3151   5.7634341779e+01   2.5317747035e+01    0.2583263    0.2232777 -57.36 0.0007279803    1.096    0.087
        63  -9.4873    182.7785     92.0590   5.7170033060e+01   2.6351345352e+01    0.3651251     0.269457  62.21 0.0004838089    1.403    0.287
        64  -9.8906    174.7818     95.0567   5.9453008935e+01   2.7620922554e+01    0.5640426     0.326331  42.06  0.001820601    1.987    0.497
        65  -9.8961    141.9073     95.6205   6.6778165453e+01   3.5062683790e+01    0.3418015    0.2882788  62.54 0.0007798488    1.215    0.177
        66 -10.2170     92.2334     92.1489   7.9613433458e+01   4.6232895001e+01    0.2430455    0.2342263   5.67 0.0002599665    1.050    0.047
        67 -10.1911    157.2091     92.5831   6.2444423251e+01   3.2152562736e+01    0.4285826    0.2702864 -39.04 0.0008199933    1.607    0.378
        68 -10.8846    118.6627     94.3179   7.2418426813e+01   4.0467176173e+01    0.5204023    0.3573105  34.92  0.002355445    1.586    0.369
        69  -9.3323    191.8589     88.1743   5.4587176180e+01   2.4993086571e+01    0.2641997     0.234884  53.71 0.0009742924    1.217    0.179
        70  -9.7974    196.8678     86.5481   5.3347725793e+01   2.4153880659e+01    0.4099955    0.3452395  58.88  0.002267241    1.253    0.202
        71  -9.0032    131.0196     88.5019   6.7495363376e+01   3.8953612751e+01    0.2360193    0.1489684  50.07   0.00102917    1.580    0.367
        72  -9.7074    157.2400     83.5140   5.9988332975e+01   3.3866397995e+01    0.2770898    0.2167371  83.15 0.0008671632    1.448    0.310
        73  -8.6543    140.3524     80.8358   6.3018505292e+01   3.8309409328e+01    0.2100972    0.1421018 -30.68  0.000370971    1.664    0.399
        74  -8.7406    140.7394     69.9053   5.9761435526e+01   4.0198805081e+01    0.2156986    0.2008947  11.53 0.0007173165    1.212    0.175
        75  -7.9316    192.4621     68.4285   4.9596932356e+01   2.8220134447e+01    0.2599712    0.1112609 -48.11  0.000838679    2.280    0.561
        76  -8.5180    172.5784     64.8392   5.1954698286e+01   3.3471485199e+01     0.242323    0.1699938  70.22  0.001196763    1.436    0.304
        77  -9.5551    135.3869     61.8129   5.8569825781e+01   4.2829114396e+01    0.5242847     0.178553 -33.11  0.001701646    3.480    0.713
        78  -7.4806    199.0000     59.9470   4.6542863643e+01   2.8054006754e+01    0.2202823   0.07436894 -36.55 0.0006935264    2.888    0.654
        79  -8.7045    196.8540     56.0910   4.5902762905e+01   2.9131674198e+01    0.4223379    0.2488696  55.85  0.002067026    1.756    0.430
        80  -8.4231    187.0181    216.6657   8.2925937143e+01   1.2370293263e+00    0.2249418    0.1748776 -25.58 0.0002454298    1.302    0.232
        81  -8.0377    186.2956     58.9653   4.8166489360e+01   3.1151744626e+01    0.2023798    0.1594235 -49.69 0.0009925052    1.219    0.180
        82 -10.2073    163.5488     53.8916   5.0567195378e+01   3.7347594429e+01    0.5106595    0.2608807 -35.33  0.002219731    2.045    0.511
        83  -8.7433    169.9832     55.7202   4.9951470399e+01   3.5524406228e+01    0.2038768    0.1783053  76.72 0.0008782393    1.077    0.071
        84  -8.2234    203.4741    151.9881   6.7183702704e+01   1.0410463151e+01    0.2071791    0.1187032 -61.35 0.0008099484    2.604    0.616
        85  -8.4001    191.8237     52.7517   4.5784689472e+01   3.0793934473e+01    0.2309737     0.184524  73.72 0.0008771081    1.202    0.168
        86  -8.6838    152.2449     50.2284   5.1597719718e+01   4.0617393103e+01    0.2044102    0.1612431 -78.06  0.001075274    1.370    0.270
        87  -8.7137    136.8696     49.3034   5.4416608395e+01   4.4435359087e+01    0.2432867    0.1878749 -50.28  0.000720168    1.373    0.271
        88  -8.8539    188.4639     45.1168   4.4340928828e+01   3.2676602270e+01    0.5285776   0.08109298 -38.38  0.001532373    4.852    0.794
        89  -7.6418    123.5415     47.5353   5.6855917002e+01   4.7820638780e+01    0.1394847    0.1312581  59.58 2.967822e-05    1.018    0.018
        90  -8.7615    206.1581     43.9680   4.1790552536e+01   2.8755419001e+01    0.2847169    0.1800272  65.97 0.0007863868    1.551    0.355
        91  -7.8084    162.4534     43.4598   4.7849155642e+01   3.9119359953e+01    0.1380115    0.1262763  80.17  0.000142901    1.033    0.032
        92 -10.1705    140.6633     42.1869   5.1450891072e+01   4.4545200525e+01    0.3083687    0.2500397  48.87  0.001716461    1.213    0.175
        93  -8.3081    196.1539     38.8136   4.1776471593e+01   3.1745489274e+01    0.2364271    0.2227463  80.56 0.0008533061    1.194    0.163
        94  -8.6481    192.1697     39.0796   4.2342895044e+01   3.2635266598e+01    0.3053083    0.1984414 -40.94 0.0009035093    1.522    0.343
        95  -8.0347    189.0140     36.7980   4.2180905252e+01   3.3675736844e+01    0.3049506    0.2179738  26.63    0.0015449    2.220    0.550
        96  -9.7726    123.0069     35.8101   5.3142494046e+01   4.9568313496e+01    0.3359088    0.2584808 -15.61  0.001840506    1.527    0.345
        97  -8.6146    154.9428     41.9648   4.8713127217e+01   4.1138803636e+01    0.2023488    0.1885261  86.91 0.0003821471    1.033    0.032
        98  -8.0511    167.5346     34.0078   4.4432812320e+01   3.9148271290e+01    0.1960913    0.1309522 -36.93 0.0007038265    1.578    0.366
        99  -8.8817    133.5850     33.1990   5.0066730719e+01   4.7413975866e+01    0.1848005    0.1348462 -10.98 0.0009605327    1.745    0.427
       100  -7.9982     78.5356     19.8989   5.9012578037e+01   6.1134812957e+01    0.1753723    0.1220054 -22.35   0.00055138    1.531    0.347
       101  -7.4629    213.9860    214.0096   7.7223227227e+01  -2.4633072201e+00    0.1504979     0.127866   3.94            0    1.030    0.029
       102 -12.3728    248.2469     82.6143   4.5332987006e+01   1.4128521902e+01     1.241918    0.6026237 -50.04   0.00322041    1.782    0.439
       103  -9.5650    136.1682     15.7349   4.4096943885e+01   4.8776704625e+01    0.2460051    0.1888006   0.25  0.001414556    1.682    0.406
       104  -7.7626    190.0337     15.5071   3.6817471465e+01   3.6008144803e+01    0.1832605    0.1099701  73.97 -7.294051e-05    1.479    0.324
       105 -10.1873    153.8516    210.8371   8.8908614748e+01   7.7658477782e+00    0.2484924    0.2204002 -43.77  0.000441185    1.214    0.176
       106  -7.1935    167.6876     13.7331   3.8929018912e+01   4.1453330953e+01    0.1248597   0.08888487  48.51 0.0002052361    1.544    0.352
       107  -8.5350    105.8915    206.9739   9.9164404969e+01   1.6576994481e+01    0.2001003    0.1827164  59.61 0.0002690323    1.010    0.009
       108  -9.5130    123.9963    206.0118   9.4833676191e+01   1.3804792399e+01     0.197045    0.1808968  49.67  0.001152944    1.009    0.008
       109 -12.1840    175.7661     81.9405   5.5884957087e+01   2.9807062073e+01     2.196388    0.7789794  42.93  0.004212586    4.082    0.755
       110 -10.1015    244.2706    200.3610   6.9391391858e+01  -4.6564524993e+00    0.4122598    0.3016007  84.22  0.001795243    4.552    0.780
