#   1 NUMBER                 Running object number                                     
#   2 MAG_AUTO               Kron-like elliptical aperture magnitude                    [mag]
#   3 X_IMAGE                Object position along x                                    [pixel]
#   4 Y_IMAGE                Object position along y                                    [pixel]
#   5 X_WORLD                Barycenter position along world x axis                     [deg]
#   6 Y_WORLD                Barycenter position along world y axis                     [deg]
#   7 A_WORLD                Profile RMS along major axis (world units)                 [deg]
#   8 B_WORLD                Profile RMS along minor axis (world units)                 [deg]
#   9 THETA_WORLD            Position angle (CCW/world-x)                               [deg]
#  10 FWHM_WORLD             FWHM assuming a gaussian core                              [deg]
#  11 ELONGATION             A_IMAGE/B_IMAGE                                           
#  12 ELLIPTICITY            1 - B_IMAGE/A_IMAGE                                       
         1 -11.6198    207.2477     30.3439   4.2469593200e+01   2.9805699710e+01    0.7711986    0.6623847  54.58  0.001936275    1.294    0.227
         2  -8.7531    236.1394     10.1517   3.4979302731e+01   2.5575681024e+01    0.2507932    0.2197568 -61.43  0.000503274    1.130    0.115
         3 -10.1449    228.1020      4.4923   3.4334718044e+01   2.7945960757e+01    0.6567889    0.2970042 -51.36  0.003295552    1.955    0.489
         4 -10.1954    234.4717      3.3667   3.3622120508e+01   2.6665539901e+01    0.5617752    0.4240082 -67.64  0.003686638    1.092    0.085
         5  -7.7050    122.3852      8.2770   4.8253603413e+01   5.2911831535e+01    0.2750313    0.1655178  40.97 0.0007027345    1.578    0.366
         6 -10.2103      5.8662      6.7729   8.9961841353e+01   7.3198755349e+01    0.2688156    0.1792844   6.86  0.001893758    1.422    0.297
         7  -8.6874    119.5035      9.4774   4.9257626025e+01   5.3483007610e+01    0.2562862    0.1771332 -32.99 0.0009976574    1.593    0.372
         8  -8.0686     91.6803    216.9269   1.0949118419e+02   1.7224725499e+01    0.1999554    0.1630111  41.37 0.0003724935    1.224    0.183
         9 -13.6648     45.1797    201.8399   1.1763166904e+02   2.6657271881e+01     2.879528     1.936017 -60.95    0.0127171    1.584    0.369
        10 -15.0712      7.3362    245.8015   1.2747774806e+02   2.1951660053e+01     3.024688     1.856485  21.97   0.01936723    2.744    0.636
        11 -10.3556    234.8774    208.5768   7.9306037156e+01  -4.7124644057e+00    0.2336238    0.1991818   2.37 0.0003660004    1.104    0.095
        12  -9.2627    203.6255    209.9359   8.5340898888e+01   7.3179206424e-03    0.3489749    0.1996799  42.42 0.0008674576    1.746    0.427
        13  -9.0907    204.3708    205.0665   8.4313604741e+01   6.5912400813e-01    0.2533859     0.219456  17.95 0.0003575933    1.066    0.062
        14  -8.6908     65.6011    208.2139   1.1398150885e+02   2.2717048427e+01    0.2208346    0.2169145   0.52 0.0006777309    1.391    0.281
        15  -8.9948    205.0266    200.5061   8.3342050567e+01   1.2874870658e+00    0.2352428    0.1842038 -28.20 0.0003464337    1.269    0.212
        16  -7.3948    127.0000    207.0460   1.0065749399e+02   1.3608515690e+01    0.2037525   0.07750178 -54.26 0.0007345146    2.870    0.652
        17  -9.4839     63.3706    202.6857   1.1387582152e+02   2.4200202270e+01    0.2425019    0.1812509 -80.46 0.0009509277    1.248    0.198
        18 -12.6482     56.9583    240.3111   1.1855263716e+02   1.7413015874e+01    0.9729436    0.6163611  84.49  0.003267294    1.499    0.333
        19  -8.1501    214.8018    201.3767   8.1638802691e+01  -4.7804846170e-01    0.1836163    0.1108785  26.57  0.000340039    1.627    0.386
        20  -9.7938    231.4385    196.4796   7.7644118985e+01  -2.4029871363e+00    0.2524494    0.2348452  51.56  0.001138752    1.519    0.342
        21 -10.0709    172.5838    195.6348   8.8980904221e+01   7.8108364459e+00     0.245871    0.2419931 -23.49 0.0005351689    1.134    0.119
        22  -8.1091     82.8374    196.3435   1.0888698674e+02   2.2878175022e+01    0.2715191    0.1765665  57.91  0.001437366    1.477    0.323
        23  -9.2437    235.9952    194.0351   7.6359886097e+01  -2.7510298841e+00    0.1808581    0.1665827 -72.94  0.001133159    1.731    0.422
        24  -8.4117    124.9297    194.1386   9.9109456183e+01   1.6598577641e+01    0.2011303      0.18745  52.78 0.0003429957    1.014    0.014
        25  -8.8082    110.5680    187.4068   1.0130477119e+02   2.0488830949e+01     0.261183    0.2100904  77.57 0.0006745871    1.320    0.243
        26  -8.6051     70.7874    186.7031   1.1039195531e+02   2.6758071806e+01    0.3988268    0.2097065 -37.51  0.001570915    3.508    0.715
        27  -8.1979    232.9917    182.3286   7.4584803449e+01  -4.6039710926e-01     0.194937    0.1104294  61.37 0.0007051928    4.377    0.772
        28  -8.9029    193.9922    180.2465   8.1588878516e+01   6.7294460513e+00    0.2272731    0.1931711 -36.58 0.0002515003    1.208    0.173
        29  -8.9493    222.0907    178.8734   7.5864597280e+01   1.9383486678e+00    0.2632215    0.1664321 -57.20  0.001181195    2.541    0.607
        30  -9.4341    240.8040    177.4381   7.2225832412e+01  -9.6801758458e-01    0.2262827     0.194256  65.99 0.0008082308    1.794    0.443
        31  -7.1055    179.4761    177.4814   8.4033084831e+01   9.9602903657e+00    0.1420169     0.135868  12.39 0.0001711693    1.050    0.048
        32  -9.8583     70.6605    175.1875   1.0891254220e+02   2.9443901626e+01    0.3709476     0.315651 -44.21  0.001466077    1.400    0.286
        33  -9.4462     75.2156    170.0503   1.0707894181e+02   3.0016092339e+01    0.3139679    0.2432776 -34.52 0.0006311565    1.673    0.402
        34 -13.8593     32.9811    249.8479   1.2342773843e+02   1.8511776759e+01     6.636141     2.071644  27.55   0.00976137   13.992    0.929
        35  -8.7924    103.6593    172.9761   1.0058537298e+02   2.4900178816e+01    0.3615366    0.2169018  28.47 0.0009713072    1.990    0.497
        36  -9.1882    247.1354    171.6769   6.9973360374e+01  -1.0931200259e+00    0.1814587    0.1677366  37.44 0.0007675763    1.374    0.272
        37  -8.6226     58.2067    171.9336   1.1147397471e+02   3.1869919549e+01    0.1970199    0.1744176  68.31 0.0003262223    1.109    0.098
        38  -7.7028    121.7884    171.2338   9.5898315801e+01   2.2145800322e+01    0.1868812    0.1697663  -5.12 0.0002677754    1.290    0.225
        39  -8.8180     90.0130    168.9556   1.0326297580e+02   2.8053360558e+01    0.3903954     0.232828  84.31  0.001603393    2.471    0.595
        40 -13.2353     57.0606    188.9633   1.1376884630e+02   2.8063494571e+01     3.418894     1.549491  89.70  0.001392274    3.170    0.685
        41  -9.1332     30.8412    168.0180   1.1753489041e+02   3.5921459415e+01    0.4568433    0.1155993 -58.57  0.001720663    3.324    0.699
        42  -7.3124    126.5682    167.4356   9.4036193506e+01   2.2130770053e+01    0.1436852    0.1415942  67.43  6.22866e-06    1.027    0.027
        43  -8.6826     51.7458    163.6605   1.1198525766e+02   3.4646485530e+01    0.4167231    0.1790586  63.00    0.0015121    3.512    0.715
        44  -9.9264     82.3221    161.1024   1.0391161094e+02   3.1112845125e+01    0.6433803     0.263125  46.15  0.001863755    2.518    0.603
        45 -11.3174     58.7825    133.0254   1.0545799462e+02   4.1296224662e+01    0.8552723    0.4329838  57.11  0.003490463    2.652    0.623
        46 -11.1964     71.4230    156.6237   1.0598499149e+02   3.3787935357e+01     0.521809    0.4096649 -38.86  0.001132668    1.508    0.337
        47 -11.9598     67.8339    144.2679   1.0489825520e+02   3.7318835944e+01      1.13255    0.7759793 -88.32  0.005591084    1.625    0.384
        48 -10.0360     28.0774    151.9417   1.1646415348e+02   4.0023454751e+01    0.4369212     0.154899 -67.48  0.001883503    2.255    0.556
        49  -9.3679     64.7568    225.3509   1.1581578054e+02   1.9300581075e+01     0.309608    0.1539247 -78.17  0.001296214    2.143    0.533
        50  -8.1647     35.9880    150.6818   1.1430171448e+02   3.9547381901e+01    0.1773963    0.1527289  80.20 0.0005728045    1.108    0.098
        51  -8.5633    133.7466    145.0528   8.7636317856e+01   2.5851072669e+01    0.5282187    0.1338254 -52.76  0.001329242    4.748    0.789
        52  -8.8595     88.9377    155.8179   1.0131004244e+02   3.1365426848e+01    0.3562696    0.2775557 -39.86 0.0005362586    1.453    0.312
        53  -8.6023    103.3446    140.0343   9.4427769533e+01   3.2773692090e+01    0.4183729    0.2843812 -16.49  0.001712526    2.401    0.584
        54 -10.4654     26.3667    138.5819   1.1530039754e+02   4.3418066430e+01    0.4727969     0.324084  65.35  0.002534618    1.539    0.350
        55  -7.9510     99.9457    132.9459   9.3822664451e+01   3.5083480063e+01    0.2313614    0.1783019  80.66 0.0005371085    1.592    0.372
        56  -9.6019      3.8132    130.2210   1.2036053067e+02   4.7171723993e+01    0.3287315    0.1460817 -58.51  0.001525268    1.849    0.459
        57  -9.8602     91.0173    139.8326   9.7730506003e+01   3.4921837417e+01    0.2810145    0.2518805 -39.36  0.000294157    1.189    0.159
        58  -8.8276     92.5136    152.5084   9.9779594237e+01   3.1592323562e+01    0.2952662    0.2541237  78.20  0.001185867    1.184    0.155
        59  -8.7758    242.5707    127.7759   6.1255603335e+01   6.8783629879e+00    0.2075013    0.1141051 -44.22 0.0009550899    1.704    0.413
        60  -8.5674    141.2112    127.5020   8.1632428481e+01   2.8295492427e+01    0.2728744    0.2315116 -28.26 0.0003808638    1.239    0.193
        61  -9.3828    197.7946    126.3703   6.8771604704e+01   1.6200281815e+01    0.2577259     0.233773 -28.96 0.0003332888    1.037    0.036
        62  -8.6348     20.1460    137.8230   1.1686709200e+02   4.4140665416e+01    0.1881414    0.1480954  85.30 0.0004458701    1.164    0.141
        63  -8.8151     50.6405    135.2879   1.0814686853e+02   4.1726182491e+01    0.2282961    0.1541484  48.00 0.0004786617    1.609    0.378
        64  -8.5081     99.3291    126.8995   9.2635992473e+01   3.6651631879e+01    0.2564662    0.2186977  22.93 0.0004294905    1.326    0.246
        65  -7.6751    104.0303    121.2676   8.9984829525e+01   3.7154422758e+01    0.2004946    0.1904019 -60.61 0.0002942115    1.020    0.020
        66  -7.4591    108.4471    119.5359   8.8319680991e+01   3.6742200129e+01    0.1534956    0.1457626 -59.73 0.0001235045    1.027    0.026
        67  -7.4462     83.6592    119.3103   9.5415345266e+01   4.1124381281e+01    0.1513072    0.1140564  78.69 0.0007045029    1.693    0.409
        68  -8.7729     19.1120    111.0503   1.1354783928e+02   5.0706290863e+01    0.2541498    0.1766983  74.80  0.001452903    1.632    0.387
        69  -7.0571    226.2871    111.6987   6.0128381851e+01   1.2852356833e+01    0.1421246    0.1065821 -62.32 0.0002475176    1.559    0.358
        70  -9.8300     42.7499    109.5809   1.0591696659e+02   4.8932625632e+01    0.3192387    0.2519629  28.50  0.001859262    1.483    0.325
        71  -9.1542      9.8906    108.1767   1.1594448758e+02   5.2039641594e+01    0.2444288    0.1524795  39.76  0.000832098    1.909    0.476
        72  -9.0082      2.6551    106.9395   1.1797511173e+02   5.2768694438e+01    0.1868089    0.1514317 -45.55 0.0004951644    1.288    0.224
        73  -8.1286     63.8355    105.8596   9.8403850149e+01   4.7304093463e+01    0.1961339    0.1664022  87.37  0.001076037    1.349    0.259
        74  -7.2290    145.1484    101.6093   7.3804616543e+01   3.3058518813e+01    0.2013777    0.1487722  34.90 0.0003133791    1.472    0.321
        75  -8.4531     87.7022    100.9808   8.9652588087e+01   4.4819922382e+01    0.2170691    0.2096052  15.33 0.0003095832    1.105    0.095
        76 -14.6719      5.1561    217.8459   1.2651359397e+02   2.7504346749e+01     5.218937    0.9793156 -69.01   0.02162405    4.057    0.754
        77  -7.6616     32.6488     95.3253   1.0636879020e+02   5.3351655476e+01    0.1316402   0.09606197  74.69 0.0007048205    1.758    0.431
        78  -7.4968    249.4809     94.4745   5.2692669324e+01   1.1045578142e+01    0.1368655    0.1177867 -38.05 5.675273e-06    1.038    0.037
        79  -7.8149    120.9936     87.1321   7.5853852937e+01   4.1422737128e+01    0.3406019     0.207148  17.30  0.001147517    2.853    0.650
        80 -10.3843    104.0436     81.0321   7.8835124005e+01   4.6190502042e+01    0.2587402    0.2390885 -23.89  0.001402827    1.030    0.029
        81  -8.8051    200.1936     78.9997   5.6209403261e+01   2.4328311282e+01    0.3604599    0.2359092 -32.50  0.001092708    1.510    0.338
        82  -7.3947    115.5771     79.5200   7.5008509962e+01   4.4123058498e+01    0.1513937    0.1441068 -23.22 0.0001586477    1.012    0.012
        83  -7.3402    175.4081     68.5886   5.7702098429e+01   3.2053579772e+01    0.1482183    0.1403595 -67.15 9.341003e-05    1.038    0.037
        84  -7.0394    150.6359     55.7396   5.8720962779e+01   4.0226349965e+01    0.1537487    0.1100828  30.12 0.0005130324    1.637    0.389
        85 -10.5992    187.0009     48.0457   4.9891289787e+01   3.2364267211e+01    0.4860503    0.4001161  -1.72  0.001606741    1.517    0.341
        86 -11.3651    197.4149     40.5623   4.6355103977e+01   3.0850095396e+01    0.8456689    0.7496766 -62.14  0.003899806    1.057    0.054
        87  -9.5637    215.3024    215.3958   8.4105980300e+01  -2.6989602984e+00    0.3423159    0.2963787  83.06  0.001068098    2.046    0.511
        88  -7.8730    170.5504     27.2399   4.6385898645e+01   3.9157913348e+01    0.1752907    0.1371175  -6.41 0.0004742632    1.563    0.360
        89  -8.4386    163.0136     26.0252   4.7164270093e+01   4.1177518903e+01    0.2010461    0.1881121  60.84 0.0003508005    1.058    0.055
        90  -8.7752    130.5135     22.0142   5.1585747260e+01   4.9622601805e+01    0.2744542    0.2117175  49.76  0.001520626    1.184    0.155
        91  -9.6504    115.6414    242.2857   1.0761182438e+02   8.8499651465e+00    0.3699562    0.2043688 -67.59  0.001972762    2.297    0.565
        92  -8.3078    114.4893    236.5126   1.0716782423e+02   1.0041712195e+01    0.2102149    0.1239146 -64.82 0.0008296826    2.010    0.503
        93  -8.1663    245.8217    243.1415   8.3415715534e+01  -1.0722420852e+01    0.1598412    0.1285982   8.26 0.0004461407    1.166    0.142
        94  -8.9018    104.7853    238.9974   1.0935223573e+02   1.1059388583e+01    0.3082098    0.1788192  49.72  0.001734967    1.465    0.317
        95  -8.2078    216.5922    233.0707   8.6899179350e+01  -5.4010545942e+00    0.1836023    0.1422588  28.59 0.0004116338    1.202    0.168
