#   1 NUMBER                 Running object number                                     
#   2 MAG_AUTO               Kron-like elliptical aperture magnitude                    [mag]
#   3 X_IMAGE                Object position along x                                    [pixel]
#   4 Y_IMAGE                Object position along y                                    [pixel]
#   5 X_WORLD                Barycenter position along world x axis                     [deg]
#   6 Y_WORLD                Barycenter position along world y axis                     [deg]
#   7 A_WORLD                Profile RMS along major axis (world units)                 [deg]
#   8 B_WORLD                Profile RMS along minor axis (world units)                 [deg]
#   9 THETA_WORLD            Position angle (CCW/world-x)                               [deg]
#  10 FWHM_WORLD             FWHM assuming a gaussian core                              [deg]
#  11 ELONGATION             A_IMAGE/B_IMAGE                                           
#  12 ELLIPTICITY            1 - B_IMAGE/A_IMAGE                                       
         1 -14.1113    200.4058      5.0247   5.7074108560e+01   3.3401630341e+01     1.878845     1.200895  76.59   0.01003808    1.513    0.339
         2 -13.9120    168.8106     45.9433   7.3027364051e+01   3.6747339966e+01    0.9955312    0.8466091  -2.51    0.0010422    1.382    0.277
         3 -15.1425    182.9902     30.0068   6.6011967843e+01   3.5125581235e+01     2.641782     1.604166  15.03   0.01065033    2.784    0.641
         4 -12.3155     55.8495      5.8662   8.6646703763e+01   7.1219286574e+01    0.3356948    0.1998635  33.25 0.0007935069    1.639    0.390
         5 -10.6824      5.9845    228.7655   1.4893742038e+02   2.5686288829e+01    0.1353846   0.08113999  16.93 0.0008501936    2.069    0.517
         6  99.0000     65.7060    208.6393   1.3493266758e+02   2.3308451202e+01     4.378885     1.871432  41.22   0.02165826    1.762    0.433
         7 -13.0233    112.5994    196.2585   1.2242296174e+02   1.9217619735e+01     0.652807    0.3800324   9.26  0.002749748    2.816    0.645
         8 -11.1937    133.0472    213.4973   1.1994720817e+02   1.3044028492e+01    0.2056696    0.1037959  33.82  0.001025852    1.573    0.364
         9 -13.2231     11.4472    206.8480   1.4726163859e+02   2.9372794102e+01    0.4523448    0.2839643  39.04  0.002751962    1.305    0.234
        10 -10.7587      5.1284    207.3226   1.4865454342e+02   2.9810429387e+01    0.1802198    0.1001208  48.39  0.001144415    1.308    0.236
        11 -11.3248     93.1367    206.9727   1.2831691502e+02   2.0015710885e+01     0.386427    0.2947452  52.82  0.002031819    1.196    0.164
        12 -11.2853     94.4581    199.8146   1.2722741741e+02   2.1212762906e+01    0.5341504    0.2727567  69.15  0.002139918    3.345    0.701
        13 -10.3090    164.8553    205.0797   1.1187994186e+02   9.5705510743e+00     0.334371    0.1756923 -58.55  0.001448918    3.638    0.725
        14 -10.9486     86.3995    204.4783   1.2965806212e+02   2.1427719449e+01    0.4152038    0.2751047   9.08  0.002143575    2.070    0.517
        15 -12.8517    193.9151    193.8634   1.0415530627e+02   6.7834231189e+00    0.8478248    0.6668516 -60.47  0.004395114    2.251    0.556
        16 -11.2921     58.7203    201.6724   1.3604905190e+02   2.5555206266e+01    0.2343134    0.1617819  46.32  0.001046855    1.149    0.130
        17 -12.3148    139.6960    199.1010   1.1648473224e+02   1.4475047481e+01    0.5619599    0.2222336  45.36   0.00219906    2.550    0.608
        18  -9.5918    211.4176    203.2825   1.0244491009e+02   2.9455108063e+00    0.1407896    0.1086926 -30.86 0.0003693345    1.538    0.350
        19 -13.8185    117.3369    201.1888   1.2193685202e+02   1.7569284364e+01     1.061137    0.3292338  40.97  0.004072763    2.617    0.618
        20 -16.3945     70.6138    147.6584   1.2714932967e+02   3.6249409073e+01     6.314157     3.319694  62.60   0.02159302    2.338    0.572
        21 -10.6937     90.8404    193.6296   1.2741567144e+02   2.2965626881e+01    0.2810118    0.2375264  14.14  0.001209493    1.333    0.250
        22 -10.0428    180.2266    193.0706   1.0675654662e+02   9.0237600506e+00    0.1825081    0.1586699  89.70  0.001075887    2.017    0.504
        23 -16.5790    103.4028    246.7794   1.2983569345e+02   1.1831228704e+01     6.541601     2.329704  24.22   0.02569331    3.625    0.724
        24 -12.6389    109.5086    189.0156   1.2221776995e+02   2.1106431235e+01    0.4065331    0.2789299 -14.38  0.001836056    2.248    0.555
        25 -19.3427     31.1099    141.6952   1.3871167868e+02   4.2358825399e+01     20.20766     2.622955 -77.45   0.04353245    8.959    0.888
        26 -11.6446    207.6988    183.9739   9.9787825064e+01   6.0819409027e+00    0.3133798    0.2526418  -1.75  0.001015847    1.074    0.069
        27 -11.6924    211.0963    180.5986   9.8545867358e+01   6.0351271272e+00    0.4023749    0.2434455 -21.78  0.002225545    1.618    0.382
        28 -10.1079     83.1981    229.3509   1.3264365379e+02   1.7267620311e+01    0.2015806    0.1140656  31.60 0.0005490964    1.437    0.304
        29 -12.4543     98.0702    180.5670   1.2397509173e+02   2.4605089958e+01    0.5153374    0.2367703  35.99  0.002240389    1.838    0.456
        30 -10.7469    145.0489    178.9253   1.1207637778e+02   1.7222830124e+01    0.2260671    0.1615339   2.73  0.001133304    1.703    0.413
        31 -12.3192    103.8946    194.4861   1.2430496009e+02   2.0879342244e+01    0.4357979    0.2930926  28.18  0.002349754    1.365    0.267
        32 -12.0633    197.8129    175.1017   1.0003513919e+02   8.9333687146e+00    0.4432669    0.2929708 -38.05  0.001553811    1.653    0.395
        33 -10.4817    176.9770    235.2434   1.1373777017e+02   3.5871731721e+00    0.1766443    0.1455138   6.72 0.0003766044    1.192    0.161
        34 -11.2556    145.7427    169.2242   1.1021554086e+02   1.8928458702e+01     0.354294    0.1881331 -38.13  0.001362638    2.171    0.539
        35 -11.3491    203.4529    167.3450   9.7470704447e+01   9.1777430608e+00    0.3983941    0.3106102  28.09  0.001952967    1.209    0.173
        36 -10.4614    230.3006    166.6363   9.2545728161e+01   5.0277974131e+00    0.1111345   0.09778998 -48.43 0.0007035048    1.726    0.421
        37 -10.6804    225.0401    166.0119   9.3315852504e+01   5.9150076589e+00    0.1734044     0.160433 -58.18 0.0008219365    1.729    0.422
        38  -9.3104    120.2513    163.6439   1.1560678881e+02   2.4568586089e+01    0.1417726    0.1101709  72.38 0.0004056009    1.603    0.376
        39 -12.9517    116.6052    212.2275   1.2347272218e+02   1.5689553339e+01    0.6655167    0.3340771  55.38  0.003000844    2.561    0.609
        40  -9.5868      6.3274    161.2548   1.4704120619e+02   3.9621756250e+01    0.1084332   0.09036375 -44.44 0.0002965432    1.552    0.356
        41 -13.1064    100.5658    155.8343   1.1962626281e+02   2.9665394785e+01     0.695778    0.4879014 -38.07  0.003345326    1.732    0.423
        42 -10.6535    119.3929    155.9089   1.1446629084e+02   2.6384277514e+01    0.2986016    0.2338084  68.88 0.0008460236    1.525    0.344
        43 -12.2235    133.9133    145.0498   1.0850781556e+02   2.6019671961e+01     1.088722    0.3379791 -55.46  0.002956883    4.947    0.798
        44 -10.3345    112.6601    150.2901   1.1527385071e+02   2.8835437262e+01    0.1553086    0.1104768  62.71 0.0003628593    1.645    0.392
        45 -11.0903    174.3747    148.4196   9.9530760220e+01   1.7494214188e+01    0.3542855    0.2632062 -49.78  0.001455915    1.595    0.373
        46 -12.1202    145.3283    146.1618   1.0582614416e+02   2.3568062927e+01     0.396655    0.3383897 -62.93 0.0007698999    1.402    0.287
        47 -12.5136    110.3522    140.6290   1.1408440391e+02   3.1462263613e+01    0.5968915    0.4079674 -30.61  0.002642317    1.880    0.468
        48 -14.4552    108.0649    207.1213   1.2483414980e+02   1.7855676118e+01     2.133523    0.7231858  34.52  0.008751383    2.335    0.572
        49 -12.4960     99.3737    140.9993   1.1736607433e+02   3.3337705044e+01    0.3052323    0.2739406  32.55 0.0003786875    1.097    0.089
        50  -9.3545    167.3208    133.6870   9.7842931330e+01   2.1611032492e+01    0.1439709    0.1216349  87.19 0.0003813577    1.653    0.395
        51 -11.8084    117.4634    130.5128   1.0992849436e+02   3.2452612519e+01    0.4712369    0.3790869   8.66  0.001464915    1.486    0.327
        52 -11.9969    105.4818    128.9494   1.1313056389e+02   3.5113811901e+01    0.6352916    0.3624671 -63.72  0.002193097    2.077    0.518
        53 -11.5050    136.0000    128.4982   1.0433323556e+02   2.9159182187e+01    0.5417957    0.1999971 -53.49  0.001658101    3.489    0.713
        54 -11.5523    135.4143    121.9562   1.0293869325e+02   3.0699964949e+01    0.5054189    0.2799791 -56.69  0.001935966    2.221    0.550
        55 -10.6447    160.3497    127.3928   9.7978632881e+01   2.4273586063e+01    0.3344948    0.2425262 -60.81  0.001168194    1.786    0.440
        56 -11.2562    125.0923    127.0601   1.0698263435e+02   3.1716644021e+01    0.3544356    0.2473445  67.98  0.001492872    1.927    0.481
        57 -11.1659    121.1389    124.8206   1.0758820744e+02   3.3026375278e+01    0.2507715    0.2380674  24.59 0.0007639751    1.051    0.049
        58 -10.5010    111.8088    119.7012   1.0914345949e+02   3.6089621176e+01    0.2735606    0.2530093  -8.56 0.0007887311    1.187    0.157
        59 -10.7513    168.5199    113.3701   9.2664628624e+01   2.5211858974e+01    0.3545693    0.2769549 -78.90 0.0009423803    1.837    0.456
        60 -10.5201    205.4833    110.1741   8.4607480797e+01   1.7855021610e+01    0.2984537    0.1992407  38.05 0.0009581634    1.586    0.370
        61  -9.9311    115.6514    110.6669   1.0576681919e+02   3.7421537864e+01    0.1665137    0.1276347  -2.84 0.0004777536    1.773    0.436
        62 -10.6129     78.9361    232.1581   1.3378895949e+02   1.7320086117e+01    0.1730175    0.1420595  48.08 0.0002566039    1.110    0.099
        63 -10.4440    134.5336    104.0324   9.8566900448e+01   3.4779579769e+01    0.4871337    0.1581072 -45.38  0.001455442    3.185    0.686
        64 -12.1133     66.8922    104.6367   1.2095141729e+02   4.7803513908e+01    0.3387888    0.2846687   5.16  0.001718058    1.389    0.280
        65  -9.7926     64.3664     98.2199   1.2051847346e+02   4.9849017632e+01     0.213544    0.1414956 -75.62 0.0007229529    1.661    0.398
        66  -9.8258     78.1968     74.9139   1.0866842258e+02   5.3449886932e+01    0.2287826    0.2047702  67.63 0.0006713819    1.225    0.184
        67 -11.0287     13.6621     59.9099   1.3599831297e+02   6.4924647077e+01    0.2160137    0.1950122  28.80 0.0004385045    1.257    0.204
        68  -9.6146    168.1848    248.1504   1.1706228423e+02   3.1293991301e+00    0.1457913    0.1071531  34.55 0.0002523764    1.293    0.226
        69  -9.8964    182.4686    241.6843   1.1354239815e+02   2.0611791557e+00    0.1601019    0.1120637 -38.66 0.0006736008    1.893    0.472
        70 -11.3229    171.5058    240.0881   1.1542421097e+02   3.7025771271e+00    0.2668215    0.2229868  66.78  0.001427764    2.118    0.528
        71  -9.2631      6.8842     57.0000   1.3923275666e+02   6.5943672993e+01    0.1883389   0.07514257   7.89 0.0007923946    2.873    0.652
        72 -11.2570     11.4918     36.9787   1.3248787187e+02   7.0748591747e+01    0.2375234    0.1812665   1.82 -0.0001049884    1.416    0.294
