#   1 NUMBER                 Running object number                                     
#   2 MAG_AUTO               Kron-like elliptical aperture magnitude                    [mag]
#   3 X_IMAGE                Object position along x                                    [pixel]
#   4 Y_IMAGE                Object position along y                                    [pixel]
#   5 X_WORLD                Barycenter position along world x axis                     [deg]
#   6 Y_WORLD                Barycenter position along world y axis                     [deg]
#   7 A_WORLD                Profile RMS along major axis (world units)                 [deg]
#   8 B_WORLD                Profile RMS along minor axis (world units)                 [deg]
#   9 THETA_WORLD            Position angle (CCW/world-x)                               [deg]
#  10 FWHM_WORLD             FWHM assuming a gaussian core                              [deg]
#  11 ELONGATION             A_IMAGE/B_IMAGE                                           
#  12 ELLIPTICITY            1 - B_IMAGE/A_IMAGE                                       
         1 -14.1797     36.1952     56.0856   4.8383279180e+01   6.4271559084e+01     2.170469     1.426711  11.90   0.01002496    1.728    0.421
         2 -13.0313     67.2673     14.2575   1.4564004521e+01   6.5197676967e+01     1.259279    0.4935813  67.20  0.000865488    2.762    0.638
         3 -12.6759     58.3364     60.9309   3.8881326049e+01   5.9429152692e+01    0.8694759    0.6232268 -73.13  0.003226748    1.918    0.479
         4 -13.6570     51.1998     44.7102   3.5835144939e+01   6.4082130665e+01    0.9360088     0.610505   6.16  0.001448176    2.474    0.596
         5 -14.3800     79.6962     43.8879   2.3751397298e+01   5.8092931548e+01     1.523955     1.194753 -88.56  0.007724073    1.560    0.359
         6 -12.7363     64.8846     39.1805   2.7263268449e+01   6.2235042496e+01    0.5293806    0.4372602 -59.65 0.0002921845    1.410    0.291
         7 -13.4231    193.0756     66.8656   8.1566898967e+00   2.8882079445e+01     1.322359    0.7525783  32.56   0.00579639    3.608    0.723
         8 -12.8506    232.8408     35.9043   3.5804877328e+02   2.5670810346e+01     1.274416    0.3172576 -55.32  0.004940947    4.387    0.772
         9 -11.4814    209.8090     22.4492   3.5674427536e+02   3.1254197062e+01    0.5678473    0.2394227  64.63  0.001812626    2.605    0.616
        10 -11.8776    228.4020     15.5019   3.5427390719e+02   2.8639606402e+01    0.3512883    0.2510416  53.85  0.002521248    2.026    0.506
        11 -12.3214    221.4470     11.2812   3.5376652576e+02   3.0293350099e+01    0.4859599     0.314803 -49.56  0.003476769    1.156    0.135
        12 -11.4753    227.6733      9.3670   3.5309651398e+02   2.9387501551e+01    0.2458435    0.1478524 -43.81  0.000414745    1.278    0.218
        13 -13.1981    220.0457     27.7426   3.5721165990e+02   2.8798976294e+01    0.4172989    0.3423371 -22.40 0.0006262155    1.550    0.355
        14 -12.8546    226.3136     22.7363   3.5582303994e+02   2.8240888289e+01    0.3487903    0.2352462 -86.72  0.001486168    1.476    0.322
        15 -13.6292    229.1436     46.2622   3.5279435554e-01   2.5080871420e+01    0.9623786     0.491775 -51.78  0.003371278    1.555    0.357
        16 -13.2804     79.3563     21.7929   1.4445308806e+01   6.1367198566e+01     1.611783    0.5667138  53.76   0.00219354    2.392    0.582
        17 -12.8816     40.1553     41.1943   4.0153356656e+01   6.6793029956e+01     1.830241     1.035724  19.12  0.007545464    2.342    0.573
        18 -12.2335      3.0550     27.9579   6.1312673114e+01   7.4293749168e+01    0.8185592    0.3727491 -60.26  0.003775641    2.167    0.539
        19 -12.7394     25.4312     41.3136   4.9338089025e+01   6.9045789271e+01     1.209986    0.6805328 -47.58  0.005699437    1.796    0.443
        20 -13.2961      8.7365     40.3442   6.1041215405e+01   7.1076400530e+01     1.218613    0.7429719 -34.95   0.00585928    1.588    0.370
        21 -12.8338    189.3562     34.3071   9.6305907016e-01   3.3895733609e+01    0.6354371    0.3676786  82.70 0.0005013386    1.780    0.438
        22 -11.5138    112.6709     22.4185   7.1272230624e+00   5.2980468526e+01    0.5314989    0.3897591 -24.05  0.002907183    1.621    0.383
        23 -11.8257    244.6656     22.3919   3.5480763980e+02   2.5216037042e+01    0.9131607    0.4116026 -51.79  0.005887503    1.598    0.374
        24 -13.2078    249.7309     11.1950   3.5253100413e+02   2.5557046356e+01    0.4156989     0.224263 -43.36  0.003005926    1.314    0.239
        25 -13.5825    242.5009      7.1369   3.5206347807e+02   2.7112575133e+01      0.59391    0.2883519 -73.18   0.00192802    1.884    0.469
        26 -11.3040     20.4607     21.6687   4.3501582011e+01   7.3646560537e+01    0.5082791     0.250589 -57.09  0.002192771    2.786    0.641
        27 -11.0329    203.5197     17.8617   3.5614292625e+02   3.2943120546e+01    0.3344208    0.2570706  33.66  0.001081554    2.110    0.526
        28 -10.5669      4.9686     17.8074   5.4993297441e+01   7.6259107942e+01    0.3802621    0.1756384 -51.44  0.001066973    2.110    0.526
        29  99.0000     36.8439     20.8894   3.1830983911e+01   7.1003760792e+01     4.213652     1.513847  54.13   0.01324673    4.298    0.767
        30 -12.6046    116.4616      7.9473   1.3660699658e+00   5.3535905596e+01    0.5106939    0.3978004   1.74  0.001658759    1.756    0.430
        31 -11.7331    160.1072     13.9612   3.5842779366e+02   4.2480648049e+01     0.225389    0.1636703  82.77 0.0003197182    1.259    0.206
        32 -10.6953    150.2954     13.1637   3.5912281572e+02   4.4820741788e+01    0.2316032     0.179124 -52.89 0.0007141861    1.196    0.164
        33 -10.2010    108.2904     11.3402   3.8137292203e+00   5.5261352899e+01    0.3415135    0.2449342 -31.90  0.001919675    1.554    0.356
        34 -11.5291     38.1625     12.3543   2.5955593347e+01   7.1988360623e+01    0.2179449    0.1922173  27.51 0.0003110264    1.061    0.057
        35 -11.5293     13.9607     12.0858   4.3164778715e+01   7.6271372405e+01    0.1894098    0.1662742  -1.85  0.001213053    1.074    0.069
        36 -10.8124    124.9242     11.9503   1.6150394759e+00   5.1048800590e+01    0.3982518    0.1643492  74.89  0.001601421    2.188    0.543
        37 -10.2220     88.5841     12.0800   7.8301882299e+00   6.0159282327e+01    0.1768264     0.137032 -20.62 0.0007366059    1.547    0.354
        38 -10.4432    144.1187      9.9304   3.5878915657e+02   4.6596480351e+01    0.2004609    0.1486973 -86.66 0.0003080573    1.159    0.138
        39  -9.9676    102.7651     10.0689   4.2487493686e+00   5.6778280602e+01    0.2146428    0.1407074  31.03  0.001074736    2.036    0.509
        40 -11.3543     70.2614      4.0901   8.5255604860e+00   6.5501961042e+01    0.5339866    0.2327227 -35.51  0.002394643    2.503    0.601
        41 -10.9579     79.1473      9.4259   8.8411574586e+00   6.2790319971e+01    0.3756647    0.1650389  55.77  0.001029819    1.907    0.476
        42 -11.9231     63.5318      7.1468   1.2078405208e+01   6.6857611799e+01    0.4105885    0.3351648  72.61  0.001350075    1.156    0.135
        43 -11.4443     65.0626      3.1924   9.5029106305e+00   6.6861168505e+01    0.2760582    0.2474066  57.44 0.0006391829    1.069    0.065
        44 -11.7957     25.4189      9.6055   3.2237727524e+01   7.4827449371e+01    0.4099528    0.2124675  34.56  0.001930336    1.787    0.440
        45 -11.0723    194.2841      8.0169   3.5449135374e+02   3.5769895808e+01    0.2300573      0.17337 -62.30 0.0009642006    1.018    0.017
        46 -10.4240     48.4894      6.6361   1.7334973321e+01   7.0444963698e+01    0.5850533     0.299607  42.02   0.00276394    1.834    0.455
        47 -11.9069     46.0975      2.5310   1.5802203718e+01   7.1417709280e+01    0.2320547    0.1934322  27.12 0.0006076226    1.224    0.183
        48 -12.4464    173.2257      6.0909   3.5534129376e+02   4.0352525794e+01     0.356691    0.2463536 -18.20  0.001766549    1.864    0.463
        49  -9.4456    163.9510      8.4559   3.5662739117e+02   4.2166549731e+01    0.1815185   0.07818184 -72.51 0.0008079179    2.453    0.592
        50  -9.7756    132.6654      8.1170   3.5943360793e+02   4.9522255778e+01    0.1434094    0.1223557 -14.80 0.0002562154    1.490    0.329
        51  -8.9755    124.4560      8.4820   5.1298770432e-01   5.1500027877e+01    0.1324062    0.1104474 -84.44 0.0003738833    1.022    0.022
        52 -10.0035     91.5044      7.0417   5.0713726498e+00   5.9909769515e+01    0.1835058    0.1285263 -35.91  0.001008422    1.579    0.367
        53 -12.8529     77.1638      5.1591   7.3103355686e+00   6.3689539946e+01      0.42785    0.3048627  27.06 0.0005339286    1.704    0.413
        54  -9.3787    209.8740      6.2032   3.5327184083e+02   3.2920598140e+01     0.191572    0.1118854  81.84  0.001248365    1.706    0.414
        55 -10.6045      3.7667      5.8245   4.9133377303e+01   7.8644418439e+01    0.3750191    0.1910091  -0.60  0.001613403    2.796    0.642
        56  -9.7344    188.9450      5.3193   3.5417530215e+02   3.7114811873e+01    0.1521503    0.1107574 -73.21 0.0002237642    1.124    0.110
        57  -9.9357    141.9886      4.0746   3.5724469060e+02   4.7653752687e+01    0.1534119    0.1152227  89.74 0.0003858311    1.134    0.118
        58 -10.7260     56.0278      3.9373   1.2804588567e+01   6.8969685017e+01    0.4057346    0.1713755  63.19  0.001138049    2.076    0.518
        59 -11.1686    231.5038      1.5824   3.5142427915e+02   2.9483734488e+01    0.2214329    0.1255141  76.55  0.001004071    1.929    0.482
        60 -10.2371    218.7077      1.8749   3.5197967330e+02   3.1708623959e+01    0.2096501     0.108432  62.86   0.00102469    2.397    0.583
        61 -10.2003    213.4913      2.0446   3.5223387444e+02   3.2647209121e+01    0.2234477      0.15634  77.26 0.0005778693    1.559    0.359
        62  -9.7850    111.7166      3.5449   4.2449758494e-01   5.5118917668e+01    0.1804608    0.1093174 -89.39 0.0006096155    1.530    0.346
        63  -9.2250    155.0159      2.5468   3.5571315106e+02   4.4748622483e+01     0.172648    0.1046791  82.12 0.0006487158    1.461    0.315
        64  -9.8602    126.9287      1.7194   3.5798234633e+02   5.1500139480e+01    0.1755496    0.1366408  89.67 0.0002449791    1.077    0.072
        65 -11.1431     87.3291      1.3421   3.4018106000e+00   6.1461230798e+01    0.4259491    0.1059696  67.38 0.0007449467    3.047    0.672
        66  -9.2442    250.6600      1.2610   3.5071115199e+02   2.6372473842e+01    0.1048672   0.04769688 -58.00 0.0003153619    1.588    0.370
        67 -13.9742     98.7041     70.4108   2.7248694326e+01   4.8932157322e+01      1.93886     1.647977  52.98   0.01016429    1.129    0.114
        68 -10.8296    180.4921    244.0171   4.3404409596e+01   2.4078862614e+00    0.1561194   0.09642629 -33.92  0.001026345    1.571    0.363
        69 -13.3157     55.2782     73.8775   4.4690765347e+01   5.7089060271e+01    0.7373396    0.5679082 -67.11  0.003582528    1.486    0.327
        70 -10.7750    227.1219    241.5004   3.5096466696e+01  -1.3939806562e+00    0.1796681    0.1212524 -40.98   0.00109006    1.953    0.488
        71  -9.8019    110.2948    241.6284   5.7752333082e+01   1.0082923183e+01    0.1215665   0.08575451  48.41 0.0007026943    1.732    0.422
        72 -12.9371     17.1479     63.5065   6.2047131054e+01   6.4775426511e+01    0.6824447    0.3794205  36.29 0.0004380031    1.839    0.456
        73 -12.8170     50.3002     55.1004   4.0506258283e+01   6.2157893301e+01    0.8915983    0.5594818 -62.62  0.003925636    2.049    0.512
        74 -10.5073    218.5243    239.9545   3.6243822290e+01  -4.9278332202e-01    0.1600778    0.1087857   4.16 0.0006249218    1.188    0.158
        75 -14.4531     77.1711     58.7167   3.0351656162e+01   5.6004325108e+01     1.105352    0.5413073  46.05  0.003587749    1.920    0.479
        76 -10.4489     16.1993    238.5626   8.0241064711e+01   2.0037866009e+01    0.1645285    0.1048444   9.38  0.000515285    1.624    0.384
        77  -9.7827    218.7032    213.3126   3.2347667968e+01   2.9483556685e+00   0.09066593   0.08231971 -24.91 0.0003908786    1.600    0.375
        78 -12.3704    196.9687     55.8041   5.2043810842e+00   2.9661002164e+01    0.4258935    0.2293844  70.63  0.002315294    2.062    0.515
        79 -12.4871    214.5516     44.3285   1.0724151633e+00   2.7853245469e+01    0.4357344    0.3221246 -28.05 0.0007236616    1.493    0.330
        80 -14.1850    196.8671     81.3815   1.0957479318e+01   2.6058996067e+01    0.9201772    0.7325864  41.81  0.002974109    1.581    0.367
        81  -9.6482    236.7969    145.8773   1.8563186918e+01   1.0442416185e+01    0.1410156    0.1089423 -42.04 0.0003792628    1.270    0.213
        82 -11.9755    247.6930     41.7731   3.5825398604e+02   2.2618405894e+01    0.4673523    0.2971895  85.47  0.003054659    1.808    0.447
        83 -13.4647    218.9983     53.5008   2.6284538068e+00   2.5926931543e+01    0.7782414    0.6416239  -9.32   0.00437728    1.689    0.408
        84 -10.1297    250.3907    132.0191   1.4494601126e+01   1.0721794802e+01    0.1538328   0.09985702 -35.91 0.0004379387    1.141    0.124
        85 -10.3495    221.5031    121.7975   1.6112836735e+01   1.5967889311e+01    0.1846122    0.1727439  38.62  0.001391541    1.331    0.248
        86 -13.8038    217.8740     69.3168   6.0155000710e+00   2.4059177078e+01    0.7374235    0.4570701 -84.45  0.002400238    2.096    0.523
        87 -13.6640    202.6183     69.1257   7.5701538610e+00   2.6778190521e+01    0.8394036    0.3968185 -49.13  0.003036503    1.846    0.458
        88 -11.7380    228.9776    118.9713   1.4634044190e+01   1.5323299587e+01    0.2264634    0.1688317  47.11 0.0006239471    1.703    0.413
        89 -10.5318    204.5664    117.7843   1.7634492519e+01   1.9130963737e+01    0.3528665    0.1915123 -49.96  0.001629885    1.823    0.452
        90 -10.8641    246.9672    117.4765   1.2295846372e+01   1.3118804790e+01    0.2149244    0.1686027 -86.42  0.001068123    1.946    0.486
        91 -13.0936    208.8532     67.8731   6.6263212234e+00   2.5826489477e+01    0.8362433    0.2322564 -35.89  0.001328793    3.042    0.671
        92 -12.9167    209.3447     58.8077   4.6270106559e+00   2.6956596845e+01    0.4744819    0.3114479 -57.29  0.002976351    1.337    0.252
        93 -12.0482    220.5758     37.9738   3.5928758008e+02   2.7537938942e+01    0.3833791    0.2197194 -67.06  0.000338675    1.657    0.396
        94 -10.6013    179.2540    118.0180   2.1668170448e+01   2.3294269257e+01    0.1878125    0.1574668 -37.45 0.0004608624    1.063    0.059
        95 -10.5145    125.9560    115.9726   3.2427776647e+01   3.3707443028e+01    0.1755891    0.1706672 -38.64            0    1.015    0.015
        96 -12.4658    237.5764     50.7397   6.2285003286e-01   2.3161759805e+01    0.6390869    0.1624923 -44.14  0.002857794    2.644    0.622
        97 -11.6156    196.4753    107.4906   1.6673784862e+01   2.2086797800e+01    0.4362045    0.2874954 -50.99  0.002488475    1.445    0.308
        98 -12.2662    161.9523     83.6022   1.6646853249e+01   3.2514569791e+01    0.4746968    0.4353296  56.98   0.00290305    1.185    0.156
        99 -12.8707    168.6512     78.6482   1.4310914444e+01   3.1949629928e+01    0.9145352    0.3542011 -46.48  0.001587477    2.412    0.585
       100 -11.4515    161.3331     65.8671   1.2219337421e+01   3.5502393943e+01    0.3673198    0.2729377 -44.47  0.001312824    1.250    0.200
       101 -12.5938    176.1900     70.9328   1.1295122011e+01   3.1616327228e+01    0.8542529    0.4590209  89.33  0.003473348    3.274    0.695
       102 -11.7333    148.0256     84.0269   1.9308504091e+01   3.5372708811e+01     0.430269    0.3343148  86.96  0.001364324    1.488    0.328
       103 -12.7093    147.3232     79.1916   1.8166651076e+01   3.6367188115e+01    0.3439201     0.267444 -47.02 0.0004416657    1.222    0.182
       104 -12.8903    248.8261     83.0607   5.8379328036e+00   1.7430991693e+01    0.2493054    0.1839875 -49.92 0.0005885683    1.129    0.115
       105 -11.0625    207.7863     84.9452   1.0389123723e+01   2.3599236308e+01    0.1832839     0.153306 -25.02  0.001153876    1.295    0.228
       106 -10.0493     80.6038     84.2457   3.7605187011e+01   4.9919700104e+01    0.2210295    0.1451967 -39.27 0.0009551894    1.668    0.401
       107 -13.6653      6.3970     68.0902   6.9648311041e+01   6.4407598787e+01    0.9479127    0.8528054  36.29  0.002100133    1.192    0.161
       108 -11.5060     17.6762     83.1647   6.6118081158e+01   5.9624711285e+01    0.4638659    0.2142971 -29.88  0.001348179    2.691    0.628
       109 -11.2874    215.7663     83.4304   9.1564421086e+00   2.2465766526e+01    0.1978038    0.1175059  69.36  0.001141042    2.151    0.535
       110 -11.8861    238.9996     81.0748   6.3437330326e+00   1.9118270257e+01    0.3083403    0.1710684  57.39  0.001955916    2.295    0.564
       111  -9.7323    172.1859    112.8249   2.1765070443e+01   2.5462508224e+01    0.1753106    0.1518739  -6.20 0.0004244722    1.303    0.233
       112 -12.7773     10.8094     79.5203   6.9172235385e+01   6.1117521171e+01    0.5049025    0.3883769 -29.03  0.001527069    1.291    0.225
       113 -12.1234    232.7088     79.1182   6.5532185693e+00   2.0334572796e+01    0.2683882    0.1837489  83.47  0.001269603    1.895    0.472
       114 -12.5217     74.3771     75.3746   3.7158213693e+01   5.3149267495e+01     2.036085    0.4550883  46.30  0.005093332    4.804    0.792
       115 -11.0018     74.3849     70.3143   3.5485015234e+01   5.4241930013e+01    0.3584087    0.3074542 -23.55  0.001836008    1.317    0.241
       116 -11.1751     70.5458     70.8868   3.7179632434e+01   5.4899163077e+01    0.3363529    0.2936153  50.89 0.0009997986    1.124    0.110
       117 -10.2688     84.9826     79.7667   3.4675493088e+01   5.0009263195e+01    0.3071532    0.1945908  34.53  0.001316255    1.674    0.403
       118 -10.8579     81.5506     79.4692   3.5796181923e+01   5.0787446479e+01    0.2777244     0.242539 -26.63 0.0006101193    1.270    0.213
       119 -12.4499    217.3671     76.8737   7.6304075710e+00   2.3114844301e+01     0.289669    0.2471137 -56.04  0.001037216    1.092    0.084
       120 -10.1586    211.0469    112.0886   1.5585657001e+01   1.8999036066e+01     0.230649    0.1288126  58.41  0.001168357    2.376    0.579
       121 -12.2678    249.1798     72.8866   3.9295189782e+00   1.8670709752e+01    0.4231662    0.1948727 -37.99  0.001001974    1.613    0.380
       122 -11.5439    239.5596     72.3198   4.6213953663e+00   2.0170536176e+01    0.3941871    0.1495331 -33.89  0.001854721    2.245    0.555
       123 -10.8900    242.9098     75.5071   4.9398510611e+00   1.9258236160e+01    0.1838129     0.121146 -43.98 0.0003642062    1.130    0.115
       124 -10.6327    244.5020     72.4236   4.2247836270e+00   1.9414628927e+01    0.2016684    0.1508001 -23.65 0.0006852545    1.500    0.333
       125 -13.6649    118.5068     62.7415   1.9526113322e+01   4.5746104411e+01     1.188041    0.7085944 -59.46  0.004297249    1.996    0.499
       126 -11.4424    223.6635     61.6411   3.8979648928e+00   2.4089966162e+01    0.3184729     0.174115 -66.70  0.001798725    2.088    0.521
       127 -12.7736    229.4010     65.8710   4.2441581609e+00   2.2596804545e+01    0.4894964    0.2445563 -32.10   0.00277131    1.842    0.457
       128 -12.1689    232.8491     72.4475   5.2358081929e+00   2.1192203248e+01    0.3258336    0.2172167  15.01  0.001744071    3.345    0.701
       129  -8.9367    136.6697     61.8906   1.5398037597e+01   4.1649049068e+01    0.3190568    0.2449192  38.59  0.001083614    1.568    0.362
       130 -11.8494    136.6133     57.4950   1.4120479725e+01   4.2358591563e+01    0.7667371    0.4202893 -82.57  0.002809697    3.258    0.693
       131 -11.3257    143.2975     54.4771   1.2043875099e+01   4.1269403326e+01    0.5633568     0.360448  33.33  0.002571527    2.367    0.578
       132 -11.1697    154.9227     64.6510   1.2922073567e+01   3.7088377135e+01    0.6739155    0.2949044 -39.17  0.002676329    2.140    0.533
       133 -11.0270    151.9670     59.2376   1.1936758320e+01   3.8577293042e+01    0.2807908    0.2322579  -5.64 0.0003261061    1.645    0.392
       134 -11.0796    149.5102     67.0099   1.4478289265e+01   3.7914201414e+01    0.4329566    0.3135381 -30.62   0.00227482    1.515    0.340
       135 -11.9373    145.3406     65.2335   1.4731186699e+01   3.9132783381e+01    0.6145136    0.4576217   7.59  0.002526015    2.183    0.542
       136 -11.3886    145.9438     59.4419   1.3002267090e+01   3.9907474420e+01     0.348444    0.3291133 -71.80 0.0007253177    1.075    0.070
       137 -11.6876     84.3292     72.0574   3.2431139000e+01   5.1780731383e+01    0.7706913    0.4188136  48.77  0.003170768    1.784    0.440
       138 -11.8603    167.7788     64.4238   1.0879698517e+01   3.4343648678e+01    0.4425254    0.3432187  53.50  0.001616544    1.442    0.306
       139 -11.5828    235.9694     66.4475   3.7941364323e+00   2.1475169436e+01    0.1976394    0.1432877  73.92  0.001343614    1.676    0.403
       140 -10.2322    244.8922     65.0000   2.7972306088e+00   2.0285847481e+01    0.1377038   0.06123428  66.52 0.0004821889    2.852    0.649
       141 -12.7116    241.3600     61.1967   2.3500801913e+00   2.1294184055e+01    0.6407474    0.2039185  57.23  0.003200131    3.875    0.742
       142 -11.7320    248.2419     60.5911   1.7202308450e+00   2.0323914713e+01    0.2471913    0.1822581 -51.88  0.001201187    1.074    0.069
       143 -11.9553    245.4018     53.7949   6.5190336511e-01   2.1570660930e+01    0.4978585    0.2641011 -64.38   0.00247135    1.948    0.487
       144  -9.6202     23.2878    108.7004   6.7728019071e+01   5.2164079938e+01    0.1537554    0.1069482  56.94 0.0001886277    1.557    0.358
       145 -11.8028     11.5831     25.1382   5.2594436958e+01   7.4109009165e+01    0.5418047    0.3203727 -37.96  0.001144822    1.684    0.406
       146 -12.2165    160.7488    104.2245   2.1890052661e+01   2.9154318748e+01     0.574853    0.2486417 -46.57  0.001510866    2.207    0.547
       147 -11.1108     15.3671    106.6941   7.1026663238e+01   5.3370649399e+01    0.2586869    0.2332245 -41.54 0.0003233034    1.107    0.097
       148 -12.6683      5.8870     56.2947   6.7522939532e+01   6.7445216304e+01    0.6974544    0.5089254  12.31  0.002706081    1.353    0.261
       149 -11.1640      5.9835     34.7461   6.1305957409e+01   7.2568332476e+01    0.2784261    0.2320255  -5.04  0.000516426    1.089    0.082
       150 -12.0581     11.9126     32.5326   5.5625458420e+01   7.2527187222e+01    0.5887421    0.2769296  22.31  0.001997053    1.985    0.496
       151 -11.5840    162.3154     57.3971   9.8556373811e+00   3.6559698099e+01    0.3326361    0.3138151  37.93  0.002096712    1.305    0.234
       152 -10.8387    156.7511     54.3756   9.8669995159e+00   3.8227739940e+01    0.3180763    0.1901446  64.65 0.0009751507    1.683    0.406
       153 -12.4519    173.6019     57.0537   8.2210105886e+00   3.4189929326e+01    0.2612787      0.22449  83.85 0.0004010066    1.174    0.148
       154 -11.2555    167.2895     53.5080   8.1502415580e+00   3.6036806148e+01    0.3925737    0.2876206 -39.26  0.001812222    1.317    0.240
       155 -10.5910    127.1985     58.6747   1.6338737824e+01   4.4377190261e+01    0.2672397    0.2015276  33.80 0.0009420917    1.674    0.403
       156 -11.0858    123.1320     53.7387   1.5656319597e+01   4.6128148512e+01    0.2718109     0.228897  79.47 0.0006013013    1.138    0.121
       157 -10.1595    121.1409     43.1468   1.2648118665e+01   4.8201393072e+01    0.3923034    0.2193742 -51.57  0.001781423    1.881    0.468
       158 -12.2362    133.6118     46.7228   1.1433113410e+01   4.4683094813e+01    0.5464916    0.4062144 -17.46 0.0005734884    1.762    0.432
       159 -12.3972    126.3542     45.4524   1.2376129587e+01   4.6606162269e+01    0.3788136    0.3317771 -58.16   0.00104691    1.126    0.112
       160 -11.4569    132.9300     40.3995   9.6012055067e+00   4.5732914859e+01    0.4626669    0.2749207 -61.99  0.002183694    1.846    0.458
       161  -9.9793    111.8714     52.7095   1.7849976882e+01   4.8990158359e+01    0.1886555    0.1653906  80.87 0.0002367834    1.090    0.082
       162 -13.1749    183.3057     62.1325   8.2327597894e+00   3.1472371257e+01     1.103632     0.502598  62.93  0.003977344    2.360    0.576
       163 -11.5535    190.6828     49.8942   4.4985301675e+00   3.1671874876e+01    0.4716203     0.291412  21.77  0.001977712    4.243    0.764
       164 -11.5828    181.4589     50.1622   5.5654028829e+00   3.3503602396e+01     0.349966    0.2923047 -29.00 0.0009204825    1.355    0.262
       165 -10.9644    186.2954     47.5541   4.4067623453e+00   3.2859341781e+01    0.2509082    0.1907259  81.41  0.001585107    1.342    0.255
       166 -11.4287    191.3217     46.2803   3.5890463628e+00   3.2014139265e+01    0.2679188    0.1699074  51.42   0.00152895    1.978    0.494
       167 -10.5330    188.9637     43.0174   3.0570297828e+00   3.2902761807e+01    0.2644433    0.2254247 -80.87 0.0006972566    1.131    0.116
       168 -11.1200    161.2737     51.3378   8.4004773979e+00   3.7657151728e+01    0.2912435    0.2133695 -66.50  0.001417041    1.308    0.235
       169 -10.7612    249.1745     48.6579   3.5943986814e+02   2.1600421350e+01    0.3043653    0.1385185 -55.01  0.001828174    1.864    0.463
       170 -12.7764     15.1167     47.3248   5.8675584644e+01   6.8889820388e+01    0.7425404    0.5314717  80.80  0.002157826    1.980    0.495
       171 -11.1724    198.5903     46.6898   2.9780656638e+00   3.0537089625e+01    0.3208134    0.1988254 -20.02  0.001739222    2.172    0.540
       172 -11.6279    164.5981     30.9244   2.5480645460e+00   3.9577676704e+01    0.6257493     0.234357 -47.08  0.002154295    2.350    0.574
       173 -10.1991    143.1201     45.9151   9.5885409512e+00   4.2552959341e+01    0.4270175    0.1939212  45.35  0.001688901    2.915    0.657
       174 -12.2712    149.6258     40.2735   6.9827438700e+00   4.1806610049e+01    0.9399649    0.5113112  61.11  0.004611143    1.801    0.445
       175 -12.4072    171.2366     44.2854   5.2817352955e+00   3.6439860197e+01    0.6386186    0.3250033  61.59  0.001576939    2.015    0.504
       176 -12.0521    175.9776     37.8337   3.1175819815e+00   3.6249435361e+01    0.6394395    0.4348043 -72.84  0.003732164    1.396    0.284
       177 -10.9698    180.8907     37.5245   2.5368898990e+00   3.5249786420e+01    0.2639697    0.2035452 -68.07 0.0008971521    1.123    0.109
       178 -10.8431    185.8434     37.8177   2.1230659794e+00   3.4186797469e+01    0.2560558    0.1799036 -77.89 0.0007607276    1.348    0.258
       179 -10.8345    209.2111    104.3651   1.4260845374e+01   2.0467741862e+01    0.4086568    0.2270199 -59.49  0.002050021    2.327    0.570
       180 -11.3013    161.1559     35.8246   4.2528450216e+00   3.9747373320e+01     0.286599    0.2112774  65.66 0.0008146234    1.390    0.281
       181 -10.6874    203.0814     46.5066   2.5225705536e+00   2.9702019664e+01    0.1667762    0.1114389  77.04 0.0005182541    1.606    0.377
       182 -10.3456    105.7804     43.3843   1.6095016374e+01   5.1916261212e+01    0.2988585    0.1960316  60.07  0.001455814    1.410    0.291
       183 -13.4013     60.9847     43.2548   3.0672351796e+01   6.2370064157e+01    0.5261145     0.448751 -60.21  0.000592487    1.354    0.261
       184  -9.8868    102.5140     46.5260   1.8026337244e+01   5.2229893337e+01    0.2624814    0.1600915  36.34 0.0009912737    2.086    0.521
       185 -10.4052     98.4074     44.1043   1.8219278132e+01   5.3601431381e+01    0.5458724    0.2879584 -59.41  0.001314477    2.659    0.624
       186 -11.6413      1.6354     60.2510   7.1163381774e+01   6.6680244856e+01    0.2933284    0.1944027 -79.01 0.0007902909    1.584    0.369
       187 -10.0219    111.2657     39.1739   1.3354824255e+01   5.1183831620e+01    0.3065076    0.1748164  41.95 0.0007129528    2.098    0.523
       188 -11.1715    194.6783     41.6850   2.2005138034e+00   3.1929720495e+01    0.3039145    0.1632966  58.85  0.001600026    2.116    0.527
       189 -12.0940    204.8690     39.0484   7.1815895757e-01   3.0282675229e+01    0.3417596    0.1663828 -62.11  0.001702038    2.033    0.508
       190 -12.1711    201.0777     38.2496   8.5563641089e-01   3.1103002854e+01    0.3637842    0.2989727  25.04  0.001691348    1.889    0.471
       191 -10.7591     87.5055     34.4989   1.7516329859e+01   5.7681784344e+01      0.26948    0.2159697 -55.28   0.00145377    1.358    0.264
       192 -11.3360    131.5580     33.6893   7.7243476011e+00   4.6950693961e+01    0.3040837    0.1964538 -54.92  0.000465051    1.533    0.348
       193 -11.1821    239.8073     31.1785   3.5671819765e+02   2.5052862812e+01    0.3769769     0.221261 -40.18 0.0004519543    1.327    0.246
       194 -10.2238    122.0252     32.8121   9.0546688842e+00   4.9391651032e+01     0.200258    0.1624497 -85.59 0.0004058584    1.159    0.137
       195  -9.9500    185.0983    105.5337   1.7976626180e+01   2.4381872978e+01    0.1734425    0.1296739  52.07 0.0005783255    1.522    0.343
       196 -10.2072    111.8215     32.8626   1.1015959495e+01   5.1906220942e+01    0.3434668    0.1854215  47.31  0.001531236    1.993    0.498
       197  -9.7478    114.1576     28.5910   9.0497342581e+00   5.1871585917e+01    0.1947654    0.1579023  68.47  0.001101163    1.128    0.114
       198 -11.9581     92.5831     33.2397   1.5616261191e+01   5.6617832038e+01    0.5385146    0.3315502  35.53  0.001775558    2.041    0.510
       199 -11.3524     97.3417     22.3999   1.0162863644e+01   5.6825447176e+01    0.2651125    0.2403875  66.26 0.0007201848    1.078    0.072
       200 -11.5411    103.3771     29.3776   1.1526850213e+01   5.4457904714e+01    0.3858613    0.2897791  76.46  0.002077715    1.243    0.196
       201  -9.9922    101.9975     23.0607   9.4228696319e+00   5.5580160919e+01    0.3094515    0.2001116 -31.02 0.0006515614    1.727    0.421
       202 -10.1410    101.3338     19.3370   8.1203190972e+00   5.6174785548e+01    0.2381444    0.1739237  21.16 0.0007424057    1.886    0.470
       203 -10.3847    102.3020     15.5673   6.4686596818e+00   5.6340492843e+01    0.2326304    0.1775493 -11.30 0.0008302935    1.684    0.406
       204 -12.1910    158.9704     26.6990   2.0194214981e+00   4.1343685254e+01    0.2840305    0.2210204 -23.22  0.001298727    1.553    0.356
       205 -10.3933    153.9141     25.9550   2.3759792755e+00   4.2588473847e+01    0.2695685    0.1690916 -66.81  0.001052456    1.525    0.344
       206  -9.1036    137.7272     30.5982   5.8208441296e+00   4.5849935411e+01    0.2250734    0.1742985  14.32 0.0006571007    1.926    0.481
       207 -11.3973    135.0029     26.6232   4.9812109466e+00   4.6985629165e+01    0.4054015    0.2500735 -59.35  0.001294885    1.612    0.380
       208 -12.1736    134.2012     21.1764   3.3832164621e+00   4.7804944583e+01    0.3401134    0.2480463 -83.71 0.0004154098    1.261    0.207
       209 -10.7963     85.8085     29.0910   1.5770748098e+01   5.8846631758e+01    0.4108045    0.1896196  51.74  0.001556451    1.948    0.487
       210  -9.6831     90.4950     27.5424   1.3870310269e+01   5.7896515136e+01    0.1417002    0.1254262  65.70 0.0008090101    1.025    0.024
       211  -9.9428     80.3110     30.4299   1.7952900319e+01   6.0000212373e+01    0.1749419    0.1278249  68.63  0.000248972    1.329    0.247
       212 -10.8220    198.3457     27.0571   3.5855133409e+02   3.2943493494e+01    0.3362066    0.1194676 -37.53   0.00163312    2.239    0.553
       213  -9.1486    120.6021     28.2827   7.7803608180e+00   5.0311383010e+01    0.1485499     0.093645 -74.58 0.0006994854    1.768    0.434
       214 -11.7163    234.4353     24.2607   3.5568121544e+02   2.6690807012e+01    0.2798959     0.186765 -59.41 0.0009625251    1.159    0.137
       215 -10.5376    191.9813    102.6952   1.6305792634e+01   2.3628939321e+01    0.3655923    0.1988533 -24.35  0.001672189    2.411    0.585
       216 -11.4746    148.9393    103.7153   2.4114331630e+01   3.1582568911e+01    0.2484032    0.1894733  63.29  0.001196622    1.474    0.322
       217 -10.6612    144.3793    102.7361   2.4838586435e+01   3.2689140684e+01    0.2750786    0.2544932 -11.38  0.001512218    1.184    0.156
       218 -11.6111    160.6343     40.3832   5.5475202045e+00   3.9282504428e+01    0.4923382    0.3257197  39.24  0.001486086    2.146    0.534
       219  -9.7419    175.4328     24.6935   3.5986379881e+02   3.7928982468e+01    0.3838486    0.1581985 -68.16  0.001597555    2.990    0.666
       220  -9.9341    148.0349     24.9420   2.7729098627e+00   4.4074207061e+01    0.1888632    0.1538054  33.85  0.000904588    1.655    0.396
       221 -10.7974    215.0016    101.3079   1.2901209894e+01   1.9998752977e+01    0.3501619    0.1587228 -27.75  0.001583656    2.652    0.623
       222  -9.7941    192.1859     24.3791   3.5840210314e+02   3.4470848168e+01    0.1648045    0.0955049 -83.51 0.0004699336    1.702    0.412
       223 -11.0883    123.8353     23.9908   5.8011077647e+00   5.0023924459e+01    0.2945176    0.1879068  82.44 0.0009160652    1.492    0.330
       224  -9.6560    125.5482     20.0052   4.2131585768e+00   5.0051810066e+01    0.2328482    0.1512567  52.86  0.001218514    1.616    0.381
       225 -11.6222    169.2551     98.3174   1.8952820142e+01   2.8547344212e+01    0.5665072    0.4038451 -14.38  0.002871476    1.910    0.476
       226 -10.1948    200.5118     15.5581   3.5581967275e+02   3.3769645704e+01    0.1493716    0.1135449 -68.56  8.94933e-05    1.078    0.072
       227 -10.2234    180.3889     20.4219   3.5837966760e+02   3.7345721494e+01    0.2282541    0.1445843 -64.41 0.0001842152    1.363    0.267
       228 -11.2342    162.3832     20.0005   3.5985104183e+02   4.1325612312e+01    0.3466825    0.2405993 -87.86  0.001002707    1.306    0.234
       229  -9.6224    151.4691     20.5081   1.1039726638e+00   4.3770003855e+01     0.129329    0.1090229 -76.34            0    1.007    0.007
       230 -10.0887    165.7477     96.2297   1.9071671433e+01   2.9592430650e+01    0.2149917    0.1636919  27.52  0.001145105    1.692    0.409
       231  -9.5519    194.8239     17.3807   3.5659773629e+02   3.4702320550e+01    0.1352881   0.09891073  74.77 0.0002750894    1.452    0.311
       232  -9.5438    149.3145     93.6630   2.1535463454e+01   3.3372697047e+01    0.2249205    0.1156399 -59.87 0.0008449433    2.726    0.633
       233 -10.6171    212.9499     15.9674   3.5517698365e+02   3.1359168246e+01    0.1732492    0.1149274 -57.22            0    1.147    0.128
       234 -10.0725    154.5414     15.4856   3.5936709913e+02   4.3595988775e+01    0.1727025    0.1247777 -13.90  0.000871987    1.858    0.462
       235 -10.1913    112.9599     15.0007   4.4067643335e+00   5.3718784658e+01    0.1974276    0.1597889 -81.82 0.0003902313    1.136    0.119
       236 -11.8575    153.6205     99.8145   2.2208847752e+01   3.1367830665e+01    0.3827567    0.2386651 -52.05  0.001195288    1.614    0.380
       237 -10.9495    150.5797     98.2219   2.2423788874e+01   3.2276279618e+01    0.3843337    0.2462881 -20.24  0.001438008    2.243    0.554
       238 -11.4581     83.8013    101.6251   4.1372374942e+01   4.5251730396e+01    0.3144915     0.207945  52.52  0.001352173    1.625    0.385
       239 -12.6382    183.1469     95.6049   1.6063227898e+01   2.6369385512e+01    0.5063634    0.4120622  46.47 0.0007508915    1.412    0.292
       240 -12.8582    103.1045     96.4182   3.3700518381e+01   4.2581901153e+01    0.6669208    0.4672233  23.64 0.0009058116    1.795    0.443
       241 -11.9435     95.1989     90.0666   3.4357653757e+01   4.5623626359e+01    0.7036318    0.4384816  56.26  0.002975296    1.771    0.435
       242 -12.6814    113.8842     86.4413   2.7823834558e+01   4.2372373312e+01     1.124807    0.3762642  46.69   0.00327829    2.962    0.662
       243 -12.7029    114.1599     80.1295   2.5914296530e+01   4.3560741900e+01    0.6064324    0.4529628 -68.69  0.002906744    1.560    0.359
       244 -11.8677    199.8458     96.7564   1.3913961745e+01   2.3197080461e+01    0.3366576    0.2189641 -45.86  0.001145545    1.318    0.241
       245 -12.4428    137.5459     81.6210   2.0798022661e+01   3.8075958930e+01     1.067991     0.665402  79.26  0.004508947    2.340    0.573
       246 -11.9710    137.2481     71.8197   1.8133985863e+01   3.9867039694e+01     1.036494    0.3856484  58.01   0.00377229    2.807    0.644
       247 -12.8106    121.5380     87.3419   2.6089927066e+01   4.0516652574e+01    0.5139406    0.3830158 -46.44  0.002546419    1.337    0.252
       248 -12.5273    125.8848     81.6442   2.3421772647e+01   4.0652691931e+01    0.8004053    0.4835345  15.16   0.00245174    4.819    0.792
       249 -13.3173    129.5272     89.1941   2.4660161287e+01   3.8415381840e+01     1.081981    0.5238008  34.73  0.003823296    3.098    0.677
       250 -11.5751    141.2900     96.7334   2.3993349168e+01   3.4470030436e+01    0.4690656    0.3453891  70.69  0.001588143    1.611    0.379
       251 -13.8984    130.1736     95.5956   2.6224692046e+01   3.7029337402e+01     0.971329    0.5709215  43.82  0.003005767    1.770    0.435
       252 -10.6365     87.1547     97.7738   3.9182259584e+01   4.5511641856e+01    0.3673708    0.2442889  44.47 0.0009265632    1.471    0.320
       253 -10.8927     11.6938     98.0880   7.1591023508e+01   5.6013503024e+01    0.2123757    0.1822907 -64.60  0.001146234    1.121    0.108
       254 -11.4719    160.0918     96.0341   2.0047117792e+01   3.0749546236e+01     0.303915    0.2217295  62.97 0.0005320368    1.528    0.345
       255 -10.5791     16.8686     96.9380   6.8914168451e+01   5.5953283964e+01     0.220814    0.1838385 -38.80 0.0003145531    1.194    0.162
       256 -10.9181    249.5831     97.4405   8.4040154815e+00   1.5455641712e+01     0.197967    0.1372792 -45.27 0.0005271661    1.142    0.125
       257 -10.0335     28.2918     95.6665   6.3168851439e+01   5.5262221056e+01     0.156469    0.1097562  60.04 0.0005659956    1.634    0.388
       258 -11.4068    249.4180     91.7696   7.3844699672e+00   1.6221149075e+01    0.3901373    0.1380549 -45.40  0.002029851    2.221    0.550
       259 -11.9259    190.4334     90.6846   1.3886427967e+01   2.5813189570e+01    0.2935243    0.2271875   5.59  0.001673612    1.884    0.469
       260 -10.7732    224.4207     91.1630   9.7709405878e+00   1.9977529123e+01    0.1623196    0.1380927  83.50  0.001167821    1.429    0.300
       261 -10.3505    167.2194     89.4272   1.7180762212e+01   3.0464083315e+01    0.3391853    0.2163817  75.09  0.001632837    2.086    0.521
       262 -12.7413    180.1581     79.7845   1.2849639545e+01   2.9463482242e+01    0.6562007    0.4500932 -24.44  0.002647231    1.708    0.415
       263 -10.8138    172.7884     90.7792   1.6580278361e+01   2.9136747315e+01     0.282925    0.2308288  55.17   0.00085035    1.347    0.257
       264 -11.5220    174.0648     86.6706   1.5400497031e+01   2.9562895687e+01    0.4783951    0.1971175  47.66  0.001998075    2.803    0.643
       265 -11.9414    207.3358     89.4058   1.1386701482e+01   2.3022176718e+01    0.2430002    0.2088656  41.09  0.001660101    1.453    0.312
       266 -12.5104    237.4318     86.5958   7.5453955843e+00   1.8619892104e+01    0.5222254    0.3101224  87.93  0.003003273    2.793    0.642
       267 -12.2534    221.6030     85.5556   8.9532323228e+00   2.1211127435e+01    0.3996971    0.1812118 -31.85  0.002022975    2.104    0.525
       268 -10.7427     69.7789     87.4637   4.2658333986e+01   5.1272009650e+01    0.4888401    0.2378802  45.83  0.001599879    2.090    0.522
       269 -12.5929     66.4163     82.1958   4.2453859657e+01   5.3139354631e+01    0.7684681    0.5567982  77.38  0.002160736    1.943    0.485
       270 -15.0004     42.0439     80.3761   5.2899491871e+01   5.7597154404e+01     2.707654     1.504733  49.76  0.007706639    2.105    0.525
       271 -11.4465    100.1381     53.9083   2.1270924954e+01   5.1598622486e+01     1.282604     0.290218  51.72  0.003673294    3.952    0.747
