#   1 NUMBER                 Running object number                                     
#   2 MAG_AUTO               Kron-like elliptical aperture magnitude                    [mag]
#   3 X_IMAGE                Object position along x                                    [pixel]
#   4 Y_IMAGE                Object position along y                                    [pixel]
#   5 X_WORLD                Barycenter position along world x axis                     [deg]
#   6 Y_WORLD                Barycenter position along world y axis                     [deg]
#   7 A_WORLD                Profile RMS along major axis (world units)                 [deg]
#   8 B_WORLD                Profile RMS along minor axis (world units)                 [deg]
#   9 THETA_WORLD            Position angle (CCW/world-x)                               [deg]
#  10 FWHM_WORLD             FWHM assuming a gaussian core                              [deg]
#  11 ELONGATION             A_IMAGE/B_IMAGE                                           
#  12 ELLIPTICITY            1 - B_IMAGE/A_IMAGE                                       
         1 -13.7958    244.7637    109.4950   2.8363530342e+01   1.2354784487e+01      1.70293     0.876905 -36.26  0.009393279    1.745    0.427
         2 -13.3083     44.0090     23.3152   5.3151782059e+01   6.9116859311e+01     1.135564    0.9005374 -59.26  0.006300507    1.631    0.387
         3 -11.4057    227.1714     16.0531   9.5436316718e+00   2.6180468845e+01     0.441374    0.3275412 -80.02  0.002869137    1.318    0.241
         4 -10.4278    247.6636     15.5584   8.1558890378e+00   2.2170421512e+01    0.2058951   0.08944543 -28.46  0.001094341    1.994    0.499
         5 -11.3067     78.0772     14.1014   3.2460553530e+01   6.3529860210e+01    0.3818793    0.2457697  -5.90  0.001783384    1.983    0.496
         6 -10.0627     20.7400     14.9897   6.4713061409e+01   7.3872530458e+01    0.2674465    0.1427766  -4.83  0.001165232    2.608    0.617
         7 -12.7070    159.0155      4.0456   1.2091989470e+01   4.3359176596e+01    0.9295495    0.3186494  65.19  0.003655271    2.438    0.590
         8 -13.3092    167.2161     11.0201   1.3364709330e+01   4.0618709010e+01     1.022529    0.4950827  55.73  0.004617574    1.987    0.497
         9 -12.9035    169.9552      2.8271   1.0625311237e+01   4.0651752719e+01    0.7086077    0.3430952  81.38  0.003212722    1.965    0.491
        10 -11.3865    232.2690      9.3976   7.7096093818e+00   2.5750453010e+01      0.41706    0.2671188 -65.61  0.002587295    1.458    0.314
        11 -12.1312    156.3439     11.8760   1.4896446550e+01   4.3348181668e+01     0.511347    0.4066808 -86.23  0.002667989    1.194    0.162
        12 -11.1462     39.4586      8.0495   4.7347382223e+01   7.2443009903e+01    0.3805729    0.2371013 -14.82  0.001874217    1.952    0.488
        13 -10.9654    223.4851      5.1003   7.2497012462e+00   2.7952989729e+01    0.3418984    0.1357835 -50.97  0.001645797    2.230    0.552
        14 -10.2071    192.4855      5.9519   9.5761453372e+00   3.4838005825e+01     0.190968    0.1210528 -27.23  0.001038566    1.608    0.378
        15 -10.5603     70.5831      5.8243   3.0771306476e+01   6.6281022972e+01    0.3671993    0.1738987  52.00  0.001609934    1.803    0.445
        16 -11.6558    205.8263      4.3587   8.1896447424e+00   3.1882002431e+01    0.5340276      0.18156  73.07  0.002291013    2.752    0.637
        17 -10.9689    141.9450      1.8414   1.3335462506e+01   4.8046888647e+01    0.4431635    0.1916912 -79.98   0.00154427    3.294    0.696
        18 -10.3771    129.7731      4.3719   1.5929506792e+01   5.1096289917e+01     0.345006    0.1814287  66.73  0.001425747    1.634    0.388
        19 -11.0437     85.8143      3.7138   2.4737314285e+01   6.2775023911e+01    0.5136486    0.2656167  57.13  0.001720366    1.632    0.387
        20 -11.3089     80.0174      3.5038   2.6331760692e+01   6.4247003683e+01    0.3763989    0.2467268  59.83  0.001896893    1.360    0.265
        21 -10.8658     61.1345      2.4503   3.2538077870e+01   6.8831019430e+01    0.4681211    0.2204619  38.25  0.002015574    2.092    0.522
        22 -10.0708      1.4670      2.7103   7.5935909237e+01   7.7897420038e+01    0.2978236   0.09413549 -58.88  0.001302857    2.672    0.626
        23  -9.8502    217.9659      1.9795   6.8449142372e+00   2.9403247271e+01    0.2018849    0.1124895 -59.28 0.0006638141    1.639    0.390
        24  -9.5221     17.5288      1.5312   5.9664322418e+01   7.6735729578e+01    0.1266025     0.105575  -6.56 0.0005144866    1.016    0.015
        25 -11.0467    160.2643    231.7947   6.4727528537e+01   8.9502981810e+00    0.2613512    0.1294098  25.03  0.001444727    1.630    0.387
        26 -10.1991      4.1499    124.4724   9.4376950300e+01   4.9091070110e+01    0.2156882    0.1500686  62.55  0.001270223    1.339    0.253
        27 -10.2724    154.3330    121.3141   4.6731508563e+01   2.7647372635e+01    0.1512862     0.109359  10.08 0.0007045817    1.683    0.406
        28 -12.0498    189.6176    115.6066   3.8132096383e+01   2.1478683876e+01    0.7107725    0.4047683  -8.30  0.002887698    2.823    0.646
        29 -10.0529     94.6709    111.3544   6.0783026224e+01   4.1522095633e+01    0.1573959    0.1158805  70.49 0.0007045944    1.778    0.437
        30 -11.8089    148.2931    109.9612   4.5432798182e+01   3.0954208458e+01    0.5048892    0.3482306 -46.01  0.002422723    1.587    0.370
        31  -9.6995    107.6593    109.3056   5.6235795429e+01   3.9507674692e+01    0.1546194    0.1177946  69.93 0.0007041431    1.682    0.405
        32 -11.3140    212.9449    112.8777   3.3563444039e+01   1.7429891025e+01    0.5050931    0.2535562 -29.55   0.00243811    1.899    0.473
        33 -11.0620     17.9891    104.6748   8.7770443491e+01   5.3051822856e+01    0.6787432    0.2588444  48.32  0.002724005    2.771    0.639
        34 -10.1063     30.6733    101.9715   8.2424301749e+01   5.2714863572e+01    0.2556981    0.1813881 -25.28  0.001329243    1.647    0.393
        35  -9.7546    112.6050    100.4029   5.2508029187e+01   4.0383182809e+01    0.2930954    0.1408421 -59.98 0.0009584673    3.366    0.703
        36 -11.5000    222.1010    107.6393   3.1041552229e+01   1.6469722339e+01    0.4534105    0.3205329  36.85  0.002681299    1.473    0.321
        37 -10.5349    178.6971     92.5579   3.4629978225e+01   2.7293661613e+01    0.3042257    0.2664948  89.12   0.00161887    1.381    0.276
        38 -10.8929     12.9575     89.9743   8.8201450161e+01   5.7010699122e+01    0.2021023    0.1920756 -84.41  0.001237959    1.013    0.013
        39 -13.0723     15.1316     73.0734   8.4961030341e+01   6.1056768024e+01    0.8677619    0.5554832  31.35   0.00464583    1.611    0.379
        40 -12.5639      4.5008     75.2690   9.0344309846e+01   6.1060835527e+01    0.7868046    0.4100447  81.12  0.003749242    2.111    0.526
        41 -11.1411      2.7582     88.8903   9.2437380249e+01   5.7788399091e+01    0.3702362    0.2641966  71.78  0.002152857    1.403    0.287
        42 -11.1150      2.8231     83.4319   9.1928657328e+01   5.9125252142e+01    0.3565045    0.2250309 -76.32  0.001288263    1.446    0.309
        43 -10.4903    193.5472     87.0074   3.0664538900e+01   2.4925812130e+01     0.335241    0.2534586  78.32  0.001355611    1.690    0.408
        44 -12.7103     42.7652     80.6428   7.3451979619e+01   5.6735807367e+01     1.105167    0.7741532 -13.50  0.005442183    1.730    0.422
        45  -9.7858    145.0641     81.2277   3.8568954401e+01   3.6786684099e+01    0.2459862    0.1788592  84.60  0.001088043    1.957    0.489
        46 -10.1032    215.1408     78.9148   2.5534506652e+01   2.1567516318e+01    0.4306417      0.10974 -40.68  0.001477114    3.694    0.729
        47 -10.0122    220.6899     77.6038   2.4508643579e+01   2.0634926963e+01    0.2794239    0.1549546 -56.47  0.001304944    2.417    0.586
        48 -10.1336    169.5111     75.9344   3.1989190906e+01   3.1914835667e+01    0.2920884    0.1896909  39.62  0.001193508    1.626    0.385
        49 -10.3885    208.4150     73.2811   2.5099470339e+01   2.3672397164e+01    0.2220901    0.1630289 -85.94  0.001196904    1.787    0.440
        50 -10.2289     74.4474     69.7394   5.6862004738e+01   5.4487185967e+01    0.2900501    0.2002158  37.65  0.001012475    1.382    0.276
        51  -9.7728     83.5038     69.0115   5.3112379060e+01   5.2908511176e+01    0.2282425     0.150451 -45.56 0.0009579114    1.598    0.374
        52 -11.6186    214.3991     66.8117   2.2769060993e+01   2.3257089230e+01    0.3441455    0.1844235 -22.78  0.001658952    1.954    0.488
        53 -10.8774     25.4922     65.1076   7.8300008082e+01   6.2248801906e+01    0.3868009      0.24238 -74.79  0.001679752    1.687    0.407
        54 -10.0204    179.5260     66.3522   2.7633902817e+01   3.0986592570e+01    0.2811094    0.1709853  55.92  0.001340705    1.619    0.382
        55  -9.8391     18.4652    127.5176   8.9740831191e+01   4.7443463903e+01    0.1287876    0.1146872  63.86 0.0003969481    1.034    0.033
        56  -9.8967    199.9990     63.6860   2.3875893482e+01   2.6717302002e+01    0.1827427    0.1751373  75.26 0.0009823864    1.080    0.074
        57  -9.4030    132.4770     63.5436   3.6247588764e+01   4.2795203322e+01    0.1512943    0.1424846  53.38 0.0002539689    1.016    0.015
        58 -11.7712    214.9747     52.7372   1.9320445906e+01   2.4845738039e+01    0.6268322    0.2889789 -26.10  0.002891079    2.147    0.534
        59 -11.6117    198.8763     52.2600   2.1112920260e+01   2.8408140040e+01    0.7245237    0.3672572  48.51  0.003348338    2.119    0.528
        60  -9.5638     35.1739     52.8045   6.9981049685e+01   6.4200760050e+01    0.1973674     0.152666 -22.91  0.001072266    1.329    0.248
        61 -11.0195     85.1949     48.1031   4.5033239379e+01   5.6645391271e+01    0.4612645    0.3416104  44.16  0.002003429    1.260    0.206
        62 -11.5299     81.6872     39.6259   4.2933214895e+01   5.8908430951e+01    0.6941409    0.3579044 -44.61  0.002879438    2.167    0.539
        63 -10.3673    164.8241     53.5183   2.6490322295e+01   3.6293498703e+01    0.2795684    0.2261626  22.61  0.001467418    1.443    0.307
        64 -11.5751      3.4735     41.5535   8.6009593214e+01   6.9231127740e+01    0.4395777     0.382264  31.66  0.002873271    1.289    0.224
        65 -10.4196    180.7738     39.5824   2.0057621260e+01   3.4174926053e+01    0.1946133    0.1277212  83.48 0.0009534168    1.664    0.399
        66 -11.8492    190.9138     36.8118   1.8024246074e+01   3.2076392184e+01    0.4135985    0.1993888 -50.72  0.001811962    2.204    0.546
        67 -11.9525     40.0752     29.1170   5.8275181686e+01   6.8637059471e+01    0.5186232    0.3230794 -44.13  0.002321688    1.607    0.378
        68 -11.4930    240.2228    229.0858   5.0106722156e+01  -5.7512247914e-01    0.2454351    0.1852665  33.16  0.001884857    1.830    0.454
        69 -11.1517      5.7942     35.1224   8.3103244116e+01   7.0631591077e+01    0.4111648    0.2216699  21.44  0.002134997    1.929    0.481
        70  -9.5513     90.4810     28.0182   3.4824969598e+01   5.8689606780e+01    0.2122509    0.1473238 -29.14 0.0009470591    1.575    0.365
        71 -10.6068    183.0042     27.5277   1.6399283661e+01   3.5003811661e+01    0.2068903    0.1261274  71.33 0.0006190213    1.589    0.370
        72 -10.4105    224.7570     23.0049   1.1327352562e+01   2.6009996565e+01    0.3006207    0.1684179 -31.33   0.00167026    1.609    0.378
        73 -11.7957    178.4601     23.8802   1.5890287963e+01   3.6507824636e+01    0.4313208    0.3509075  61.46  0.002505379    1.221    0.181
        74 -11.3474    173.3076     20.5995   1.5536207817e+01   3.8133264608e+01    0.4294086    0.1986032  69.21  0.001587979    2.012    0.503
        75 -10.4268     11.4417     24.6943   7.6024681628e+01   7.2662171766e+01    0.2368226    0.1228699 -69.46  0.001141491    2.117    0.528
        76  -9.8429    187.3006     19.4520   1.3695405183e+01   3.4804717136e+01    0.2501283    0.1144831  66.42   0.00112788    2.043    0.511
        77 -10.8258      3.3296    229.9221   9.8296096026e+01   2.7244656554e+01    0.2012854    0.1037257  39.67  0.001337843    1.364    0.267
        78 -10.1342    128.5141     18.2266   2.1335351028e+01   5.0088526319e+01    0.2850757    0.1896226  66.50  0.001221604    1.354    0.261
        79 -11.3692    248.9181    224.6115   4.8113785220e+01  -1.0930333456e+00    0.3975886    0.2022117 -26.55  0.002706291    1.883    0.469
        80  -9.7107     31.5199    227.4566   9.2206004702e+01   2.5241487243e+01    0.1141139   0.08364705  43.66 0.0004149944    1.010    0.010
        81 -13.0663    203.0742    220.6917   5.5091949895e+01   4.7376915470e+00    0.6881321    0.3774917  -4.31  0.003912125    2.103    0.524
        82 -13.4804    183.5475    217.4737   5.8226694053e+01   7.6940246610e+00     0.697364    0.4306835   8.14  0.004215007    1.571    0.364
        83 -10.6183    158.2214    225.4138   6.4309564115e+01   1.0075653816e+01    0.1725072    0.0881124  37.18 0.0009497136    1.630    0.387
        84 -10.9593     51.0118    217.9448   8.7307188369e+01   2.4978129849e+01    0.2580269     0.162671  41.61  0.001629086    1.209    0.173
        85 -10.0818     67.4960    217.4988   8.3458398372e+01   2.3217764951e+01    0.1226096   0.09477817  38.19 0.0008106739    1.007    0.007
        86 -12.8459    244.0836    200.7479   4.5184926706e+01   1.8567917258e+00    0.7115117    0.4901442 -17.59  0.004336481    1.312    0.238
        87 -12.7702    247.3628    184.5128   4.2022889410e+01   3.1982270857e+00    0.9187555    0.3933249 -34.36  0.005130425    2.337    0.572
        88  -9.9021    140.7703    206.9635   6.5493311700e+01   1.5216807964e+01    0.1447077    0.1059373 -41.08 0.0008829576    1.664    0.399
        89 -10.6088    205.7967    192.3994   5.0178747979e+01   7.8155132829e+00    0.1732885   0.09258452  25.23 0.0006750813    1.648    0.393
        90 -11.1264    196.1508    185.1419   5.0722973681e+01   1.0161658622e+01    0.3140261    0.2265247 -51.45  0.001825984    2.214    0.548
        91 -10.2244     37.0501    185.4893   8.8569260660e+01   3.2728034589e+01     0.192676    0.1068568  26.85   0.00103699    1.608    0.378
        92  -9.3502     93.8317     16.6513   2.8684258787e+01   5.9348795737e+01    0.2117159    0.1293389  69.94  0.000943722    1.736    0.424
        93 -10.9448    220.5511    156.1923   4.1172881353e+01   1.0305650623e+01     0.206493    0.2045318  34.30   0.00138002    1.503    0.335
        94  -9.8488     20.5248    155.4958   9.1134929352e+01   4.0743412172e+01    0.1250045    0.1084421  56.26 0.0008101563    1.002    0.002
        95 -10.7634    162.9952    152.0086   5.1350124935e+01   2.0635809467e+01    0.2853416    0.2324186  -5.91  0.001629936    1.246    0.197
        96  -9.8748     53.9323    143.4963   7.9757972858e+01   4.0187913693e+01    0.2126371    0.1810098 -78.56  0.001242294    1.236    0.191
        97 -11.7770     11.2132    140.0888   9.2995972678e+01   4.4978782842e+01     0.475402     0.206468  58.26  0.002194542    2.248    0.555
        98  -9.9351     40.4874    141.5265   8.3807046805e+01   4.2146548856e+01    0.1314896    0.1217043  51.70 7.200059e-05    1.025    0.025
        99 -13.3834    241.4919    125.4228   3.2005186518e+01   1.0936211227e+01     1.058977    0.8953469  48.63  0.007398532    1.467    0.319
