#   1 NUMBER                 Running object number                                     
#   2 MAG_AUTO               Kron-like elliptical aperture magnitude                    [mag]
#   3 X_IMAGE                Object position along x                                    [pixel]
#   4 Y_IMAGE                Object position along y                                    [pixel]
#   5 X_WORLD                Barycenter position along world x axis                     [deg]
#   6 Y_WORLD                Barycenter position along world y axis                     [deg]
#   7 A_WORLD                Profile RMS along major axis (world units)                 [deg]
#   8 B_WORLD                Profile RMS along minor axis (world units)                 [deg]
#   9 THETA_WORLD            Position angle (CCW/world-x)                               [deg]
#  10 FWHM_WORLD             FWHM assuming a gaussian core                              [deg]
#  11 ELONGATION             A_IMAGE/B_IMAGE                                           
#  12 ELLIPTICITY            1 - B_IMAGE/A_IMAGE                                       
         1 -14.8387    165.8266     40.6142   7.7382164792e+01   3.8543112965e+01     1.373196     1.056631  -3.34  0.004037469    1.427    0.299
         2 -14.5035    180.8037      7.9124   6.4694681904e+01   3.8355788459e+01     1.000751    0.9310603  48.33  0.003860811    1.119    0.106
         3 -11.7445    125.0077    246.9440   1.2980696269e+02   1.1094235805e+01    0.2163623    0.1412987 -53.74  0.001527828    2.053    0.513
         4 -20.0533     68.1035    174.6576   1.3445797567e+02   3.0534157083e+01     15.82041     6.644758 -69.48   0.07274744    2.598    0.615
         5 -12.8290    180.3788    193.0121   1.1209849460e+02   1.1024302284e+01    0.3101001    0.2641199 -65.68  0.001908674    1.956    0.489
         6 -13.5422    174.8891    193.2543   1.1321537030e+02   1.1819069561e+01    0.5044019    0.3939317 -59.97  0.002266386    2.047    0.511
         7 -13.4673    175.4342    186.2101   1.1193825669e+02   1.2775423727e+01    0.5166021    0.3951387 -59.46    0.0024646    2.073    0.518
         8 -11.1494    170.4297    185.2358   1.1278074423e+02   1.3702489380e+01    0.2268328    0.2210605  63.75 0.0007183904    1.429    0.300
         9 -12.8639    166.8850    188.1145   1.1398023439e+02   1.3812628888e+01    0.4034044    0.3387417   0.02  0.001701609    1.132    0.117
        10 -11.9467    161.4714    197.5426   1.1657626075e+02   1.3201913280e+01    0.2523145    0.2107246  42.56  0.001655708    1.330    0.248
        11 -10.6457    139.5341    250.1709   1.2746203730e+02   8.8782822096e+00    0.2241735    0.1009682  43.77  0.001285987    1.989    0.497
        12 -11.5136    169.6736    195.0956   1.1454683190e+02   1.2336426137e+01    0.1699338    0.1450542   4.31  0.001131572    1.107    0.096
        13 -10.5556    219.1544    224.1572   1.0996396411e+02   1.7618732272e+00    0.1370543    0.1125531  13.66 0.0003927027    1.317    0.240
        14 -11.2576    153.7939    184.9527   1.1618071057e+02   1.6347328095e+01    0.2109569    0.1907856 -78.83  0.001345934    1.560    0.359
        15 -12.8287    207.4171    178.2814   1.0441525369e+02   8.9460121468e+00    0.5281044    0.3221644   7.50  0.002463784    1.735    0.424
        16 -12.3622    112.7626    169.6499   1.2299779880e+02   2.5460395671e+01    0.4587826    0.3528199 -36.25  0.001054141    1.478    0.323
        17 -10.6436    118.9932    181.9950   1.2337861561e+02   2.2189005201e+01    0.2902467    0.1657818  57.60  0.001357285    2.346    0.574
        18 -10.6550    115.6956    179.3193   1.2374751887e+02   2.3173678753e+01    0.2711691    0.1616553  52.14  0.001367819    1.835    0.455
        19 -10.6707    112.5026    176.5552   1.2408817497e+02   2.4168081930e+01    0.2234708    0.1672999  45.60 0.0006306093    1.254    0.202
        20 -10.2122      2.0531    181.7323   1.5021299572e+02   3.5329761141e+01    0.1927372     0.174957 -23.51  0.001532947    1.543    0.352
        21  -9.0526      5.4247    179.5301   1.4940029796e+02   3.5527689487e+01    0.1051326   0.08963944  76.89 0.0003247631    1.125    0.111
        22 -10.8454    219.2932    177.3500   1.0212563014e+02   7.2692495402e+00    0.1307385   0.07982749   2.89 0.0002221992    1.675    0.403
        23 -12.0950    163.4708    188.4667   1.1473553364e+02   1.4286063897e+01    0.2842747    0.2346342 -24.80  0.001072807    1.299    0.230
        24 -13.0873    195.7416    170.1134   1.0506924825e+02   1.1927361613e+01     0.514296     0.365571 -33.60  0.001853716    1.497    0.332
        25 -11.7204    193.7986    164.9557   1.0445306868e+02   1.3002705462e+01    0.3139417    0.2743548   7.26  0.001105355    1.108    0.098
        26 -12.0538      9.2458    175.1920   1.4837312551e+02   3.6126194666e+01    0.2020253    0.1490554  45.84  0.000570619    1.223    0.182
        27 -12.0643    203.3239    172.3508   1.0406541458e+02   1.0396735691e+01    0.4138809     0.230075 -32.36  0.002194839    1.805    0.446
        28 -12.4385    137.7528    170.7025   1.1733861853e+02   2.1344783099e+01    0.4288457    0.3499998  58.68  0.001693432    1.461    0.315
        29 -11.8511    125.7573    171.8428   1.2028048315e+02   2.3040330164e+01    0.2786335     0.238767 -59.70   0.00108229    1.358    0.264
        30 -11.1963    110.1321    222.9657   1.3028527778e+02   1.6441741380e+01    0.1651523    0.1361602  37.37 0.0004365807    1.038    0.037
        31 -11.5591     12.9239    241.3826   1.4998086212e+02   2.3849144441e+01    0.2745899    0.2302761  55.85  0.001706121    1.212    0.175
        32 -11.1271      1.3513    214.8678   1.5134491919e+02   2.9188746527e+01    0.1280799   0.08088323 -85.57 0.0004338879    1.562    0.360
        33 -11.8252    229.8914    166.5456   9.8268175519e+01   7.0549440230e+00    0.2360211    0.1488153 -39.82  0.001308335    1.964    0.491
        34 -11.0589    201.2324    164.5999   1.0297007310e+02   1.1832747765e+01    0.4151058    0.2198523 -41.60  0.002030807    2.186    0.543
        35 -12.2212    143.6525    168.4865   1.1562447184e+02   2.0784288750e+01    0.5092716    0.3403623  70.92  0.002253948    2.896    0.655
        36 -11.1669    107.9790    207.2793   1.2903741640e+02   1.9274836225e+01    0.1939923    0.1559035  30.75 0.0005009563    1.094    0.086
        37 -10.7444    111.5276    213.4635   1.2898682256e+02   1.7776966150e+01    0.1618192    0.1341406  82.05 0.0002822907    1.508    0.337
        38 -10.7014      1.6660    165.3763   1.4969779642e+02   3.8696670502e+01    0.1232505    0.1118057 -75.22 0.0004095617    1.279    0.218
        39 -10.5872    222.5822    161.7694   9.8574976301e+01   8.7989209495e+00     0.209487    0.1398748 -32.42 0.0007803849    1.542    0.351
        40 -12.0462    161.9309    153.8536   1.0881543304e+02   2.0260512401e+01    0.4047253    0.3197459  87.56  0.002011693    2.229    0.551
        41 -13.8118    135.6452    127.4626   1.0937159071e+02   3.0041354443e+01      1.18211    0.2938698 -49.89  0.003145377    5.123    0.805
        42 -14.3699    133.5169    145.6677   1.1375577400e+02   2.6797255143e+01     1.649451    0.4640715 -52.27  0.004905958    4.637    0.784
        43 -12.9999    128.5188    143.4883   1.1455541931e+02   2.8103807641e+01    0.4812988    0.2575159  47.73  0.001837506    1.991    0.498
        44 -10.7250    174.7113    149.0899   1.0510340481e+02   1.8801282562e+01    0.2313167    0.1847211  43.09  0.000694642    1.346    0.257
        45 -13.1939    144.2825    145.6490   1.1116990966e+02   2.4894344194e+01    0.5087097    0.3529199 -60.96   0.00246811    1.929    0.482
        46 -11.5006    109.5250    210.5216   1.2907637490e+02   1.8526088446e+01    0.2408206    0.1678159  48.07 0.0009830364    1.324    0.245
        47 -10.3137    171.8203    137.8698   1.0331142220e+02   2.1240773803e+01    0.1803032    0.1748761 -71.37 0.0008680132    1.334    0.250
        48 -12.3112    116.1470    212.0306   1.2786863251e+02   1.7394479591e+01    0.2368739    0.1876249  71.74 0.0009969124    1.581    0.367
        49 -11.8719    160.3438    127.9224   1.0358324359e+02   2.5204938335e+01    0.3454788    0.2653454 -47.17  0.001767317    1.450    0.310
        50 -12.0710    163.8074    203.0748   1.1694481318e+02   1.2036158926e+01    0.2165175    0.2083602  37.00 0.0006977773    1.359    0.264
        51 -11.5795    157.6573    201.9941   1.1801587479e+02   1.3097794806e+01    0.4328111    0.2778595  57.54  0.002089625    2.421    0.587
        52 -12.5722     30.6825    118.7142   1.3847867371e+02   4.7161393919e+01    0.3340991    0.2172968 -54.13  0.001081925    1.511    0.338
        53 -12.5553    134.7413    112.0926   1.0594070347e+02   3.3324595879e+01    0.5724316    0.1615569 -44.55   0.00172407    3.580    0.721
        54 -10.6754    167.6549    112.6693   9.8263624699e+01   2.6497319908e+01    0.2904348     0.225098 -80.56  0.001338533    2.125    0.529
        55 -10.9548    154.4690    196.1762   1.1779644179e+02   1.4458341611e+01    0.3432018    0.2478416  71.88  0.001799686    2.607    0.616
        56 -11.1229    133.6375    248.7321   1.2839320609e+02   9.7926720269e+00    0.1944962    0.1177866 -45.65 0.0008508227    2.168    0.539
        57 -10.8187    205.3445    110.2302   9.0251004150e+01   1.9242651690e+01    0.2816763    0.1894329  37.46  0.001002628    1.518    0.341
        58 -10.2742     19.0925    108.5026   1.4105501037e+02   5.0542359936e+01    0.1670598     0.128342  13.77   0.00101052    1.551    0.355
        59 -10.5056    139.1964    200.9777   1.2166151327e+02   1.5954656469e+01    0.1730543    0.1502067  54.89 0.0005853533    1.347    0.258
        60 -10.6864     98.8679     80.9176   1.0769764070e+02   4.6988376648e+01    0.2211182    0.2161766 -10.75  0.000484562    1.039    0.038
        61 -10.5030    145.4706     80.4695   9.4454341577e+01   3.7173780138e+01    0.1547965     0.144386   0.70 0.0001496895    1.033    0.032
        62 -10.1610    150.6583    247.1954   1.2512407445e+02   7.8616426331e+00    0.1254084   0.09434915 -21.48 0.0006940623    1.620    0.383
        63 -14.4440    154.2880     55.6193   8.4546990739e+01   3.9277411554e+01     1.225782      1.04132  54.29  0.001043213    1.208    0.172
        64 -10.3595    160.1394    249.1684   1.2363268631e+02   6.4326770325e+00    0.1372466     0.108122  38.29 0.0006197537    1.327    0.246
        65 -12.9612    169.8462     32.8439   7.4164703530e+01   3.8508094005e+01    0.4520515    0.3622317  -5.49 0.0009690479    1.331    0.249
        66 -10.7898     13.6502     60.0195   1.3629209590e+02   6.2851950491e+01    0.1911095    0.1733431  58.49 0.0005173423    1.278    0.217
        67 -11.0356    138.9701     31.8222   7.9323950654e+01   4.6517518354e+01    0.3752217    0.2351067  81.15  0.001567465    2.134    0.531
        68 -10.3194    135.1756    234.6238   1.2662647883e+02   1.1486555227e+01   0.09169976   0.07810081  67.73 0.0005416143    1.567    0.362
