#   1 NUMBER                 Running object number                                     
#   2 MAG_AUTO               Kron-like elliptical aperture magnitude                    [mag]
#   3 X_IMAGE                Object position along x                                    [pixel]
#   4 Y_IMAGE                Object position along y                                    [pixel]
#   5 X_WORLD                Barycenter position along world x axis                     [deg]
#   6 Y_WORLD                Barycenter position along world y axis                     [deg]
#   7 A_WORLD                Profile RMS along major axis (world units)                 [deg]
#   8 B_WORLD                Profile RMS along minor axis (world units)                 [deg]
#   9 THETA_WORLD            Position angle (CCW/world-x)                               [deg]
#  10 FWHM_WORLD             FWHM assuming a gaussian core                              [deg]
#  11 ELONGATION             A_IMAGE/B_IMAGE                                           
#  12 ELLIPTICITY            1 - B_IMAGE/A_IMAGE                                       
         1 -12.9531    242.8218    112.9857   8.2012715043e+01   8.6586285101e+00     4.765941    0.9061667 -39.16   0.01296553    4.576    0.781
         2 -10.7416    184.1208      3.1679   6.3454767708e+01   3.8588469383e+01     1.427362    0.5989363 -87.87  0.005022354    3.895    0.743
         3 -10.4367    172.7998      2.3986   6.4649784609e+01   4.1380965103e+01    0.6113687    0.3190667  78.69  0.002668344    1.851    0.460
         4 -10.4224    215.0459     21.4231   6.4358678730e+01   2.9215247682e+01    0.5034128     0.284959 -63.60  0.001490611    1.858    0.462
         5 -13.1029    219.7968     38.8037   6.7892274891e+01   2.5869681665e+01     3.046745     1.168242 -55.69   0.01044875    3.276    0.695
         6 -11.9004    242.4978     86.1805   7.5936110105e+01   1.3357483999e+01     2.288229    0.5030068 -44.43  0.006756326    4.053    0.753
         7 -12.0431    165.7681     54.9941   8.0572372887e+01   3.6818107921e+01     3.215391     1.705911 -84.51  0.008363019    6.265    0.840
         8 -10.7592    246.3510      4.9238   5.7843240743e+01   2.3976269848e+01     1.019179    0.4115125  50.99  0.004352642    3.577    0.720
         9 -11.7123    241.5862     15.6456   6.0434707974e+01   2.3788081367e+01    0.4884365    0.2500408 -65.42 0.0008745574    1.951    0.487
        10 -10.1088    238.2632     11.6157   5.9885375910e+01   2.5002232096e+01      0.19322    0.1378474 -79.24 0.0005470442    1.197    0.165
        11 -11.9326    128.9520     20.8071   7.7437625180e+01   4.9965370356e+01    0.8992848    0.3461954  50.35  0.003804239    2.192    0.544
        12  -9.4222    222.9504     14.9773   6.2049295209e+01   2.8111777735e+01    0.3730626    0.1813463 -52.61  0.001157116    1.993    0.498
        13  -8.3103    219.3707     11.6820   6.1666786789e+01   2.9319315763e+01     0.230369    0.1655796 -79.97  0.000803144    1.245    0.197
        14 -10.9208    143.3804     10.7848   7.1472711062e+01   4.7630277190e+01    0.6875866    0.3205745  -7.55  0.002789203    3.434    0.709
        15  -8.4511    189.0052     12.9687   6.5360861681e+01   3.6433727480e+01    0.2728887    0.1464374 -49.06  0.001117632    1.967    0.492
        16 -11.9074    119.3058      9.9314   7.5803642361e+01   5.3179079465e+01     0.688568    0.4811695  44.76  0.002737839    1.230    0.187
        17  -8.1316    233.4005     11.9903   6.0399227004e+01   2.6054474369e+01    0.1761151    0.1145055 -38.89  0.000560937    1.586    0.370
        18 -10.1757    211.7738      3.3705   6.0533033184e+01   3.1985037337e+01    0.5132761     0.195214 -53.92  0.001528526    2.855    0.650
        19  -8.5384    135.3336      8.3148   7.2128717894e+01   4.9722296726e+01    0.1385284   0.08318798  36.84 0.0007046445    1.687    0.407
        20  -8.3923      1.6757      4.6809   1.1400499070e+02   7.1664408327e+01     0.109279   0.05642512 -18.65  0.000704539    1.675    0.403
        21 -10.4883    125.7690     14.7401   7.6083775646e+01   5.1296702315e+01    0.3355106     0.213708  52.87  0.001455823    1.354    0.262
        22  -9.1881    236.6843      2.6974   5.8165145422e+01   2.6351053879e+01    0.2394846    0.1718221 -84.22 0.0004359304    1.153    0.133
        23  -8.9136    195.6283      1.5119   6.1745828501e+01   3.5989070437e+01    0.2622194    0.1294314  76.72  0.000532164    1.807    0.447
        24  -8.2896    162.3256      2.3028   6.6022603990e+01   4.3899300627e+01    0.1336379   0.08373863  43.16 0.0003753486    1.641    0.391
        25  -8.9018    159.9813    126.7381   1.0142359763e+02   2.4683164825e+01     0.289534    0.2004424 -60.10 0.0009100486    1.624    0.384
        26  -8.5164    192.3532    125.6972   9.4121844018e+01   1.7477991072e+01    0.1602242     0.122651 -83.36 0.0007039577    1.705    0.414
        27  -8.8238    177.1815    119.6910   9.5816144069e+01   2.2214514800e+01    0.2388502    0.1940368  76.08 0.0004255171    1.410    0.291
        28 -12.6568     46.9379    181.2204   1.3868010540e+02   3.1856245989e+01     1.035818    0.9246844 -52.67  0.005012411    1.420    0.296
        29  -8.9527    215.8240    116.8601   8.7463872004e+01   1.3841879389e+01    0.2275719    0.2077828  -2.95  0.001215085    1.229    0.186
        30  -7.9931    181.0210    114.9882   9.3808518280e+01   2.2274878812e+01    0.1884487    0.1793511  61.53 0.0003458591    1.061    0.058
        31  -9.6516    167.3882    113.1377   9.6294781285e+01   2.5849923374e+01    0.3985415      0.30811 -89.73 0.0009834126    1.652    0.395
        32 -10.3055    187.0019    112.4737   9.1927466935e+01   2.1370183116e+01    0.3214397    0.2368962 -43.46 0.0009925064    1.328    0.247
        33  -7.7410    134.3366    112.3272   1.0396093532e+02   3.3476201641e+01    0.1590752    0.1246385  -0.96 0.0007051753    1.725    0.420
        34  -7.7552     19.5141    112.5193   1.3602384054e+02   5.0311519080e+01    0.1227732   0.09652454 -64.42 3.194196e-06    1.002    0.002
        35 -10.0448    205.4412    110.0346   8.7709136498e+01   1.7516132872e+01    0.4744646    0.2962054  28.71  0.001886658    2.354    0.575
        36 -11.0636    187.8769    100.9154   8.8789459569e+01   2.3419119569e+01    0.7286733     0.316542 -45.52  0.002618991    2.298    0.565
        37  -8.7298    149.8667     94.9548   9.5454538128e+01   3.3621597910e+01    0.2980923    0.2444469   9.21 0.0008078303    1.511    0.338
        38 -11.8086    137.4682     36.5306   8.0736156097e+01   4.6179730924e+01    0.7194204    0.6231083 -71.18 0.0005029288    1.363    0.266
        39 -11.5962    178.0663     74.0839   8.3560542271e+01   3.0705051229e+01     1.183022    0.8771859 -83.18  0.003981197    1.657    0.396
        40 -12.8928     31.8533    194.3211   1.4312443726e+02   3.0686120433e+01    0.9042618    0.8071268 -83.58  0.002705147    1.290    0.225
        41  -8.3675    135.4001     93.1562   9.8484767251e+01   3.7252957738e+01    0.2403343    0.2053196  79.15 0.0006350604    1.360    0.265
        42 -10.3553    161.1716     85.7592   9.0303946519e+01   3.2728017011e+01    0.6073079    0.4463157   7.88  0.002642989    1.981    0.495
        43 -11.2350    158.8974     74.9503   8.7738268592e+01   3.5231692708e+01    0.5537094    0.3200659 -39.01 0.0006728176    1.750    0.429
        44  -8.9194    232.2645     79.6285   7.5877270204e+01   1.6737860273e+01     0.254863    0.1989948 -68.91 0.0008161352    1.283    0.221
        45  -9.2520    250.1023     85.5437   7.4745267474e+01   1.1819958403e+01    0.2598542    0.1895579 -35.75 0.0006189505    1.337    0.252
        46  -8.4921    231.2699     73.4445   7.4564694419e+01   1.7982602097e+01    0.2504634    0.1322939  57.17 0.0008447416    1.950    0.487
        47  -8.5409    186.2584     72.1672   8.1496051835e+01   2.9011363549e+01    0.1996813     0.197178 -28.55 0.0003377427    1.104    0.094
        48 -10.1096    208.0540     66.7342   7.6381061303e+01   2.4560389398e+01     1.212842    0.7196374 -78.79  0.004875437    2.462    0.594
        49 -10.3514    194.9052     57.3767   7.6068411845e+01   2.9248754351e+01    0.4536348     0.386977  67.34  0.001511102    1.126    0.112
        50 -10.1777    204.9629     57.9839   7.4644072783e+01   2.6685370729e+01    0.6824827    0.3582744 -73.73  0.002383687    3.338    0.700
        51 -10.5746    200.8914     52.8562   7.3954870888e+01   2.8454452619e+01    0.3769315    0.3387794  70.75   0.00107977    1.090    0.083
        52  -8.5968    242.3259     66.9098   7.1571648826e+01   1.6523736432e+01    0.2230228    0.1747251 -89.95 0.0004209013    1.284    0.221
        53  -9.7843    184.5634     66.0778   8.0160673025e+01   3.0436629037e+01    0.2648633    0.2549132 -62.57 0.0003553703    1.060    0.056
        54  -8.4750    222.2982     65.9460   7.4053527966e+01   2.1276163383e+01     0.247707     0.230901 -55.76  0.001414582    1.104    0.094
        55  -9.3722    143.5187     84.0174   9.3873652783e+01   3.7203338949e+01    0.3233332    0.2704641 -49.33   0.00088686    1.225    0.183
        56  -9.8148    241.9005     60.5301   7.0184747998e+01   1.7605398118e+01    0.2639428    0.2291811  63.58 0.0006076032    1.267    0.211
        57  -8.5912    127.7520     58.9729   9.0158972521e+01   4.5154969781e+01    0.2323904      0.19288  46.33 0.0003771926    1.168    0.144
        58 -11.2979    229.7121     29.0139   6.4495035918e+01   2.4833874462e+01    0.5189158     0.345122  47.17  0.001713577    1.877    0.467
        59  -8.2859    118.8438    149.6598   1.1665663666e+02   2.8138214292e+01    0.2280077    0.1957344 -46.45 0.0002956407    1.199    0.166
        60  -7.6422    156.2745     38.3312   7.7501530375e+01   4.1480016772e+01    0.1405162    0.1038768  26.82 0.0002416406    1.595    0.373
        61 -11.0148    186.0482     86.0315   8.5243015373e+01   2.6639660480e+01     1.103471    0.3909989 -43.72  0.003667894    2.790    0.642
        62  -8.6810    201.8773     34.2202   6.9075914115e+01   3.0799501070e+01    0.3096551    0.1608697 -51.16  0.001205274    2.000    0.500
        63 -11.7535    177.2775     54.8365   7.8386033942e+01   3.4000720620e+01    0.5521423    0.3812085  -0.66  0.002447403    2.235    0.553
        64  -9.4008    106.6984     30.5767   8.6012400842e+01   5.3673034941e+01    0.2262675    0.2137997  38.82 0.0005445063    1.149    0.130
        65  -7.8212    112.5218     29.4877   8.4147390107e+01   5.2592318069e+01    0.1328625    0.1182935  28.94 0.0001414645    1.005    0.005
        66  -9.3126     64.1338    165.1634   1.3274243235e+02   3.3371063316e+01    0.2063429    0.1766082 -57.29  0.001254738    1.250    0.200
        67  -9.3251    249.4898     19.9210   6.0620330077e+01   2.1527626827e+01    0.2759705    0.2502673  39.29  0.001329214    1.573    0.364
        68 -10.7015     37.5696    189.4535   1.4151528225e+02   3.1112078415e+01    0.3035934    0.2376962 -47.22  0.001206719    1.709    0.415
        69  -8.0327    122.2172    237.7145   1.3031505923e+02   8.7625430708e+00    0.1794715   0.09602749 -47.39 0.0008845612    2.370    0.578
        70  -8.6442     26.8898    230.3049   1.4692840064e+02   2.3804636251e+01    0.1893136    0.1268643 -79.81 0.0003818058    1.319    0.242
        71  -8.0097     65.9939     21.9630   9.4878869992e+01   6.2120874701e+01    0.1622596    0.1478795 -48.08 0.0005674457    1.607    0.378
        72 -12.0669      4.4052    217.7462   1.4986986105e+02   2.8629900318e+01    0.7744898    0.3758519 -80.06  0.004873145    1.615    0.381
        73  -7.5407     46.6691    207.7436   1.4151920836e+02   2.6068985286e+01    0.1021263   0.09240293 -52.92 0.0002117368    1.562    0.360
        74 -10.0366    172.1481    205.1303   1.1533550977e+02   5.8111412612e+00    0.2217444    0.2043073  60.20            0    1.113    0.101
        75  -9.6999     69.5212    145.4900   1.2828480827e+02   3.7279766703e+01    0.3682926     0.287702  78.50    0.0015695    1.350    0.259
        76  -9.8525     66.1668    143.9563   1.2887220282e+02   3.8100866925e+01    0.4370728    0.2998879 -78.90  0.001064508    1.464    0.317
        77  -7.9881    177.6391     12.7808   6.6788057075e+01   3.9215259930e+01    0.1798257    0.1121127 -43.76  0.000939777    1.713    0.416
        78  -9.8818    238.8014     36.3526   6.5152495027e+01   2.1785545631e+01    0.5373896    0.2840397  70.85  0.002656694    1.832    0.454
        79  -7.9446    192.0376    144.2502   9.8602633075e+01   1.3792728637e+01    0.1987888    0.1309411  46.41 0.0003967998    1.538    0.350
        80  -8.7575    184.0646    142.0066   9.9755803676e+01   1.6022842642e+01    0.2241624    0.2204293 -42.25  0.001204035    1.010    0.010
        81 -10.0857    230.3124    135.2428   8.9174013780e+01   7.2570218278e+00    0.2571005    0.2428154  79.86 0.0002687363    1.175    0.149
        82  -8.1660    116.5962    134.7878   1.1398968061e+02   3.2023968996e+01    0.2231214    0.1967528  32.55 0.0003284079    1.242    0.195
        83  -9.0517    203.8119    129.1561   9.2670289717e+01   1.4182265714e+01    0.3637556    0.1959062 -17.46  0.001076557    4.152    0.759
        84  -8.2293    180.5004    128.4635   9.7277806408e+01   1.9636401325e+01    0.1568395    0.1501489 -77.24 5.069713e-05    1.059    0.056
