#   1 NUMBER                 Running object number                                     
#   2 MAG_AUTO               Kron-like elliptical aperture magnitude                    [mag]
#   3 X_IMAGE                Object position along x                                    [pixel]
#   4 Y_IMAGE                Object position along y                                    [pixel]
#   5 X_WORLD                Barycenter position along world x axis                     [deg]
#   6 Y_WORLD                Barycenter position along world y axis                     [deg]
#   7 A_WORLD                Profile RMS along major axis (world units)                 [deg]
#   8 B_WORLD                Profile RMS along minor axis (world units)                 [deg]
#   9 THETA_WORLD            Position angle (CCW/world-x)                               [deg]
#  10 FWHM_WORLD             FWHM assuming a gaussian core                              [deg]
#  11 ELONGATION             A_IMAGE/B_IMAGE                                           
#  12 ELLIPTICITY            1 - B_IMAGE/A_IMAGE                                       
         1 -11.4327    208.0369      5.2388   3.9210530388e+01   3.2051476590e+01     1.811687    0.8987999   3.06  0.002703616    5.420    0.816
         2 -14.8409    172.5918     66.8928   6.1794957794e+01   3.2902735064e+01      6.70409     4.123402 -79.14   0.01173501    2.870    0.652
         3 -13.6626    240.7634     45.9576   4.5855179224e+01   1.9363010980e+01      1.90805    0.9107887 -51.37 0.0008865763    2.030    0.507
         4 -10.3135    233.1931      6.7958   3.7392051121e+01   2.5907118184e+01     2.476604     1.362541 -49.47   0.01020405    1.617    0.381
         5 -13.5620    221.2722     37.1392   4.5903597560e+01   2.5098836498e+01      1.50689    0.7698992 -60.10  0.004666955    2.247    0.555
         6 -14.2978    242.9303     30.7851   4.2071071437e+01   2.0877445532e+01     2.059442    0.8627366  59.84  0.009197993    2.444    0.591
         7 -12.1426    249.2698      2.4897   3.5248382409e+01   2.2770397166e+01    0.9367676    0.4816582 -31.71  0.002996167    1.930    0.482
         8 -13.3004    191.9825     47.1929   5.2582799785e+01   3.1004829097e+01     2.057796     1.821343 -63.85   0.01131903    1.114    0.102
         9 -10.2220    178.6895     24.5071   4.7996019538e+01   3.7378349813e+01    0.5539091    0.4996031  46.41   0.00320393    1.163    0.140
        10 -14.9797    218.6380     72.3283   5.5303366270e+01   2.0587433556e+01     10.57016     2.844628 -46.79   0.02608174    4.420    0.774
        11 -12.0103    134.0280     18.5069   5.3710494081e+01   4.9460646620e+01     0.767293    0.5815626  46.53  0.003025603    1.200    0.166
        12 -10.1649    133.9834     14.7037   5.2348182147e+01   4.9868027654e+01    0.4148099    0.2373955  63.03  0.001111988    1.617    0.382
        13 -10.0436    224.2071     18.1054   4.0859383437e+01   2.6749000250e+01    0.3410496    0.2130489 -33.40  0.001511841    1.600    0.375
        14  -9.2004    159.8491     14.3533   4.7701273452e+01   4.3351042227e+01    0.3016289    0.1965241 -27.44 0.0009499807    1.664    0.399
        15  -9.4893    115.9862     12.5042   5.5346133750e+01   5.4442673190e+01    0.3080972    0.2187253  52.80 0.0009211693    1.261    0.207
        16 -11.0581    120.2735      8.9493   5.3014384908e+01   5.3766797656e+01    0.4953086    0.4336568 -38.17  0.001950629    1.310    0.236
        17 -10.9081    215.3765     10.6320   3.9867222974e+01   2.9701589675e+01    0.3264212    0.2144655 -73.68  0.001067436    1.484    0.326
        18  -9.4768    128.9717      8.8219   5.1187454711e+01   5.1672120250e+01    0.4095322    0.1895635 -14.81  0.001721826    2.591    0.614
        19  -8.2896    223.5785      9.0983   3.8740886921e+01   2.7903103457e+01    0.1565513    0.1263147 -11.48  0.000921185    1.597    0.374
        20 -10.4046    188.9680      5.8596   4.1333586897e+01   3.6740135876e+01    0.3403475    0.2186008 -42.35 0.0008910702    1.576    0.366
        21  -9.4487    184.1636      4.3949   4.1465712949e+01   3.8096991811e+01    0.4391106    0.1935158  75.58  0.001863755    2.143    0.533
        22  -8.5477    217.7441      4.2319   3.8077750359e+01   2.9803114500e+01    0.1566997    0.1122157 -23.22 0.0005583173    1.627    0.385
        23  -9.0426    171.9597      2.2626   4.2294375694e+01   4.1398564835e+01    0.2476366    0.1796611 -43.93  0.001105907    1.458    0.314
        24  -9.4938    135.6815      2.3825   4.7622894639e+01   5.0578221373e+01    0.2350842    0.1739893  -7.22 0.0008745357    1.539    0.350
        25  -9.5183    202.8016    171.4114   8.2108580208e+01   6.5049319256e+00    0.3592989    0.2231885 -16.03 0.0003936818    2.049    0.512
        26 -13.2733     35.9654    165.3495   1.1974188685e+02   3.6087356783e+01     1.074708    0.7427574  22.21  0.001756448    1.929    0.482
        27 -10.6325    230.6471    167.7922   7.6005510179e+01   1.8815464671e+00    0.5174639    0.2166417 -41.50   0.00210542    2.483    0.597
        28 -12.7231     46.2885    159.3266   1.1663442395e+02   3.6362270684e+01    0.8888537    0.7513852 -75.41  0.002525782    1.120    0.107
        29  -8.2214     67.8745    166.8633   1.1236855273e+02   3.1914465162e+01    0.1718646    0.1331697  80.86 0.0002495314    1.210    0.173
        30  -8.7889    209.0854    165.2157   7.9550452594e+01   6.3689356107e+00    0.3203492    0.1893209  63.90  0.001219832    3.137    0.681
        31 -10.1518    114.0953    247.0716   1.1206318285e+02   8.9452735011e+00    0.1880819    0.1704216  80.91 0.0003231374    1.236    0.191
        32 -13.9884    201.9774    115.7740   6.9417824976e+01   1.6908110645e+01     3.119155     1.942195  38.55  0.006511332    1.744    0.427
        33  -9.0020     72.6650    248.6738   1.1973778420e+02   1.4594151511e+01   0.09576452   0.08885591   7.47 0.0007051523    1.718    0.418
        34  -9.8290    133.7176    145.2837   9.2040846523e+01   2.5812675708e+01     1.148224    0.2696543 -54.73   0.00242059    7.239    0.862
        35  -8.8670    157.3471    149.2803   8.7199792668e+01   2.0072084027e+01    0.2924167    0.2184063  87.29 0.0009760078    1.972    0.493
        36 -10.2086    150.6003    147.6957   8.8443553077e+01   2.1822234888e+01    0.6286408    0.3853201 -80.05  0.002043513    3.717    0.731
        37 -10.6521     66.4007    144.2113   1.0943227091e+02   3.7491472334e+01    0.5341272    0.3366888 -83.78  0.001856489    1.720    0.419
        38  -8.3058    222.5218    145.5132   7.2628795507e+01   7.1460748352e+00    0.1458554    0.1306643  -7.22 0.0002810204    1.023    0.022
        39 -11.1136    180.8658    144.3262   8.0749547976e+01   1.6074073156e+01    0.4301264    0.3519372  70.54  0.001400176    1.517    0.341
        40  -9.5273    195.5003    142.9918   7.7334262941e+01   1.3194227911e+01    0.2512354    0.2113053  55.35 0.0006091992    1.315    0.239
        41  -9.6317    159.8951    142.8247   8.5143479505e+01   2.0898810546e+01    0.3658276    0.2225671  45.13  0.001155906    1.622    0.383
        42 -10.4743     70.0126    145.4935   1.0868188025e+02   3.6692199602e+01    0.4016986    0.3186358  83.04  0.001479387    1.256    0.204
        43  -9.9965    135.1270    241.7425   1.0749905065e+02   6.5444816799e+00    0.3836314    0.2105483  58.30  0.001987429    2.033    0.508
        44  -9.2453    211.8073    136.0919   7.2470491002e+01   1.1011737220e+01    0.3637043    0.1947758 -16.30  0.001257247    3.079    0.675
        45 -13.2267    230.9457     55.5624   4.9345660180e+01   2.0252435689e+01     1.087108    0.8994438 -34.55  0.005574229    1.193    0.162
        46  -8.8407    192.2397    144.2352   7.8300072123e+01   1.3652523585e+01    0.2553115    0.2115824  42.78 0.0004186325    1.216    0.177
        47  -8.6789     71.6726    239.6823   1.1919919106e+02   1.6302420636e+01   0.09733483   0.09157445  -0.36 0.0007045947    1.678    0.404
        48 -10.3753    155.6287    133.0352   8.3847460889e+01   2.3911805320e+01    0.4984073     0.293256 -72.06  0.001580776    3.602    0.722
        49  -9.1264    232.1335    240.3584   8.9219315028e+01  -8.4861432955e+00    0.1636522   0.09242706  40.70 0.0009437662    1.737    0.424
        50  -8.6696    150.3361    131.3102   8.4710454254e+01   2.5438488584e+01    0.1612271    0.1254876   2.61 0.0006466279    1.682    0.405
        51  -9.7951    160.6584    128.8742   8.1637004589e+01   2.3690633202e+01     0.413788    0.2626111 -60.09  0.001662452    1.995    0.499
        52 -10.3172    136.8072    126.9691   8.7039879441e+01   2.9302869291e+01    0.6423407    0.3755639 -72.00  0.002135962    3.204    0.688
        53  -9.8743    223.5408    128.0462   6.8392991819e+01   9.9810058741e+00     0.263139    0.2171758  74.96  0.001357379    1.589    0.371
        54  -8.3506    226.4553    223.4988   8.7433906942e+01  -5.5565927260e+00    0.1240123   0.09966706  14.75 0.0001716695    1.038    0.036
        55  -9.2749    152.3914    125.1672   8.2697430008e+01   2.6320632986e+01    0.2291255    0.1477837 -54.63 0.0009458745    1.709    0.415
        56  -9.3681    227.0882    122.5571   6.6462837053e+01   1.0194531168e+01    0.2878525    0.2032384 -26.36 0.0007625049    1.369    0.270
        57  -8.2776    141.4800    122.5137   8.4744958915e+01   2.9295177946e+01    0.1561064    0.1541977 -12.30 6.597766e-05    1.019    0.018
        58 -10.2059    168.1994    114.4405   7.6204645230e+01   2.4985255645e+01    0.3608777     0.270243 -42.46  0.001262314    1.326    0.246
        59 -10.2423    161.0782    118.3019   7.8864808790e+01   2.5827007310e+01    0.6495889    0.4054748 -75.87  0.002144279    3.316    0.698
        60  -8.7693    149.0362    119.4769   8.2078715622e+01   2.8297932688e+01    0.2361717    0.2027247 -44.04  0.000208365    1.161    0.139
        61 -10.0858    129.0878    115.1259   8.6087522675e+01   3.3598522252e+01    0.6328611     0.350976 -70.74  0.001911554    3.858    0.741
        62 -10.5283    135.0319    108.6997   8.2815172213e+01   3.3749671716e+01     1.113373    0.2749408 -44.82  0.002956697    4.000    0.750
        63 -10.3681    123.3025    103.5991   8.4589653469e+01   3.7395059625e+01    0.4380227    0.3923871 -53.70  0.002237701    1.122    0.109
        64  -9.1616    142.9068    104.8056   7.9713214714e+01   3.2837265123e+01    0.3411101    0.2143046  34.33  0.001174871    1.789    0.441
        65 -13.5919    237.5843     69.4485   5.1905693223e+01   1.6668416174e+01     1.993341     1.321145 -68.50  0.005408084    1.793    0.442
        66  -8.1792    156.4148    103.4835   7.6008650558e+01   2.9993748258e+01    0.1577561    0.1541298 -41.20 9.107405e-05    1.024    0.024
        67  -9.5178    149.6443    100.9603   7.6952685526e+01   3.2098802936e+01    0.3053786    0.2610174  38.70 0.0006204292    1.189    0.159
        68  -9.1097    158.8409    157.1384   8.8563150924e+01   1.8110905337e+01    0.5047565     0.319832 -84.94   0.00168295    3.747    0.733
        69 -10.0883    192.2371    152.3643   8.0154782569e+01   1.2103040926e+01    0.3755859    0.2699889 -69.71  0.001644803    2.161    0.537
        70  -9.1816    135.5471     97.2917   7.9510173885e+01   3.6097389991e+01    0.3054509    0.2564093  78.81  0.000813878    1.437    0.304
        71 -10.6413    160.7015     94.9381   7.2600366971e+01   3.0702047289e+01    0.6682941    0.3410158  40.09  0.002458811    2.161    0.537
        72 -10.3279    168.5716     92.2383   7.0048841997e+01   2.9322656016e+01    0.5212919    0.3077788  38.14   0.00207046    1.900    0.474
        73 -10.5393      4.7052     94.7673   1.1980222880e+02   5.5118097584e+01    0.2909746    0.1395696 -46.46  0.001565485    1.913    0.477
        74  -8.0126    151.6598     93.2709   7.4269386487e+01   3.3197471234e+01    0.1585472     0.127322 -88.00 0.0003437458    1.606    0.377
        75  -9.8836    143.6196     90.6993   7.5511401364e+01   3.5612547365e+01    0.3215082    0.2925676 -51.66 0.0008209997    1.128    0.113
        76  -8.9153    224.9995    205.8227   8.4562753701e+01  -2.9176137081e+00    0.2185065    0.1946971  74.33  0.001338704    1.853    0.460
        77 -10.0585    208.5112     84.9634   6.0238370009e+01   2.0911459216e+01    0.5842398    0.3077498 -60.23  0.001273439    2.884    0.653
        78 -11.2509    159.1992     85.0917   7.0096368734e+01   3.2982908334e+01    0.4292052    0.3179264 -23.40 0.0007771031    1.493    0.330
        79 -10.6809      3.9863     83.3001   1.1835691232e+02   5.7780380272e+01    0.2388564    0.1814938 -51.82  0.000998357    1.158    0.136
        80 -10.3265    110.1916     74.4345   7.9671056463e+01   4.6328757044e+01    0.2699858    0.2428736 -19.71 0.0002875139    1.086    0.079
        81 -10.4487    121.3696     71.4497   7.5466821383e+01   4.4510094571e+01    0.4992163    0.2687679 -52.03  0.001669573    2.259    0.557
        82 -12.1359    198.4365     73.5366   5.8894997902e+01   2.5290465583e+01     1.357188    0.5848695  38.92  0.004337373    3.473    0.712
        83  -9.2502    151.4152     72.1710   6.7989107110e+01   3.7296518813e+01    0.2947983    0.2229276 -61.17 0.0007361218    1.567    0.362
        84  -9.0703      2.3235     68.3365   1.1641965783e+02   6.1211002470e+01    0.1293463   0.06273707 -44.60 0.0007050943    1.715    0.417
        85  -8.4295    213.0289    200.5074   8.5831718499e+01  -1.2566329973e-01    0.1860527    0.1177276  36.75 0.0009808921    1.441    0.306
        86  -9.3574    196.9073     63.2293   5.6303089261e+01   2.7343404648e+01    0.3026825    0.2405408 -83.70 0.0006331663    1.403    0.287
        87  -8.2544     72.7626     58.5521   8.6662360751e+01   5.6354143636e+01    0.1663137    0.1339645  44.22 0.0003029543    1.449    0.310
        88 -10.8080     59.3444    147.6725   1.1181434424e+02   3.7572267369e+01    0.5583717    0.3967978  86.41  0.003032949    1.422    0.297
        89 -10.0094    164.7749     40.4806   5.5177352633e+01   3.8951884561e+01     0.283656    0.2381441 -40.10  0.000708411    1.232    0.188
        90 -11.7202    123.6210     37.7380   6.3104836256e+01   4.9614598366e+01    0.6348079    0.3974242 -41.34  0.002945758    1.740    0.425
        91  -8.6068    183.8672     30.8717   4.9111153170e+01   3.5274059440e+01    0.1994978    0.1912527  12.15 0.0006327006    1.177    0.150
        92  -8.4744    167.0898     30.7016   5.1699036716e+01   3.9631715752e+01    0.1982144    0.1734712  70.24 0.0003602233    1.079    0.073
        93  -9.8229    197.8919     28.3997   4.6475435409e+01   3.1996682226e+01    0.3050477    0.2134492 -29.47  0.001011503    1.512    0.338
        94  -9.8433    192.3619    193.2269   8.8539954207e+01   4.7176089812e+00    0.5238711    0.3239245 -71.49  0.001774853    4.985    0.799
        95 -10.5505    145.0717     26.6957   5.4384793077e+01   4.5767200390e+01    0.4660939    0.2409412 -28.34  0.002017724    2.040    0.510
        96  -8.6027    224.3513     27.9042   4.3249300102e+01   2.5541770847e+01    0.1835095    0.1513034 -38.78  0.000477867    1.223    0.182
        97 -10.3111    244.3482    198.5630   7.9711183012e+01  -5.0092029405e+00    0.2267956    0.1892529   1.82 0.0002682361    1.074    0.069
        98  -8.7568    203.9345    152.5272   7.7796722849e+01   9.6577540696e+00    0.2222235    0.1424225  43.99 0.0006038878    1.571    0.363
        99  -8.8228    216.8864     24.0771   4.3089419216e+01   2.7805143928e+01    0.2757637    0.1774613 -25.96  0.001271613    1.709    0.415
       100  -9.1472    214.0832    195.7380   8.4733667808e+01   4.2233779838e-01    0.1954641    0.1776475 -21.68 0.0002281638    1.234    0.190
       101 -11.8538      3.1939    187.4044   1.2841394381e+02   3.4291311869e+01    0.5508628    0.3472493 -60.26  0.002690998    1.785    0.440
       102 -11.4078      3.1429    181.8711   1.2810234158e+02   3.5462877913e+01    0.3676306    0.2592389 -84.45  0.002032231    1.161    0.138
       103  -8.5298    216.3290     19.0112   4.1869502626e+01   2.8536741445e+01     0.179157    0.1471435 -47.01 0.0003458454    1.183    0.155
       104  -7.6772    166.6594     17.3158   4.7592999837e+01   4.1288373612e+01    0.1484064    0.1009155 -68.30 0.0003337906    1.706    0.414
       105  -8.5009    213.0921     15.4210   4.1294770661e+01   2.9732115481e+01    0.1732874    0.1491628  83.33  0.001044845    1.089    0.081
       106 -10.1746    214.9100    190.7343   8.3615129189e+01   1.0563524705e+00    0.2857697    0.1827384  19.19 0.0008477863    1.654    0.395
       107  -9.6660    209.5110    187.3892   8.4007896750e+01   2.5555012203e+00    0.3459641    0.2698144  89.72  0.001686888    2.488    0.598
       108 -10.0273    182.2473    186.8905   8.9422452874e+01   7.7001349013e+00    0.2424204    0.2277601  42.28 0.0004086105    1.146    0.128
       109  -7.9432    134.6546    186.7756   9.9762988749e+01   1.6656871133e+01     0.135099    0.1058478  17.63  0.000462899    1.543    0.352
       110  -9.0761    220.5215    184.4974   8.1319570954e+01   1.0432215003e+00     0.136467    0.1188356   6.65 0.0004788096    1.024    0.023
       111  -8.7725     67.6349    182.1181   1.1434738840e+02   2.8468323726e+01    0.1715225    0.1438017 -83.86 0.0004490591    1.108    0.097
       112 -11.2372     20.4402    181.5582   1.2457041545e+02   3.4004160955e+01    0.2946407    0.2323324   5.87  0.001956102    2.036    0.509
       113  -9.3185    222.9196    177.9848   7.9554020339e+01   1.6473408862e+00    0.3605916    0.2130856 -50.33  0.001645631    2.326    0.570
       114  -9.5655    228.0142    175.9165   7.8180442943e+01   1.0628515289e+00    0.4080079    0.1781973  54.87  0.001384928    4.231    0.764
       115 -10.2617    236.3776    174.6901   7.6404323412e+01  -2.1968179515e-01    0.3419829    0.2407666  58.07  0.001455852    2.099    0.524
