#   1 NUMBER                 Running object number                                     
#   2 MAG_AUTO               Kron-like elliptical aperture magnitude                    [mag]
#   3 X_IMAGE                Object position along x                                    [pixel]
#   4 Y_IMAGE                Object position along y                                    [pixel]
#   5 X_WORLD                Barycenter position along world x axis                     [deg]
#   6 Y_WORLD                Barycenter position along world y axis                     [deg]
#   7 A_WORLD                Profile RMS along major axis (world units)                 [deg]
#   8 B_WORLD                Profile RMS along minor axis (world units)                 [deg]
#   9 THETA_WORLD            Position angle (CCW/world-x)                               [deg]
#  10 FWHM_WORLD             FWHM assuming a gaussian core                              [deg]
#  11 ELONGATION             A_IMAGE/B_IMAGE                                           
#  12 ELLIPTICITY            1 - B_IMAGE/A_IMAGE                                       
         1 -14.4560    187.9063    102.5718   1.8301440721e+01   2.4006271226e+01     4.704022     1.053836 -38.47   0.01251549    3.908    0.744
         2 -15.2545    242.0810    141.4588   1.8628086754e+01   8.7075825314e+00     2.995598     1.239188 -34.08   0.01502183    1.938    0.484
         3 -14.7336    230.8446     50.4032   4.6744114785e-01   2.3452603251e+01     2.591497     1.306869 -58.07   0.01338024    1.959    0.489
         4 -15.7170    238.9371     83.8502   7.1381854395e+00   1.7471290462e+01     2.644015     1.445924 -32.24   0.01453792    1.523    0.344
         5 -14.5531    245.8221     29.2963   3.5471685272e+02   2.3245436336e+01     3.259402    0.7512074 -54.24   0.01167561    4.462    0.776
         6 -13.7875    248.2864     45.0972   3.5794152697e+02   2.0942684027e+01     1.161729    0.4879515 -30.00   0.00266996    2.086    0.521
         7 -12.5546    188.3102     43.4365   2.8914914024e+00   3.3186702362e+01    0.7202137    0.4239987 -13.17  0.003203725    2.528    0.604
         8 -12.1517    190.9433     34.5884   2.2189646085e-01   3.3743965055e+01    0.6026727    0.3256586 -10.07  0.002433983    3.284    0.696
         9 -12.2953    204.0853     18.8029   3.5498284017e+02   3.2706750011e+01    0.4831882    0.3949955 -60.37  0.003171868    1.031    0.030
        10 -11.6082    250.0667     14.6798   3.5139795895e+02   2.4087583759e+01    0.3231337    0.1582485 -28.83  0.001487332    1.850    0.460
        11 -12.9218    191.4835      9.6648   3.5348953504e+02   3.6461015207e+01    0.8556696     0.306197 -71.10  0.003204938    3.511    0.715
        12 -10.6534    207.7044      1.8265   3.5053225863e+02   3.3687284562e+01    0.2262549    0.2143985  42.24  0.001579334    1.448    0.309
        13 -10.1073    200.2251    230.1689   4.0522054463e+01   1.5572857151e+00    0.1894402    0.1302826  43.46  0.001217702    2.084    0.520
        14 -16.0535    239.9836    105.3095   1.1596696285e+01   1.4239343900e+01      4.57533     1.330861  42.44  0.009428298    5.722    0.825
        15 -11.1875    203.0831    173.7508   3.0800275215e+01   9.3567379801e+00    0.2772605    0.1676842 -50.53  0.001453388    2.093    0.522
        16 -12.2741    185.4867    166.6729   3.2666862751e+01   1.3131847479e+01    0.8416115     0.299263 -33.07  0.003071748    3.335    0.700
        17 -13.0353    193.7065    166.8714   3.1182364839e+01   1.1841827766e+01    0.5979688    0.4372533 -49.19  0.001358284    1.572    0.364
        18 -12.6451    200.8916    164.3925   2.9430537072e+01   1.1170047525e+01    0.5164738    0.3531787 -32.34   0.00277606    1.298    0.230
        19 -11.6505    178.1623    168.7913   3.4477176331e+01   1.3902818305e+01    0.4119825    0.2666937  11.55  0.002076413    1.894    0.472
        20 -11.8175    244.6656    168.4535   2.3306579447e+01   4.6036924935e+00    0.1972898     0.170747 -25.51 0.0007254315    1.293    0.227
        21  -9.6907    190.1863    213.3795   3.9806834244e+01   5.0554638121e+00    0.1533172   0.09817984  35.42 0.0004392607    1.618    0.382
        22  -9.5612    149.3083    168.6883   4.0494627106e+01   1.8551587151e+01    0.1316904    0.1104586  75.98 0.0005515118    1.622    0.384
        23 -10.6742    177.4007    163.9353   3.3699722542e+01   1.4882469483e+01    0.2917155    0.1894407  34.73 0.0009235178    1.575    0.365
        24 -10.3728    215.3819    207.9788   3.4570157521e+01   2.7633492724e+00    0.1789744    0.1452727  29.75 0.0003269396    1.493    0.330
        25 -12.9394    248.1626    158.9219   2.1095432087e+01   5.4638022450e+00    0.4669316    0.2628508 -34.21  0.002049901    1.422    0.297
        26 -10.4348      6.3202    208.3168   8.0650033141e+01   2.8458263103e+01    0.1085376    0.0894189 -42.59 0.0006748556    1.660    0.398
        27 -11.8380    190.6797    153.3458   2.9091389248e+01   1.4602893001e+01    0.5666376     0.419312 -41.91  0.003251857    1.311    0.237
        28 -11.8075    143.6455    143.1128   3.6702403059e+01   2.4747170560e+01    0.5726534    0.3304566 -47.34  0.002556437    1.707    0.414
        29 -11.7475    148.9183    140.8255   3.4993529904e+01   2.4252293729e+01    0.3478696    0.2913446  15.94  0.000932821    1.299    0.230
        30 -12.2024    133.1911    143.7412   3.9346377395e+01   2.6527761970e+01     1.579299    0.3851698 -54.90  0.003490682    7.146    0.860
        31 -13.0736    136.1852    132.1161   3.6067278441e+01   2.8500232850e+01     2.016844    0.5041386 -49.78  0.005590661    4.205    0.762
        32 -13.1154    142.8135    133.1571   3.4710889655e+01   2.7005459245e+01    0.9669973    0.4582986 -48.53  0.002775996    2.086    0.521
        33 -11.9035    134.5840    111.5663   3.1502993020e+01   3.3281747037e+01    0.7918738    0.2446512 -48.31  0.002411745    3.256    0.693
        34 -11.2422    134.8979    104.4801   2.9574097557e+01   3.4731412941e+01    0.4272695     0.347771 -47.97  0.001869307    1.181    0.154
        35 -12.2532    141.9090    122.9594   3.2552346269e+01   2.9347617040e+01    0.4963023    0.3725946 -55.07  0.001165041    1.364    0.267
        36 -10.6898     60.8545    149.3439   6.0898013664e+01   3.7008603743e+01    0.3093493    0.2644076  -7.92  0.001066492    1.440    0.306
        37 -10.3457    214.9792    148.2551   2.3926343438e+01   1.1628974313e+01    0.2180108     0.158065 -50.85 0.0006936202    1.610    0.379
        38 -13.2215    200.7062    103.1217   1.6391512720e+01   2.1430956625e+01    0.8860877    0.3530677  49.31  0.003682795    2.857    0.650
        39 -11.7498     69.3381    145.6738   5.7700398827e+01   3.6786622803e+01    0.4576924    0.3680367  76.91  0.001586836    1.282    0.220
        40 -12.1988     66.3123    143.6655   5.8327659921e+01   3.7736659089e+01    0.5891023    0.3969946 -81.05  0.001956485    1.587    0.370
        41 -10.3977    156.6429    141.9128   3.3506450252e+01   2.2611406055e+01    0.2072428    0.1785447 -43.77 0.0007100377    1.137    0.120
        42  -9.7222    218.0597    140.6949   2.1925379435e+01   1.2344929766e+01     0.164673    0.1462702 -14.78 0.0003620496    1.096    0.087
        43 -10.8968    213.7744    130.4865   2.0472371408e+01   1.4645392659e+01    0.2399489    0.1516786 -36.67 0.0005400001    1.340    0.254
        44 -11.7744    150.6637    130.7368   3.2350519508e+01   2.6003405016e+01    0.3273195    0.2113678  37.34  0.001519306    1.647    0.393
        45 -12.9775     45.0261    126.4690   6.2758092549e+01   4.5097154329e+01    0.6854945    0.5151686 -52.90  0.001612551    1.357    0.263
        46 -13.6583     37.4274    125.0947   6.5275752926e+01   4.6331996597e+01     1.021128    0.8489606 -28.60  0.003733766    1.425    0.298
        47 -14.2442    234.1076     97.8784   1.0712194170e+01   1.6277859910e+01    0.5623413     0.448835 -80.88  0.001938371    1.625    0.385
        48 -11.0235    218.7961    126.5309   1.8883008570e+01   1.4454428719e+01    0.2638428    0.1884649 -80.69   0.00128146    2.581    0.613
        49 -11.7604    153.4819    126.2741   3.0688915395e+01   2.6369756094e+01    0.3388949     0.199874  33.79  0.001213177    1.963    0.491
        50 -12.9312     29.3568    126.3369   6.8347597986e+01   4.6815954016e+01     0.530019    0.3695568  22.84  0.001475042    1.564    0.360
        51 -10.9533    151.0193    122.4963   3.0343730398e+01   2.7627518859e+01    0.2236676    0.1469208  42.80  0.001033397    1.600    0.375
        52 -11.7073    156.1687    118.8674   2.8339290035e+01   2.7333557832e+01    0.2339248    0.2068566 -71.48  0.001259201    1.252    0.201
        53 -11.6783    236.0305    185.8722   2.7624713288e+01   3.2987148110e+00    0.2962177    0.2027618 -27.46  0.002023797    1.216    0.178
        54 -10.0031    116.8139    113.8515   3.6736577910e+01   3.6424459380e+01    0.2140017    0.1836023  84.97 0.0005037949    1.313    0.239
        55 -11.4083    150.4283    109.6443   2.7303721926e+01   3.0369837427e+01    0.3086216    0.2760243  25.45 0.0007978721    1.237    0.192
        56 -12.8624    179.1697    105.9524   2.0637101859e+01   2.5153613120e+01    0.5500452    0.4676513  29.59  0.002621941    1.351    0.260
        57 -13.2523    179.3438     96.3484   1.8214660955e+01   2.6832022551e+01    0.4574514     0.351662 -28.21  0.001443516    1.312    0.238
        58 -12.0505    161.3046    108.1983   2.4621565543e+01   2.8388881686e+01    0.5220004    0.2453376  48.81  0.002093433    2.280    0.561
        59 -11.4959    126.5711    106.1313   3.2115412502e+01   3.6145854355e+01    0.4748906    0.3169465 -66.56  0.002013903    1.861    0.463
        60 -11.1687    121.4676    103.0966   3.2650200929e+01   3.7895875657e+01    0.2576165    0.2211233  83.34 0.0008336614    1.303    0.233
        61  -9.6109    107.5217    107.5251   3.7762390123e+01   3.9770996084e+01    0.1551054    0.1503861 -72.57 0.0001516865    1.002    0.002
        62 -10.5088    112.8426    105.4527   3.5672897097e+01   3.9168132071e+01    0.2700406    0.1871841 -43.67 0.0009985344    1.441    0.306
        63 -12.5126    160.6729    101.3316   2.2992882859e+01   2.9844321456e+01    0.3195528     0.262521 -35.07 0.0004185934    1.180    0.152
        64 -11.1476    144.2281    101.3039   2.6518556266e+01   3.3383004168e+01    0.3071918    0.2545499  79.04  0.000780004    1.394    0.283
        65 -10.0093    207.5455     96.6364   1.3869039325e+01   2.1193305126e+01    0.1915141    0.1499939 -74.13 0.0005619437    1.548    0.354
        66 -10.3017    196.1653     97.3696   1.5720616882e+01   2.3261403157e+01     0.178874    0.1668117 -60.99  0.000672715    1.122    0.108
        67  -9.9177    113.4843     94.9446   3.2582955478e+01   4.1413988853e+01    0.2357798     0.150788 -45.54 0.0005781809    1.531    0.347
        68  -9.7358    156.6615     97.1739   2.2717619884e+01   3.1503465716e+01    0.2111386     0.132725 -33.18 0.0005618514    1.639    0.390
        69 -10.1944    157.5069     88.4895   2.0194207895e+01   3.2961305067e+01    0.2835552    0.1390531 -39.30 0.0005875137    1.915    0.478
        70  -9.2449    209.4474     81.4888   1.0030672541e+01   2.3197508148e+01    0.1341181    0.1124544 -42.55 6.973567e-05    1.015    0.015
        71  -9.9703    213.7790     74.5747   7.8460298461e+00   2.3392407601e+01    0.2114566    0.1519894 -31.61  0.000622315    1.278    0.218
        72  -9.3859    164.2157    203.0237   4.3177124810e+01   1.0073081883e+01    0.1528199   0.09732408 -40.90 0.0003981857    1.628    0.386
        73 -11.2520    193.0678     71.5256   9.7299116019e+00   2.8064591158e+01    0.3000241    0.2778378 -24.36  0.001191613    1.194    0.163
        74  -9.2404    149.3156     73.6676   1.7589556503e+01   3.7545182152e+01    0.1579515    0.1105608 -69.43 0.0005514571    1.685    0.407
        75  -9.3335    204.7391     72.3204   8.4026141841e+00   2.5523268713e+01    0.1374068   0.08711641 -56.09 0.0003102495    1.549    0.354
        76 -11.4092    177.2469     69.5940   1.1511463524e+01   3.1817318050e+01    0.3885707     0.210548 -43.86  0.001765081    1.642    0.391
        77 -11.3972    213.0750     64.4465   5.4983651261e+00   2.4999547201e+01    0.2403729    0.1934347 -55.29 0.0003907206    1.103    0.093
        78 -11.1519    206.8157     64.1414   6.1332342550e+00   2.6305993554e+01    0.3112357    0.2278357 -15.23 0.0004069139    1.679    0.404
        79 -11.0841    207.6679     60.6576   5.1748971967e+00   2.6630635004e+01    0.3333975    0.1962415 -19.15  0.001292653    2.167    0.539
        80 -10.0335    199.5206     64.6067   7.1228317062e+00   2.7749261994e+01    0.2563816    0.1163506 -35.43 0.0008084016    1.904    0.475
        81  -9.9488    217.9174     63.7054   4.7963289289e+00   2.4149035158e+01    0.1693798    0.1466619 -60.84 0.0003551501    1.115    0.103
        82  -9.7434    151.5104     63.5494   1.4115888043e+01   3.8778375471e+01    0.1502117    0.1337559 -66.12 2.758152e-05    1.060    0.057
        83 -10.5505    215.6028     51.9079   2.2071373625e+00   2.6225499310e+01    0.3698334     0.145495 -28.66  0.001485024    2.538    0.606
        84 -10.9704    152.8752     51.3489   1.0101750547e+01   4.0402248013e+01    0.2599198    0.1809469 -47.95 0.0004131279    1.342    0.255
        85 -10.1521    140.8081     51.2201   1.2217099316e+01   4.3384830126e+01    0.1958643    0.1757858  31.43 0.0007624325    1.318    0.241
        86 -11.9121    192.2445    194.4144   3.6376894550e+01   7.6303892313e+00    0.7786367     0.412126 -59.73  0.002814949    5.516    0.819
        87 -11.7711    223.4785    193.6804   3.0902087542e+01   3.7451591368e+00    0.3830431    0.3097728  76.93  0.002220005    3.184    0.686
        88 -11.5233    193.2798     29.3479   3.5859598939e+02   3.3865003121e+01    0.2179854    0.2010611  82.22 0.0007716842    1.227    0.185
        89 -11.1671    167.0253     43.6863   5.6051672376e+00   3.8100323342e+01    0.3481533    0.2079786 -25.02 0.0009688379    1.858    0.462
        90 -10.8561    154.1856     42.7900   7.1970646084e+00   4.1341818194e+01     0.263988     0.126947 -63.65 0.0009557852    2.863    0.651
        91  -9.9412    209.2991     38.1187   3.5941443135e+02   2.9311768156e+01    0.1828616    0.1352923 -44.37 0.0004029249    1.124    0.110
        92  -9.7199    143.3035     37.6906   7.2668183787e+00   4.4758395905e+01    0.1516536    0.1001201 -64.75 0.0002380779    1.607    0.378
        93 -10.2338    180.0808     38.3499   2.4188110531e+00   3.5743350747e+01    0.2113823    0.1730966 -29.73 0.0006276775    1.287    0.223
        94 -14.8333    219.5889    100.9478   1.3206111417e+01   1.8317320341e+01     1.636623     1.255697  -4.88  0.009593179    1.605    0.377
        95 -10.0434    184.8940     28.4387   3.5913823643e+02   3.5876882019e+01    0.2222247    0.1555646  26.98 0.0008188028    2.228    0.551
        96  -9.9705    220.1569     23.0766   3.5492503074e+02   2.8866346674e+01    0.1677767    0.1510716 -44.80 0.0004435112    1.222    0.182
        97 -10.2592    239.7903    190.8362   2.7906892141e+01   2.2036936878e+00    0.1385701     0.113931 -24.23 0.0003618088    1.301    0.231
        98 -11.0591    219.7500     17.8318   3.5371053461e+02   2.9531830093e+01    0.3081952    0.1776543  73.16  0.001266898    1.883    0.469
        99 -14.4345    222.0451    175.0166   2.7876315650e+01   6.5672851934e+00     2.411979     1.312189  -7.67   0.01159044    2.621    0.618
       100 -10.1894    212.9812     15.7294   3.5362667087e+02   3.1153944883e+01    0.2865622    0.1340313  74.38  0.001473381    2.234    0.552
       101 -10.0982    189.4921     15.0792   3.5508499004e+02   3.6345070555e+01    0.1920198    0.1137784 -32.76  0.001024437    1.565    0.361
       102 -11.6038    248.5326    249.0239   3.5485078896e+01  -5.4421271193e+00    0.1808624    0.1543905  33.72  0.001500864    2.287    0.563
