#   1 NUMBER                 Running object number                                     
#   2 MAG_AUTO               Kron-like elliptical aperture magnitude                    [mag]
#   3 X_IMAGE                Object position along x                                    [pixel]
#   4 Y_IMAGE                Object position along y                                    [pixel]
#   5 X_WORLD                Barycenter position along world x axis                     [deg]
#   6 Y_WORLD                Barycenter position along world y axis                     [deg]
#   7 A_WORLD                Profile RMS along major axis (world units)                 [deg]
#   8 B_WORLD                Profile RMS along minor axis (world units)                 [deg]
#   9 THETA_WORLD            Position angle (CCW/world-x)                               [deg]
#  10 FWHM_WORLD             FWHM assuming a gaussian core                              [deg]
#  11 ELONGATION             A_IMAGE/B_IMAGE                                           
#  12 ELLIPTICITY            1 - B_IMAGE/A_IMAGE                                       
         1 -12.6451    176.3764     40.4089   8.4604283420e+00   3.5577589953e+01     1.348734    0.9292498  28.86  0.004112611    2.270    0.560
         2 -13.4948    210.1443     47.4189   6.7184210394e+00   2.7601414216e+01      2.12161     1.017989 -82.11  0.009377494    3.172    0.685
         3 -14.0844    196.7728     81.1020   1.6077255991e+01   2.5543545130e+01     2.267557     1.366603 -19.01   0.01092132    2.195    0.544
         4 -13.0762    188.3143     35.1394   5.8262470616e+00   3.3607789545e+01     1.443385    0.9705012  66.55  0.008403897    1.572    0.364
         5 -12.8618    161.4936     38.7955   9.8459171677e+00   3.9209489526e+01    0.8834305    0.7094679 -33.06  0.003546563    1.307    0.235
         6 -12.5989     65.0399      4.5252   1.5565955051e+01   6.7363100617e+01    0.6077421     0.382612 -11.10 0.0003105401    1.945    0.486
         7 -12.0222     48.3466     31.6822   3.7760844485e+01   6.7364386303e+01     1.551048     1.091062  47.77  0.007944736    1.408    0.290
         8 -14.5674     10.1559     68.1988   7.3565205130e+01   6.3892219888e+01     2.997522     1.739941   8.87   0.01413826    1.814    0.449
         9 -14.3165     10.1054     37.4346   6.5728729704e+01   7.1523870775e+01     2.059382     1.356228 -55.02  0.007065528    1.428    0.300
        10 -12.3937     26.5098     39.3750   5.4628866002e+01   6.9389481810e+01     1.645877    0.7751526 -46.06  0.007132227    2.063    0.515
        11 -12.9312     58.5499     27.2789   3.0532623112e+01   6.5996553978e+01     2.115931     1.392186 -75.14  0.008643482    2.976    0.664
        12 -13.1701     55.4219     59.2122   4.6141043166e+01   6.0542364843e+01     1.550316      1.15569  70.82  0.007207737    1.841    0.457
        13 -10.8208     31.5993     20.1472   4.1447794663e+01   7.2414914260e+01    0.7594182     0.650466 -61.34  0.004463648    1.524    0.344
        14 -11.6873     43.3215     21.9502   3.5264460489e+01   6.9981198664e+01    0.6541916    0.4432283  62.55   0.00318324    1.952    0.488
        15 -13.4464     40.5879     56.1340   5.2612411490e+01   6.3680473170e+01     1.604572     1.210969  -9.35  0.005474107    1.526    0.345
        16 -13.3277     74.9775     20.7632   2.0906016678e+01   6.3122125390e+01     1.926401     1.139801  74.17  0.008531419    2.019    0.505
        17  -6.6068    211.2668     21.3169   6.5719528753e-01   3.0440745158e+01    0.7014455    0.4010897 -47.06   0.00263399    1.379    0.275
        18 -12.1662    220.0839     27.7170   1.5009913864e+00   2.8027783208e+01    0.6739698    0.3827682  43.71  0.003607936    2.875    0.652
        19 -12.6342    226.8318     22.7414   3.5999897727e+02   2.7310470135e+01     0.435095    0.2526574  79.25  0.001197263    1.855    0.461
        20 -11.2436    123.2577     24.0789   1.0849964341e+01   5.0487426182e+01    0.4522026     0.297676 -17.93  0.001616252    1.881    0.468
        21 -10.3712    109.2632     11.1523   8.3743098140e+00   5.5488743636e+01    0.3283219    0.2463444  57.59 0.0008999012    1.266    0.210
        22 -11.0678    116.4781     17.5481   9.6117521117e+00   5.2965006479e+01    0.3560577    0.2742056  57.53  0.001965894    1.260    0.206
        23 -11.0649    114.9182     12.7310   8.0465578532e+00   5.3870093490e+01    0.2869464    0.2084434 -81.01 0.0006545344    1.360    0.264
        24 -12.1153    115.0705      7.5216   6.0332990747e+00   5.4332594295e+01    0.9276559    0.4087907 -59.76  0.003652417    2.809    0.644
        25 -12.3375    221.5492      9.4799   3.5744460446e+02   2.9676991342e+01    0.6331643     0.182013 -40.64  0.003094113    2.316    0.568
        26 -13.7414    243.7486      8.6041   3.5626250830e+02   2.5751679898e+01    0.9875848    0.4342797 -80.22  0.005732055    2.397    0.583
        27  -9.3210    186.9893     14.5379   7.2226176476e-01   3.6218695124e+01    0.2380479    0.1492884  -9.28  0.001246243    2.357    0.576
        28 -11.2375    150.2501     13.1329   3.5644797480e+00   4.4897281027e+01    0.2529018    0.2009401 -33.76   0.00099035    1.341    0.254
        29 -10.0823    161.3448     12.6585   2.3293493400e+00   4.2267979715e+01    0.2791517    0.1679582  37.45  0.001075305    2.470    0.595
        30 -10.2651     13.8168     12.4258   5.0730031384e+01   7.6409636741e+01     0.197082    0.1736839 -62.03 0.0007127889    1.476    0.323
        31 -10.1242    125.0754      9.6332   5.3999918908e+00   5.1560755636e+01     0.366877    0.1512928 -35.82  0.001582419    2.338    0.572
        32  -9.7524     88.5524     12.1505   1.2983287315e+01   6.0725044772e+01    0.1830446    0.1394114 -25.37 0.0006948781    1.486    0.327
        33 -10.7162    102.0615     10.1369   9.2489237216e+00   5.7451464401e+01    0.2358144     0.195074  72.64 0.0007361822    1.064    0.060
        34 -11.6624    174.0000      2.9852   3.5863563420e+02   4.0255842652e+01     0.253136    0.1483146 -31.33  0.001415411    1.686    0.407
        35 -10.4764     72.4116      4.2474   1.3212678075e+01   6.5572824815e+01    0.4425202    0.2024283 -23.25  0.001945168    2.483    0.597
        36 -10.2655     84.0204      7.4055   1.1828852592e+01   6.2351521768e+01    0.4310875    0.1953953  47.25  0.001735606    2.133    0.531
        37 -10.2750     78.3645      9.8837   1.4486072043e+01   6.3536595988e+01    0.2891678    0.1637213  59.27 0.0005168009    1.516    0.341
        38 -11.8460     76.7816      5.5086   1.2693940921e+01   6.4361961692e+01    0.4844258    0.2771651  21.90  0.002155063    2.450    0.592
        39 -10.7436     26.1615      9.8661   3.8705964124e+01   7.5016876851e+01    0.2702368    0.1881304   4.84  0.001030093    1.650    0.394
        40 -11.8600    193.8663      7.9886   3.5863227888e+02   3.5397932510e+01    0.2534903    0.2203669 -78.28  0.001278463    1.154    0.133
        41 -10.8104     45.6382      5.9223   2.4114419261e+01   7.1721451084e+01    0.4128419    0.3658699  74.65  0.001307594    1.306    0.234
        42 -10.8808     46.5531      2.1993   2.1191194395e+01   7.1928701496e+01    0.2410046    0.1573776  39.12  0.001040504    1.404    0.288
        43  -9.8098    215.5416      8.4060   3.5751317683e+02   3.0939186365e+01    0.1164554   0.08622503 -58.94 8.280065e-05    1.038    0.036
        44  -9.3524    156.3575      7.9891   1.4209133877e+00   4.3921423275e+01    0.1679852    0.1511542 -78.41   0.00076921    1.099    0.090
        45  -8.9406    131.4364      8.4639   4.1770206767e+00   5.0050214770e+01    0.1329777    0.1174144  82.04 0.0001975577    1.078    0.073
        46  -9.9641    142.8448      6.8711   2.3747216180e+00   4.7333403638e+01    0.1758445    0.1539518  89.94 0.0003072288    1.070    0.065
        47 -10.1148    210.6584      6.0360   3.5723428405e+02   3.2133385946e+01    0.1595862    0.1143585 -44.46 0.0005773919    1.186    0.157
        48 -11.0743    216.8965      2.1901   3.5608409285e+02   3.1279234855e+01     0.422318    0.1727116  76.60  0.002274175    2.473    0.596
        49 -12.6862    173.0158      6.6968   3.5970225600e+02   4.0131145405e+01    0.3233924    0.2254191 -48.13 0.0004603253    1.262    0.208
        50 -11.3058      4.1836      5.4082   5.5886305967e+01   7.8781206420e+01    0.3894646    0.2066061  -2.32 0.0009794214    2.288    0.563
        51 -11.1960    183.7220      3.4439   3.5812658382e+02   3.8033170344e+01    0.2294247     0.177238 -44.70 0.0009848736    1.205    0.170
        52 -11.1029     56.6917      3.1462   1.7631653778e+01   6.9499076022e+01    0.4101124    0.3029197  57.95  0.002321222    1.189    0.159
        53 -12.4747    227.9945      9.7266   3.5718461964e+02   2.8446144457e+01     0.436914    0.1565251 -40.09 0.0004438818    1.964    0.491
        54  -9.3577    127.5166      2.5576   2.5895687989e+00   5.1578212765e+01    0.1360786    0.1121856 -80.59 8.319857e-06    1.067    0.063
        55 -11.1641     87.7226      1.2540   8.0861727700e+00   6.1948312744e+01    0.3478737    0.1024407  69.88 0.0009891923    2.920    0.657
        56 -11.0015     36.6969    248.9892   8.1006083680e+01   1.7025895112e+01    0.1661369    0.1360943  43.62  0.001184687    1.095    0.087
        57 -10.7971    181.0436    243.7365   4.9386692767e+01   2.2633900975e+00    0.1694536    0.1579547  15.60  0.001325892    1.613    0.380
        58 -11.3576    247.7945     42.4684   2.7455612162e+00   2.1453126071e+01    0.5884942    0.2506733 -43.41   0.00063352    1.682    0.405
        59 -12.3845    234.2544     37.1678   2.5669572602e+00   2.4363635594e+01    0.5212077    0.2359514 -63.85  0.001723067    2.375    0.579
        60 -13.0120    174.3466     87.2185   2.0927227372e+01   2.9070380204e+01     1.052687    0.6301619  27.87  0.004451745    2.788    0.641
        61  -9.6854    218.5991    239.7388   4.2264769440e+01  -9.4402359840e-01    0.1273221    0.0868752 -31.26 0.0009371522    1.564    0.361
        62 -13.0458    192.0775     45.4788   8.0334078368e+00   3.1509035009e+01     1.169614    0.6292117  89.65  0.003684998    2.308    0.567
        63 -10.2457     15.9138    238.8033   8.5292011412e+01   2.0807324944e+01     0.164073    0.1497467  16.17 0.0006554849    1.285    0.222
        64 -14.3332    209.9565     68.2714   1.1500708481e+01   2.4878343567e+01     1.888983    0.8071748  67.93  0.005854672    2.935    0.659
        65 -11.8954    209.1453     58.2923   9.3107857180e+00   2.6386499276e+01    0.4597037    0.3311007 -66.21  0.001640312    1.369    0.269
        66 -13.6169    243.7640     60.1484   6.5686716686e+00   2.0009575951e+01      0.94469     0.683547  55.46  0.002176935    1.795    0.443
        67 -11.0177    245.0869     49.9580   4.4225720497e+00   2.1024584218e+01    0.2294771    0.1681228  71.81 0.0002946623    1.659    0.397
        68 -13.1865    177.9392     73.2485   1.6833519554e+01   3.0561272549e+01     1.472358     0.866382 -75.62  0.006332058    2.620    0.618
        69 -13.3420    218.5855     58.0201   8.3162006022e+00   2.4644283002e+01     1.253871    0.6362696 -70.40  0.005674595    2.770    0.639
        70  -9.7949    236.7291    146.0064   2.4135800693e+01   9.4516041718e+00    0.1607289    0.1176892 -26.60 0.0003727417    1.065    0.061
        71 -12.6250    221.4893     39.0554   3.8886866413e+00   2.6459307282e+01    0.7210428    0.3595825 -69.10  0.001107208    2.279    0.561
        72 -12.1867    238.5547     51.4570   5.2111083808e+00   2.1935022407e+01    0.3818743     0.210192 -49.26   0.00103211    1.450    0.310
        73 -12.6189    230.6120     46.9537   4.8856308535e+00   2.3855043363e+01    0.6823292    0.5825623  51.28  0.004981109    1.555    0.357
        74 -13.4784     61.8501     92.5152   5.3720413871e+01   5.1482628903e+01    0.8530023    0.5692162 -82.83  0.003534213    2.059    0.514
        75 -10.4839     70.2380     87.8212   4.9021304576e+01   5.1196788337e+01    0.4717501    0.2697611  51.70  0.001692245    1.988    0.497
        76 -12.3792     67.1781     82.5484   4.8710576806e+01   5.3025707035e+01    0.6385526    0.4792999 -72.26  0.001697826    1.580    0.367
        77 -11.9904     63.4430     80.4932   4.9652221383e+01   5.4187288130e+01    0.3635314    0.2864969 -55.78  0.000777306    1.303    0.232
        78 -10.0609    157.7222     95.4288   2.6037484981e+01   3.1124417675e+01    0.2597267    0.1420307  56.35  0.001123036    2.014    0.504
        79 -12.6868     47.2383     93.5709   6.0251049563e+01   5.3417272583e+01    0.6513122     0.313137  36.06  0.002552155    2.007    0.502
        80 -12.2012    213.0944     84.0765   1.4672637955e+01   2.2066755126e+01    0.3424249     0.234299  37.42  0.001760895    1.942    0.485
        81 -11.5093    219.0427     83.0599   1.3750542375e+01   2.1161047200e+01    0.2540732    0.1988115 -59.04 0.0005879849    1.268    0.212
        82 -10.9446    226.8051     91.8778   1.4732927318e+01   1.8603568618e+01    0.2552088    0.1896075 -87.18 0.0009314554    1.824    0.452
        83 -11.9810    223.8743     87.4845   1.4144777537e+01   1.9708950460e+01    0.3687295    0.2796222 -19.67  0.001414949    1.417    0.294
        84 -12.1246    214.7561     90.9396   1.5970283946e+01   2.0777034084e+01    0.3537834    0.2848468 -70.56  0.001025939    1.415    0.293
        85 -11.7317    206.8236     89.4130   1.6645107024e+01   2.2412745954e+01    0.2821704    0.1887413 -46.06 0.0002345261    1.310    0.237
        86  -9.8517     79.2883     91.1302   4.6498575028e+01   4.8710791867e+01    0.2227615    0.2056032  -8.37  0.001140644    1.172    0.147
        87 -13.0000    111.7725     87.4756   3.4790709037e+01   4.2751222254e+01    0.7421039      0.54735 -32.55   0.00273688    1.501    0.334
        88 -11.4549     51.7825     87.1642   5.6631652038e+01   5.4429108894e+01     0.345854    0.2174518 -30.78  0.001252279    1.968    0.492
        89 -12.1575     48.0525     85.6174   5.7912695742e+01   5.5372760667e+01    0.4826487    0.3291371  84.23 0.0007756274    2.038    0.509
        90 -11.2902     43.0040     86.2386   6.0408621099e+01   5.5908878303e+01    0.3191055    0.2272121  16.37  0.001495129    1.498    0.332
        91 -10.2081    248.0484     87.4564   1.1611891861e+01   1.5869134788e+01    0.1665113    0.1177687 -37.44 0.0002851659    1.082    0.076
        92 -10.8307    248.9201     83.4107   1.0738702725e+01   1.6262838666e+01    0.2958153    0.1717675 -51.95  0.001112863    1.611    0.379
        93  -9.7760    244.8390     80.6535   1.0575907967e+01   1.7242413432e+01    0.1898358    0.0970557  50.07   0.00109193    2.553    0.608
        94 -11.7961    236.4472     86.1447   1.2504314874e+01   1.7833410088e+01    0.4444992     0.268822  81.00  0.002058002    2.581    0.613
        95  -9.8696     30.3720     86.7413   6.6572363986e+01   5.7279137826e+01    0.2410001    0.1616855  61.42  0.001086959    1.774    0.436
        96 -13.0016    207.0717     79.2263   1.4321866136e+01   2.3866725432e+01    0.8181699    0.2463617  58.07  0.003239561    3.755    0.734
        97 -11.5729    147.5235     84.5193   2.5210403317e+01   3.5312922759e+01    0.3799385     0.328088  61.85  0.001110218    1.191    0.160
        98 -12.4950    147.4568     79.4373   2.3818002502e+01   3.6235527142e+01    0.4293625    0.3175428 -59.02 0.0008199307    1.420    0.296
        99 -12.0729    164.4354     65.4743   1.6881814089e+01   3.4715029167e+01    0.8271853    0.4903074  52.72  0.003988171    1.794    0.443
       100 -11.6364    162.6625     83.7120   2.2061270096e+01   3.2130866526e+01    0.4946504    0.3977087  65.99  0.002140073    1.329    0.248
       101 -12.1901    169.1384     80.7205   2.0150640191e+01   3.1240338398e+01    0.4303976    0.3141844 -66.20 0.0009207701    1.527    0.345
       102 -10.9775    169.2128     76.4286   1.9023838165e+01   3.1924865553e+01    0.4583767    0.2687423  73.96  0.001883092    2.203    0.546
       103 -10.1451    100.1734     54.5364   2.7346225851e+01   5.1833487231e+01     1.441039    0.6905224  38.69  0.005221129    2.611    0.617
       104  -9.8540    147.8643    128.8826   3.6270774582e+01   2.6680328271e+01    0.2085428    0.1858003 -10.93 0.0002604611    1.144    0.126
       105  -9.7176    221.7099    121.7379   2.1505463535e+01   1.5079505286e+01    0.1632296    0.1063068  65.00 0.0009019729    2.379    0.580
       106  -9.5954     73.1432    119.1215   5.5735846192e+01   4.2801695085e+01    0.2088406    0.1756402  63.66  0.001019171    1.277    0.217
       107 -12.6931      4.0122     56.8958   7.5126274812e+01   6.7149084398e+01    0.8353608    0.5616222 -38.47  0.004409997    1.386    0.278
       108  -9.3361    249.5956    117.4971   1.7220399370e+01   1.1661932983e+01    0.1141097   0.08509757 -31.73 0.0001221658    1.022    0.022
       109 -11.0396    127.6231    115.8314   3.8107641283e+01   3.3351157916e+01    0.2566659    0.1753803  46.92 0.0008019241    1.488    0.328
       110 -13.1707     62.0065     44.5233   3.7148731997e+01   6.2286295690e+01    0.8990882    0.6202804 -88.67  0.001690809    2.718    0.632
       111 -10.3495    182.6086    115.2449   2.6171870112e+01   2.2698215244e+01    0.2301868    0.1867867  47.88 0.0005751785    1.370    0.270
       112 -11.1150     65.4979    114.5296   5.7541617703e+01   4.5214411800e+01    0.2756535    0.2691664 -86.38 0.0007832001    1.034    0.033
       113 -11.2416    174.6437    111.8699   2.6825403511e+01   2.4776122346e+01    0.3148266    0.2290416  25.63  0.000440984    1.680    0.405
       114 -11.7157    133.5383    112.4874   3.5777648170e+01   3.2855073945e+01    0.4011664    0.2509001 -23.69 0.0008843851    2.199    0.545
       115 -10.1634    210.1337    111.9765   2.1105407117e+01   1.8404887755e+01    0.1898911    0.1744717  50.89 0.0007832107    1.300    0.231
       116 -14.4886     77.1036     59.0258   3.6767981369e+01   5.6274292018e+01     1.304694    0.5653729  48.39  0.003164366    2.262    0.558
       117 -13.4625     78.5741     49.3852   3.2456912372e+01   5.7801283228e+01     0.999141    0.6410215  36.75  0.002050712    1.641    0.391
       118 -13.2264     79.2294     41.4315   2.8919891568e+01   5.9046695435e+01     1.150812    0.3939976  44.70  0.003836231    2.921    0.658
       119 -10.7179    196.0222    107.5396   2.2234916066e+01   2.1545676446e+01    0.3547024    0.2020171 -37.32  0.001808627    1.537    0.349
       120 -11.6709    230.4781     78.3924   1.1519845999e+01   1.9851522522e+01    0.3798278    0.2821465 -76.38   0.00249146    1.600    0.375
       121 -10.7868    231.9992     73.9848   1.0448118932e+01   2.0185621240e+01    0.1812249    0.1435544 -38.87  0.000449485    1.068    0.064
       122 -10.7352     82.3173     78.9536   4.1706905425e+01   5.0932074411e+01     0.701679    0.2704051  45.21  0.001895056    2.558    0.609
       123 -10.9702     86.7943     75.9579   3.9133743106e+01   5.0656965069e+01      0.50177    0.2899143 -55.98 0.0007469502    1.969    0.492
       124 -12.0459     82.1571     71.8461   3.9436924858e+01   5.2527129228e+01    0.4705514    0.4163678 -20.46 0.0005791811    1.251    0.201
       125 -11.9214     72.7993     74.7975   4.4001649499e+01   5.3779420312e+01    0.7030412    0.3784182  54.17  0.002669521    2.239    0.553
       126 -10.0870     70.7297     71.3526   4.3691821380e+01   5.4961939129e+01    0.2358528     0.201115  53.73 0.0004235556    1.203    0.169
       127 -10.1462    155.6793     76.8576   2.1507581385e+01   3.4832401253e+01     0.271726    0.2043998  67.71   0.00107992    1.415    0.293
       128 -10.4643    249.6516     67.7201   7.5971854988e+00   1.8137085257e+01     0.251345    0.1501944 -27.71 0.0007753154    1.578    0.366
       129 -10.9958    250.4691     73.7879   8.7185233315e+00   1.7253355784e+01    0.3243453    0.1664607 -36.37  0.001508034    1.476    0.323
       130 -11.3762     11.5737     98.0066   7.7430458510e+01   5.5792769925e+01     0.316467    0.2561055 -81.98 0.0008832564    1.188    0.158
       131 -10.6562     66.2383     70.0151   4.5107242952e+01   5.6128760565e+01    0.5510503    0.3224989  59.73  0.002086314    2.386    0.581
       132 -12.6557     50.3866     46.7329   4.3680356949e+01   6.4105818770e+01      1.05091    0.6898834 -14.11  0.004332326    2.228    0.551
       133 -12.2847    151.4428     41.3698   1.2010120653e+01   4.1264014715e+01    0.8446912    0.4438052  79.27  0.002872508    2.156    0.536
       134 -11.8170     91.7621     66.3468   3.4192005509e+01   5.1572112671e+01    0.4330333    0.2974621  24.00  0.001855058    1.929    0.482
       135 -10.9318    127.6760     58.6016   2.1759708409e+01   4.4465133383e+01    0.4576699    0.2714717  40.01  0.001779978    2.031    0.508
       136 -11.2541    160.8176     50.4656   1.3269050314e+01   3.7778858966e+01     0.445697     0.340257  16.32  0.001517569    1.933    0.483
       137 -11.2433    162.8555     56.8029   1.4742967376e+01   3.6388246596e+01    0.3996664    0.3780901 -56.83   0.00142174    1.088    0.081
       138 -10.8523    165.9296     52.1228   1.2990170452e+01   3.6363119383e+01     0.379399    0.2040477  48.52  0.001002076    2.167    0.539
       139 -11.8356    174.3121     56.2163   1.2927831766e+01   3.3891071372e+01    0.3638301    0.3114807  66.19 0.0007152281    1.243    0.195
       140 -11.4496     91.6204     34.1608   2.1865512677e+01   5.7205268855e+01    0.6181359    0.3607075  37.24  0.002656604    2.025    0.506
       141  -9.9584    149.6911     48.6754   1.4474592363e+01   4.0665374071e+01    0.2215494     0.142602 -20.39   0.00102864    1.964    0.491
       142 -10.3893    143.2780     54.3194   1.7285705374e+01   4.1368465870e+01     0.248491    0.2375977  45.48 0.0005559945    1.176    0.150
       143 -10.4712    146.2753     52.3546   1.6156161516e+01   4.0945072598e+01    0.2583034    0.2108794  36.75 0.0007406891    1.473    0.321
       144 -10.0669    123.7110     53.9218   2.1108639837e+01   4.6198597545e+01    0.3048537    0.1763588  60.34  0.001339414    1.681    0.405
       145 -10.7753    131.6521     51.8492   1.8740645752e+01   4.4576154626e+01    0.3002113    0.2021339 -63.53  0.001404875    1.668    0.400
       146  -9.3959     90.2941     51.6786   2.9311475482e+01   5.4686366463e+01    0.1505531    0.1172271 -81.38 0.0007016514    1.613    0.380
       147 -11.1144    133.0469     46.4453   1.6713728708e+01   4.5048862457e+01    0.8443727     0.370551  69.44  0.003179909    2.553    0.608
       148 -10.3706    136.2699     43.4495   1.5146016346e+01   4.4685079728e+01    0.3096987    0.2233277  82.61  0.001570163    1.418    0.295
       149 -11.1420    133.1913     39.9922   1.4572141840e+01   4.5934690937e+01     0.352158    0.2662975  79.22 0.0008478253    1.287    0.223
       150  -9.3566     94.3487     47.7245   2.6519305407e+01   5.4406540115e+01    0.1511761    0.1149729 -87.89 0.0007003939    1.634    0.388
       151  -9.8571    121.8512     45.6355   1.8712102847e+01   4.7951918711e+01    0.2060856    0.1743338  72.53 0.0005376697    1.122    0.109
       152 -11.0411     98.3943     42.8274   2.3441121859e+01   5.4219610723e+01    0.3701859    0.2722775  46.27  0.001015028    1.342    0.255
       153 -10.0225     93.9886     42.4937   2.4575570578e+01   5.5351833075e+01    0.2676905    0.2127575  -0.81 0.0008600843    1.634    0.388
       154  -9.3393    104.9402     43.0000   2.1748213935e+01   5.2573153223e+01    0.2443873   0.07970333  58.17 0.0007938866    2.884    0.653
       155 -10.4643    131.9836     33.4729   1.2614353544e+01   4.7111283262e+01     0.270011    0.1694049 -49.71   0.00064246    1.593    0.372
       156 -11.8444    152.2569    108.0202   3.0341029566e+01   2.9912081421e+01    0.3761386    0.3044599  60.99  0.001898943    1.372    0.271
       157 -11.4639    144.4492    103.3562   3.0880665183e+01   3.2431556384e+01    0.3667909    0.3127534  11.84  0.001497567    1.374    0.272
       158 -11.3507     63.5959    108.0826   5.6838702906e+01   4.7195470046e+01     0.262601    0.2075056  44.50  0.000427881    1.260    0.206
       159 -11.6135    142.5166     46.4580   1.4999981841e+01   4.2720254148e+01    0.3436756    0.2481328  34.09  0.001698688    1.804    0.446
       160  -9.7299    122.1073     33.1061   1.4276495366e+01   4.9655824249e+01    0.1972072    0.1540819 -71.42 0.0006309488    1.311    0.237
       161 -10.3248    111.8831     32.8513   1.6270863879e+01   5.2288855161e+01    0.2200091    0.1882132  45.24 0.0005362161    1.237    0.192
       162  -9.9684    241.7446     29.8798   6.0268417143e-01   2.3880588048e+01    0.2220903    0.1251407 -55.48 0.0009804579    1.431    0.301
       163  -9.9693    237.9421     30.5490   9.6429774029e-01   2.4463600645e+01    0.1996594    0.1195018 -80.56  0.001015931    1.766    0.434
       164 -10.8843    227.5522     30.3001   1.5655982935e+00   2.6347009296e+01     0.455253    0.2649492  63.87  0.002823154    2.026    0.506
       165 -10.8552     80.2248     30.3925   2.3724271765e+01   6.0537897371e+01    0.2254223    0.2070131 -39.59 0.0005361859    1.182    0.154
       166 -10.5836     86.1113     29.0980   2.1303177209e+01   5.9285551487e+01    0.6034559    0.2175652  57.05  0.001872213    2.469    0.595
       167  -9.7288    103.3638     28.2456   1.6398732752e+01   5.5064923251e+01    0.4592952    0.3117574 -46.59  0.002111428    1.558    0.358
       168 -10.8137     97.7943     22.0585   1.5160035868e+01   5.7256868018e+01    0.2201419    0.2089716  22.45 0.0008576176    1.188    0.158
       169  -9.7414    101.7805     20.1744   1.3476242460e+01   5.6457779297e+01    0.3203504    0.2610631 -15.64  0.001505958    1.453    0.312
       170 -11.8693    160.7012    105.2372   2.7907151703e+01   2.8715659616e+01     0.339007    0.2477747 -54.51 0.0002209943    1.431    0.301
       171 -10.4405    119.3579     21.9996   1.0769033874e+01   5.1727858029e+01     0.229654    0.1806253  73.51 0.0003935296    1.153    0.132
       172  -9.7286    114.3422     28.3005   1.4048556853e+01   5.2254284230e+01    0.1466619    0.1025914  38.42 0.0007037102    1.673    0.402
       173 -10.6498    203.3542     26.2348   2.3558081096e+00   3.1489150596e+01    0.2075359    0.1744985 -44.70 0.0006264077    1.161    0.139
       174 -11.3482    153.1929     24.9248   6.8182395155e+00   4.2900524462e+01    0.3901545    0.2580991 -76.35  0.001098815    1.501    0.334
       175 -10.3426    148.1453     25.1342   7.5132381548e+00   4.4109169663e+01    0.2719443    0.1816635  65.71  0.001217621    1.439    0.305
       176 -11.1222    130.6787     19.3841   8.0304668854e+00   4.9128910940e+01    0.2974984    0.2111778  86.18  0.001585293    1.321    0.243
       177 -10.6848    135.1987     25.2649   9.3521179401e+00   4.7316569450e+01    0.5323736    0.3371071  18.09  0.002332885    2.701    0.630
       178 -11.7125    136.4908     19.2725   7.1742829392e+00   4.7670994782e+01    0.2975982     0.218667  64.20 0.0005020607    1.309    0.236
       179  -9.4626    234.1634     24.7880   1.1465788238e-03   2.5759832902e+01    0.2928402     0.171381 -34.48  0.001869581    1.463    0.317
       180 -11.8343    244.4382     22.8618   3.5905002271e+02   2.4177345079e+01    0.4896833     0.203878  77.92  0.002533185    2.731    0.634
       181  -9.9492    243.9639     19.2191   3.5835059405e+02   2.4640271536e+01    0.2851732    0.1244945  84.47  0.001631936    2.603    0.616
       182 -10.9469    176.1173     23.8695   4.0630346947e+00   3.7630912286e+01    0.2764786    0.1779779 -36.02 0.0007934709    1.472    0.321
       183 -10.1882    180.7314     21.1308   2.9202693309e+00   3.6897114960e+01    0.2565237     0.154318  81.28 0.0005278207    1.622    0.383
       184 -10.1943    112.7288     23.0963   1.2397299478e+01   5.3302941195e+01    0.3969301    0.2616089  39.67  0.001926478    1.769    0.435
       185 -10.3674    193.6265     23.9170   2.5540170883e+00   3.3776637648e+01    0.2260688     0.158351 -83.14 0.0007156634    1.353    0.261
       186  -9.9370    186.2397     23.9292   3.1685074893e+00   3.5368717846e+01     0.272013     0.121037 -70.62  0.001172614    2.669    0.625
       187 -10.2499    129.7143     23.9692   9.7542757632e+00   4.8855178267e+01    0.5278956    0.0850518  59.75  0.001543712    4.287    0.767
       188 -11.2863    201.8923     20.8360   1.1865773473e+00   3.2385686456e+01    0.2749958    0.2373206 -43.10  0.001047353    1.203    0.169
       189 -10.3511    204.1042     16.9620   1.2352360073e-01   3.2346630737e+01    0.3646141    0.1721306 -80.58  0.001841027    2.280    0.561
       190 -10.4631    163.0199     21.0154   4.5666710946e+00   4.0985600020e+01    0.1952677    0.1646136 -71.25  0.000385774    1.016    0.016
       191 -14.6824     52.3275     71.7992   5.1937881549e+01   5.8164593511e+01     2.830874     1.588337  21.03   0.01132975    2.124    0.529
       192  -9.4467    170.3810     19.7980   3.4977753363e+00   3.9396625045e+01    0.1673263    0.1221232 -16.46 0.0009423211    1.706    0.414
       193  -9.5509    151.4359     20.3974   5.6544927344e+00   4.3838991951e+01     0.134281    0.1134169 -76.59            0    1.034    0.033
       194 -10.2211    194.3103     17.9235   1.0295057505e+00   3.4285003785e+01    0.2018874    0.1394051 -69.38 0.0007881761    1.265    0.210
       195 -11.2243    160.7143     99.6404   2.6515434942e+01   2.9735780212e+01    0.3152387    0.2495671 -79.19  0.001628832    1.570    0.363
       196 -10.3721     15.9644    106.5039   7.6520633078e+01   5.3158882528e+01     0.287175    0.1781752 -53.35 0.0008697747    1.554    0.356
       197 -10.7393    210.5426    105.2695   1.9617793430e+01   1.9363586068e+01    0.2987857    0.2463617 -65.70  0.001377253    1.403    0.287
       198  -9.8006    182.2345    104.9793   2.3883041733e+01   2.4519897930e+01    0.1914464    0.1591728 -38.38 0.0003456966    1.085    0.078
       199 -10.5074     90.9708    104.1463   4.5944690770e+01   4.3344318612e+01    0.2324647    0.2253714  39.03  0.000454256    1.016    0.015
       200 -11.5716     74.4463     96.7182   4.9857458830e+01   4.8253573959e+01     0.670387     0.217462 -54.64  0.002059463    3.155    0.683
       201 -10.0206     93.9341     16.2349   1.3556750525e+01   5.8913618809e+01    0.3205174    0.1672208  47.37  0.001418512    1.899    0.473
       202 -11.5709    141.5659     96.2692   2.9680257792e+01   3.4423034349e+01    0.4776978    0.3051921  50.22   0.00219678    1.606    0.377
       203 -13.0032    105.2414     65.6616   2.9781889581e+01   4.8599834067e+01    0.8163782    0.6035631  47.19            0    1.327    0.246
       204 -12.8245     98.0642     75.7801   3.5307645143e+01   4.8237780177e+01     1.280321    0.5538409 -52.54  0.004400277    2.722    0.633
       205 -10.6822    103.8378     75.8206   3.3538375299e+01   4.6932229244e+01    0.2505029    0.2329346  18.47 0.0005600571    1.174    0.148
       206 -13.4487    120.7848     99.8627   3.5790235551e+01   3.8179272605e+01    0.9665632    0.4539692 -40.14  0.003615063    2.241    0.554
       207 -12.8120    137.3281     81.9220   2.6681032923e+01   3.8082480540e+01     1.183285     1.034286  79.27  0.006348824    1.202    0.168
       208 -13.6150    129.9682     95.5378   3.2234470094e+01   3.7087949764e+01    0.9220781    0.7475208  43.70  0.004677625    1.256    0.204
       209 -13.5143    122.5475     87.0209   3.1723262701e+01   4.0442567844e+01     1.114354    0.8397433 -14.67  0.004895205    1.769    0.435
       210 -11.8909    124.0664     69.4517   2.6042793853e+01   4.3449841655e+01    0.7369939    0.4350718 -67.88    0.0011889    2.610    0.617
       211 -13.7304    117.3893     61.3776   2.5081855147e+01   4.6483994163e+01    0.9042146    0.5991284 -50.37  0.003639418    1.571    0.364
       212 -11.6391    111.8020    102.9081   3.9119033536e+01   3.9419295543e+01    0.3095876    0.2380619 -11.60   0.00074623    1.721    0.419
       213 -11.7468    168.8162     98.4825   2.4691589992e+01   2.8281698974e+01    0.5543458    0.4444451 -10.22   0.00209417    1.496    0.331
       214 -11.2754    216.0853     99.8009   1.7708227866e+01   1.9245821934e+01    0.2831558    0.1673797 -37.03   0.00158318    1.403    0.287
       215 -11.5135    152.4156     98.6969   2.7955629870e+01   3.1643104418e+01    0.5337142    0.3392323 -63.53  0.002322409    2.073    0.518
       216 -12.2858    199.5755     96.5843   1.9248804078e+01   2.2639648341e+01    0.3665417    0.2552119 -36.17  0.002094821    1.257    0.204
       217 -11.8069     82.7330     98.9944   4.7424562178e+01   4.6162797377e+01    0.4621116    0.3364963 -19.21  0.002000262    1.831    0.454
       218 -10.3656     87.5293     97.8233   4.5422431675e+01   4.5520747113e+01    0.3636404    0.3287866  24.23  0.001113536    1.141    0.124
       219 -10.7041    225.4696     97.9589   1.6154495990e+01   1.7959828717e+01    0.2837463   0.08791877 -40.41  0.001133333    2.543    0.607
       220 -11.1863    105.2788     86.4875   3.6401942862e+01   4.4389119196e+01    0.5005395    0.4067091 -12.43  0.002386167    1.544    0.353
       221 -13.0821    102.7368     96.0782   3.9956890550e+01   4.2836023033e+01    0.9549167    0.5017664  41.59  0.001806668    1.889    0.471
       222 -11.8118     95.3453     90.0934   4.0594674222e+01   4.5726855224e+01    0.5357212    0.4485661  62.03  0.001306694    1.266    0.210
       223 -12.6872    114.7382     80.9199   3.1998495213e+01   4.3428860165e+01    0.7458684     0.515163 -50.25   0.00342922    1.487    0.328
       224 -10.4162    250.2409     95.6848   1.2994790982e+01   1.4470446258e+01    0.3616211    0.1244947 -32.59  0.001610743    2.420    0.587
       225  -9.4742    244.5096     96.9861   1.3831568855e+01   1.5137307964e+01    0.1733619   0.08956248 -35.38 0.0004093227    1.498    0.333
       226 -11.3166    159.2089     27.0386   6.7282858240e+00   4.1205782700e+01    0.4137711      0.32669 -28.18  0.002415332    1.397    0.284
       227 -13.6367    186.2736     60.5116   1.2459756793e+01   3.0692643139e+01      1.59119    0.8960431  62.33  0.000540968    1.902    0.474
       228 -12.9769    142.1039     66.2461   2.1098417698e+01   3.9739193631e+01     1.455695     1.259406 -57.29  0.002599874    1.119    0.106
       229 -11.4067    154.2123     63.2041   1.7957509840e+01   3.7402856638e+01    0.6668073    0.3204515 -44.79  0.002494055    1.978    0.494
